Temperature (C) Pressure (psia) Quality (l+v) Internal Energy (l+v, kJ/kg) Enthalpy (l+v, kJ/kg) Entropy (l+v, J/g*K) Density (l, kg/m3) Volume (l, m3/kg) Internal Energy (l, kJ/kg) Enthalpy (l, kJ/kg) Entropy (l, J/g*K) Cv (l, J/g*K) Cp (l, J/g*K) Sound Spd. (l, m/s) Joule-Thomson (l, F/psia) Viscosity (l, uPa*s) Therm. Cond. (l, W/m*K) Density (v, kg/m3) Volume (v, m3/kg) Internal Energy (v, kJ/kg) Enthalpy (v, kJ/kg) Entropy (v, J/g*K) Cv (v, J/g*K) Cp (v, J/g*K) Sound Spd. (v, m/s) Joule-Thomson (v, F/psia) Viscosity (v, uPa*s) Therm. Cond. (v, W/m*K)
-187.62 2.4953e-08 7.8219e-11 -196.64 -196.64 -1.3959 733.13 0.0013640 -196.64 -196.64 -1.3959 1.3553 1.9158 2136.4 -0.0077592 10960. 0.20792 1.0669e-08 9.3732e+07 350.13 366.26 5.1858 0.69067 0.87923 143.28 6.1051 2.3259 0.0017061
-186.62 3.7339e-08 1.1566e-10 -194.73 -194.73 -1.3736 732.08 0.0013660 -194.73 -194.73 -1.3736 1.3539 1.9166 2129.6 -0.0077546 10073. 0.20765 1.5780e-08 6.3371e+07 350.82 367.14 5.1200 0.69462 0.88317 144.03 5.9178 2.3534 0.0017533
-185.62 5.5322e-08 1.6936e-10 -192.81 -192.81 -1.3516 731.04 0.0013679 -192.81 -192.81 -1.3516 1.3525 1.9174 2122.9 -0.0077498 9276.1 0.20737 2.3112e-08 4.3267e+07 351.52 368.02 5.0561 0.69857 0.88713 144.77 5.7383 2.3808 0.0018007
-184.62 8.1182e-08 2.4566e-10 -190.89 -190.89 -1.3298 730.00 0.0013699 -190.89 -190.89 -1.3298 1.3513 1.9182 2116.1 -0.0077448 8557.8 0.20708 3.3533e-08 2.9821e+07 352.22 368.91 4.9939 0.70253 0.89108 145.51 5.5662 2.4083 0.0018485
-183.62 1.1803e-07 3.5309e-10 -188.97 -188.97 -1.3083 728.96 0.0013718 -188.97 -188.97 -1.3083 1.3501 1.9191 2109.3 -0.0077395 7909.8 0.20678 4.8211e-08 2.0742e+07 352.92 369.81 4.9333 0.70648 0.89504 146.24 5.4011 2.4357 0.0018965
-182.62 1.7009e-07 5.0304e-10 -187.05 -187.05 -1.2869 727.92 0.0013738 -187.05 -187.05 -1.2869 1.3490 1.9201 2102.5 -0.0077340 7324.3 0.20647 6.8704e-08 1.4555e+07 353.63 370.70 4.8744 0.71043 0.89899 146.97 5.2426 2.4632 0.0019448
-181.62 2.4299e-07 7.1061e-10 -185.13 -185.13 -1.2658 726.88 0.0013757 -185.13 -185.13 -1.2658 1.3480 1.9210 2095.7 -0.0077283 6794.5 0.20616 9.7079e-08 1.0301e+07 354.35 371.60 4.8170 0.71438 0.90294 147.69 5.0904 2.4906 0.0019934
-180.62 3.4425e-07 9.9559e-10 -183.21 -183.21 -1.2450 725.85 0.0013777 -183.21 -183.21 -1.2450 1.3470 1.9220 2088.9 -0.0077225 6314.4 0.20584 1.3605e-07 7.3504e+06 355.06 372.51 4.7612 0.71833 0.90688 148.41 4.9442 2.5181 0.0020423
-179.62 4.8378e-07 1.3838e-09 -181.29 -181.29 -1.2243 724.81 0.0013797 -181.29 -181.29 -1.2243 1.3461 1.9231 2082.0 -0.0077164 5878.8 0.20551 1.8915e-07 5.2868e+06 355.78 373.42 4.7068 0.72227 0.91082 149.13 4.8038 2.5456 0.0020915
-178.62 6.7459e-07 1.9087e-09 -179.37 -179.37 -1.2038 723.78 0.0013816 -179.37 -179.37 -1.2038 1.3453 1.9241 2075.2 -0.0077102 5482.9 0.20517 2.6096e-07 3.8320e+06 356.51 374.33 4.6538 0.72620 0.91475 149.84 4.6688 2.5731 0.0021410
-177.62 9.3358e-07 2.6131e-09 -177.44 -177.44 -1.1836 722.75 0.0013836 -177.44 -177.44 -1.1836 1.3445 1.9252 2068.4 -0.0077039 5122.6 0.20483 3.5737e-07 2.7982e+06 357.23 375.25 4.6022 0.73012 0.91867 150.54 4.5390 2.6005 0.0021907
-176.62 1.2826e-06 3.5518e-09 -175.52 -175.52 -1.1635 721.72 0.0013856 -175.52 -175.52 -1.1635 1.3437 1.9263 2061.5 -0.0076973 4794.1 0.20447 4.8588e-07 2.0581e+06 357.97 376.17 4.5519 0.73403 0.92258 151.25 4.4142 2.6280 0.0022408
-175.62 1.7496e-06 4.7942e-09 -173.59 -173.59 -1.1437 720.69 0.0013876 -173.59 -173.59 -1.1437 1.3430 1.9274 2054.7 -0.0076907 4494.3 0.20411 6.5601e-07 1.5244e+06 358.70 377.09 4.5029 0.73792 0.92648 151.95 4.2941 2.6555 0.0022912
-174.62 2.3705e-06 6.4276e-09 -171.66 -171.66 -1.1240 719.66 0.0013895 -171.66 -171.66 -1.1240 1.3423 1.9286 2047.9 -0.0076838 4220.2 0.20375 8.7976e-07 1.1367e+06 359.44 378.02 4.4551 0.74181 0.93036 152.64 4.1784 2.6830 0.0023418
-173.62 3.1903e-06 8.5614e-09 -169.73 -169.73 -1.1045 718.64 0.0013915 -169.73 -169.73 -1.1045 1.3417 1.9298 2041.0 -0.0076769 3969.3 0.20338 1.1721e-06 8.5314e+05 360.19 378.95 4.4085 0.74568 0.93423 153.33 4.0671 2.7105 0.0023928
-172.62 4.2661e-06 1.1332e-08 -167.80 -167.80 -1.0852 717.61 0.0013935 -167.80 -167.80 -1.0852 1.3411 1.9310 2034.2 -0.0076698 3739.3 0.20300 1.5518e-06 6.4441e+05 360.93 379.89 4.3631 0.74953 0.93809 154.02 3.9599 2.7379 0.0024440
-171.62 5.6692e-06 1.4906e-08 -165.87 -165.87 -1.0661 716.58 0.0013955 -165.87 -165.87 -1.0661 1.3405 1.9322 2027.3 -0.0076625 3528.0 0.20261 2.0419e-06 4.8974e+05 361.69 380.83 4.3188 0.75337 0.94193 154.71 3.8566 2.7654 0.0024955
-170.62 7.4884e-06 1.9492e-08 -163.94 -163.94 -1.0472 715.56 0.0013975 -163.94 -163.94 -1.0472 1.3400 1.9334 2020.5 -0.0076552 3333.8 0.20222 2.6708e-06 3.7442e+05 362.44 381.77 4.2755 0.75720 0.94575 155.39 3.7570 2.7929 0.0025473
-169.62 9.8334e-06 2.5342e-08 -162.00 -162.00 -1.0284 714.54 0.0013995 -162.00 -162.00 -1.0284 1.3395 1.9347 2013.6 -0.0076477 3154.9 0.20182 3.4733e-06 2.8791e+05 363.20 382.72 4.2334 0.76100 0.94956 156.07 3.6609 2.8204 0.0025994
-168.62 1.2839e-05 3.2763e-08 -160.07 -160.07 -1.0098 713.52 0.0014015 -160.07 -160.07 -1.0098 1.3390 1.9359 2006.8 -0.0076401 2989.9 0.20141 4.4917e-06 2.2263e+05 363.96 383.67 4.1922 0.76479 0.95335 156.74 3.5683 2.8479 0.0026518
-167.62 1.6672e-05 4.2128e-08 -158.13 -158.13 -0.99134 712.49 0.0014035 -158.13 -158.13 -0.99134 1.3386 1.9372 2000.0 -0.0076323 2837.5 0.20100 5.7771e-06 1.7310e+05 364.73 384.63 4.1521 0.76856 0.95712 157.41 3.4790 2.8754 0.0027045
-166.62 2.1533e-05 5.3884e-08 -156.19 -156.19 -0.97306 711.47 0.0014055 -156.19 -156.19 -0.97306 1.3382 1.9385 1993.1 -0.0076245 2696.5 0.20058 7.3914e-06 1.3529e+05 365.50 385.59 4.1129 0.77232 0.96087 158.08 3.3927 2.9029 0.0027575
-165.62 2.7666e-05 6.8569e-08 -154.25 -154.25 -0.95494 710.45 0.0014075 -154.25 -154.25 -0.95494 1.3378 1.9398 1986.3 -0.0076165 2566.0 0.20016 9.4084e-06 1.0629e+05 366.27 386.55 4.0746 0.77605 0.96460 158.75 3.3095 2.9304 0.0028108
-164.62 3.5367e-05 8.6824e-08 -152.31 -152.31 -0.93698 709.44 0.0014096 -152.31 -152.31 -0.93698 1.3375 1.9411 1979.4 -0.0076084 2444.9 0.19973 1.1916e-05 83918. 367.05 387.52 4.0372 0.77976 0.96832 159.41 3.2291 2.9579 0.0028643
-163.62 4.4989e-05 1.0941e-07 -150.37 -150.37 -0.91917 708.42 0.0014116 -150.37 -150.37 -0.91917 1.3371 1.9424 1972.6 -0.0076002 2332.3 0.19930 1.5020e-05 66577. 367.83 388.49 4.0008 0.78346 0.97201 160.07 3.1514 2.9854 0.0029182
-162.62 5.6956e-05 1.3722e-07 -148.43 -148.43 -0.90151 707.40 0.0014136 -148.43 -148.43 -0.90151 1.3368 1.9437 1965.8 -0.0075919 2227.7 0.19886 1.8844e-05 53068. 368.62 389.46 3.9651 0.78713 0.97569 160.72 3.0764 3.0129 0.0029723
-161.62 7.1773e-05 1.7132e-07 -146.48 -146.48 -0.88400 706.38 0.0014157 -146.48 -146.48 -0.88400 1.3365 1.9451 1959.0 -0.0075834 2130.2 0.19841 2.3533e-05 42494. 369.41 390.44 3.9304 0.79079 0.97935 161.38 3.0038 3.0404 0.0030268
-160.62 9.0036e-05 2.1294e-07 -144.54 -144.54 -0.86663 705.37 0.0014177 -144.54 -144.54 -0.86663 1.3363 1.9465 1952.1 -0.0075748 2039.2 0.19796 2.9258e-05 34178. 370.20 391.42 3.8964 0.79443 0.98298 162.03 2.9337 3.0679 0.0030815
-159.62 0.00011245 2.6354e-07 -142.59 -142.59 -0.84940 704.35 0.0014197 -142.59 -142.59 -0.84940 1.3360 1.9478 1945.3 -0.0075661 1954.2 0.19751 3.6221e-05 27609. 371.00 392.40 3.8632 0.79805 0.98660 162.68 2.8658 3.0955 0.0031365
-158.62 0.00013985 3.2479e-07 -140.64 -140.64 -0.83231 703.34 0.0014218 -140.64 -140.64 -0.83231 1.3358 1.9492 1938.5 -0.0075573 1874.8 0.19705 4.4652e-05 22395. 371.80 393.39 3.8307 0.80164 0.99020 163.32 2.8002 3.1230 0.0031918
-157.62 0.00017320 3.9865e-07 -138.69 -138.69 -0.81536 702.32 0.0014238 -138.69 -138.69 -0.81536 1.3356 1.9506 1931.7 -0.0075484 1800.3 0.19658 5.4822e-05 18241. 372.60 394.38 3.7990 0.80522 0.99378 163.96 2.7367 3.1505 0.0032474
-156.62 0.00021364 4.8737e-07 -136.74 -136.74 -0.79854 701.31 0.0014259 -136.74 -136.74 -0.79854 1.3354 1.9520 1924.9 -0.0075393 1730.5 0.19611 6.7040e-05 14916. 373.41 395.38 3.7680 0.80878 0.99734 164.60 2.6752 3.1780 0.0033033
-155.62 0.00026248 5.9353e-07 -134.79 -134.79 -0.78185 700.30 0.0014280 -134.79 -134.79 -0.78185 1.3352 1.9534 1918.1 -0.0075302 1664.9 0.19564 8.1666e-05 12245. 374.22 396.38 3.7377 0.81232 1.0009 165.24 2.6157 3.2055 0.0033595
-154.62 0.00032125 7.2009e-07 -132.83 -132.83 -0.76529 699.29 0.0014300 -132.83 -132.83 -0.76530 1.3350 1.9548 1911.3 -0.0075209 1603.3 0.19516 9.9109e-05 10090. 375.03 397.38 3.7081 0.81585 1.0044 165.87 2.5580 3.2330 0.0034160
-153.62 0.00039171 8.7045e-07 -130.88 -130.88 -0.74886 698.27 0.0014321 -130.88 -130.88 -0.74887 1.3349 1.9563 1904.5 -0.0075114 1545.3 0.19468 0.00011984 8344.6 375.85 398.39 3.6792 0.81935 1.0079 166.50 2.5022 3.2606 0.0034727
-152.62 0.00047590 1.0485e-06 -128.92 -128.92 -0.73256 697.26 0.0014342 -128.92 -128.92 -0.73256 1.3348 1.9577 1897.8 -0.0075019 1490.6 0.19419 0.00014439 6925.9 376.67 399.40 3.6509 0.82284 1.0114 167.13 2.4481 3.2881 0.0035298
-151.62 0.00057613 1.2585e-06 -126.96 -126.96 -0.71638 696.25 0.0014363 -126.96 -126.96 -0.71638 1.3346 1.9592 1891.0 -0.0074922 1438.9 0.19370 0.00017336 5768.4 377.49 400.41 3.6232 0.82631 1.0149 167.76 2.3957 3.3156 0.0035872
-150.62 0.00069507 1.5054e-06 -125.00 -125.00 -0.70031 695.24 0.0014384 -125.00 -125.00 -0.70032 1.3345 1.9606 1884.2 -0.0074824 1390.2 0.19320 0.00020744 4820.7 378.32 401.42 3.5962 0.82976 1.0183 168.38 2.3448 3.3431 0.0036448
-149.62 0.00083574 1.7950e-06 -123.04 -123.04 -0.68437 694.23 0.0014404 -123.04 -123.04 -0.68438 1.3345 1.9621 1877.4 -0.0074724 1344.0 0.19270 0.00024740 4042.0 379.15 402.44 3.5697 0.83319 1.0218 169.00 2.2956 3.3706 0.0037027
-148.62 0.0010016 2.1333e-06 -121.08 -121.08 -0.66854 693.22 0.0014425 -121.08 -121.08 -0.66855 1.3344 1.9636 1870.7 -0.0074623 1300.3 0.19220 0.00029412 3400.0 379.99 403.47 3.5438 0.83661 1.0252 169.62 2.2478 3.3982 0.0037610
-147.62 0.0011965 2.5274e-06 -119.11 -119.11 -0.65283 692.21 0.0014447 -119.11 -119.11 -0.65284 1.3343 1.9651 1863.9 -0.0074521 1258.9 0.19169 0.00034856 2869.0 380.83 404.49 3.5185 0.84001 1.0286 170.24 2.2014 3.4257 0.0038195
-146.62 0.0014249 2.9852e-06 -117.15 -117.15 -0.63723 691.20 0.0014468 -117.15 -117.15 -0.63724 1.3343 1.9666 1857.2 -0.0074417 1219.6 0.19117 0.00041181 2428.3 381.67 405.52 3.4938 0.84340 1.0320 170.85 2.1565 3.4532 0.0038783
-145.62 0.0016917 3.5154e-06 -115.18 -115.18 -0.62174 690.19 0.0014489 -115.18 -115.18 -0.62175 1.3343 1.9682 1850.4 -0.0074312 1182.3 0.19066 0.00048510 2061.4 382.51 406.56 3.4695 0.84677 1.0353 171.46 2.1128 3.4807 0.0039374
-144.62 0.0020026 4.1277e-06 -113.21 -113.21 -0.60635 689.18 0.0014510 -113.21 -113.21 -0.60637 1.3343 1.9697 1843.7 -0.0074206 1146.8 0.19014 0.00056976 1755.1 383.36 407.59 3.4458 0.85012 1.0387 172.07 2.0705 3.5082 0.0039967
-143.62 0.0023637 4.8330e-06 -111.24 -111.24 -0.59108 688.17 0.0014531 -111.24 -111.24 -0.59110 1.3343 1.9713 1836.9 -0.0074098 1113.0 0.18962 0.00066731 1498.6 384.21 408.63 3.4226 0.85346 1.0420 172.68 2.0294 3.5358 0.0040564
-142.62 0.0027820 5.6431e-06 -109.27 -109.27 -0.57591 687.16 0.0014553 -109.27 -109.27 -0.57593 1.3343 1.9728 1830.2 -0.0073988 1080.8 0.18909 0.00077939 1283.1 385.07 409.68 3.3999 0.85679 1.0454 173.28 1.9896 3.5633 0.0041164
-141.62 0.0032653 6.5712e-06 -107.29 -107.29 -0.56084 686.15 0.0014574 -107.30 -107.30 -0.56087 1.3343 1.9744 1823.5 -0.0073878 1050.1 0.18856 0.00090784 1101.5 385.93 410.72 3.3777 0.86011 1.0487 173.88 1.9508 3.5908 0.0041766
-140.62 0.0038222 7.6317e-06 -105.32 -105.32 -0.54588 685.14 0.0014596 -105.32 -105.32 -0.54591 1.3344 1.9760 1816.7 -0.0073765 1020.7 0.18803 0.0010547 948.16 386.79 411.77 3.3560 0.86341 1.0520 174.48 1.9133 3.6183 0.0042372
-139.62 0.0044623 8.8406e-06 -103.34 -103.34 -0.53101 684.13 0.0014617 -103.34 -103.34 -0.53105 1.3344 1.9776 1810.0 -0.0073651 992.74 0.18749 0.0012221 818.26 387.65 412.83 3.3347 0.86670 1.0553 175.08 1.8768 3.6459 0.0042980
-138.62 0.0051963 1.0215e-05 -101.36 -101.36 -0.51625 683.12 0.0014639 -101.37 -101.37 -0.51629 1.3345 1.9792 1803.3 -0.0073536 965.97 0.18695 0.0014125 707.94 388.52 413.88 3.3139 0.86998 1.0586 175.67 1.8413 3.6734 0.0043592
-137.62 0.0060358 1.1775e-05 -99.380 -99.380 -0.50158 682.11 0.0014660 -99.386 -99.386 -0.50162 1.3346 1.9808 1796.6 -0.0073419 940.35 0.18641 0.0016287 614.00 389.39 414.94 3.2935 0.87325 1.0619 176.26 1.8069 3.7009 0.0044206
-136.62 0.0069938 1.3540e-05 -97.398 -97.397 -0.48700 681.10 0.0014682 -97.404 -97.404 -0.48705 1.3347 1.9825 1789.9 -0.0073301 915.81 0.18586 0.0018733 533.80 390.26 416.00 3.2735 0.87650 1.0651 176.85 1.7734 3.7284 0.0044823
-135.62 0.0080843 1.5532e-05 -95.414 -95.413 -0.47252 680.09 0.0014704 -95.421 -95.421 -0.47258 1.3348 1.9841 1783.2 -0.0073180 892.30 0.18531 0.0021497 465.17 391.14 417.07 3.2540 0.87975 1.0684 177.44 1.7409 3.7559 0.0045443
-134.62 0.0093230 1.7778e-05 -93.428 -93.427 -0.45813 679.08 0.0014726 -93.436 -93.436 -0.45820 1.3350 1.9858 1776.5 -0.0073059 869.75 0.18476 0.0024613 406.30 392.02 418.14 3.2348 0.88299 1.0716 178.02 1.7093 3.7834 0.0046066
-133.62 0.010727 2.0303e-05 -91.440 -91.439 -0.44383 678.07 0.0014748 -91.450 -91.449 -0.44391 1.3351 1.9875 1769.8 -0.0072935 848.11 0.18421 0.0028116 355.67 392.91 419.21 3.2161 0.88622 1.0749 178.61 1.6786 3.8109 0.0046691
-132.62 0.012315 2.3135e-05 -89.450 -89.449 -0.42962 677.06 0.0014770 -89.461 -89.461 -0.42971 1.3353 1.9892 1763.1 -0.0072810 827.32 0.18365 0.0032049 312.03 393.79 420.29 3.1977 0.88944 1.0781 179.19 1.6488 3.8385 0.0047320
-131.62 0.014106 2.6306e-05 -87.458 -87.458 -0.41550 676.04 0.0014792 -87.471 -87.471 -0.41560 1.3354 1.9909 1756.4 -0.0072684 807.34 0.18309 0.0036453 274.33 394.68 421.36 3.1798 0.89266 1.0813 179.76 1.6197 3.8660 0.0047951
-130.62 0.016124 2.9849e-05 -85.465 -85.464 -0.40147 675.03 0.0014814 -85.479 -85.479 -0.40157 1.3356 1.9926 1749.7 -0.0072555 788.12 0.18253 0.0041375 241.69 395.58 422.44 3.1622 0.89586 1.0846 180.34 1.5915 3.8935 0.0048586
-129.62 0.018392 3.3801e-05 -83.470 -83.469 -0.38752 674.02 0.0014836 -83.486 -83.486 -0.38763 1.3358 1.9944 1743.0 -0.0072425 769.63 0.18196 0.0046867 213.37 396.47 423.53 3.1450 0.89906 1.0878 180.91 1.5641 3.9210 0.0049223
-128.62 0.020935 3.8199e-05 -81.472 -81.471 -0.37365 673.01 0.0014859 -81.491 -81.490 -0.37378 1.3360 1.9961 1736.3 -0.0072294 751.83 0.18140 0.0052981 188.75 397.37 424.62 3.1281 0.90226 1.0910 181.48 1.5374 3.9485 0.0049863
-127.62 0.023783 4.3084e-05 -79.473 -79.472 -0.35986 672.00 0.0014881 -79.494 -79.493 -0.36001 1.3363 1.9979 1729.6 -0.0072160 734.67 0.18083 0.0059776 167.29 398.27 425.71 3.1116 0.90545 1.0942 182.05 1.5114 3.9760 0.0050506
-126.62 0.026966 4.8502e-05 -77.472 -77.470 -0.34616 670.98 0.0014904 -77.495 -77.495 -0.34632 1.3365 1.9997 1722.9 -0.0072025 718.14 0.18025 0.0067313 148.56 399.18 426.80 3.0954 0.90863 1.0974 182.62 1.4861 4.0035 0.0051152
-125.62 0.030515 5.4499e-05 -75.468 -75.467 -0.33253 669.97 0.0014926 -75.494 -75.494 -0.33272 1.3368 2.0015 1716.2 -0.0071888 702.18 0.17968 0.0075660 132.17 400.09 427.89 3.0795 0.91181 1.1006 183.18 1.4615 4.0310 0.0051800
-124.62 0.034467 6.1125e-05 -73.463 -73.461 -0.31898 668.95 0.0014949 -73.492 -73.492 -0.31919 1.3371 2.0033 1709.5 -0.0071749 686.79 0.17910 0.0084885 117.81 401.00 428.99 3.0640 0.91499 1.1038 183.74 1.4375 4.0584 0.0052452
-123.62 0.038859 6.8433e-05 -71.455 -71.453 -0.30551 667.94 0.0014971 -71.488 -71.487 -0.30574 1.3374 2.0051 1702.8 -0.0071609 671.93 0.17852 0.0095065 105.19 401.91 430.10 3.0488 0.91816 1.1070 184.30 1.4141 4.0859 0.0053106
-122.62 0.043731 7.6482e-05 -69.445 -69.443 -0.29211 666.92 0.0014994 -69.482 -69.481 -0.29237 1.3377 2.0070 1696.2 -0.0071466 657.57 0.17794 0.010628 94.092 402.83 431.20 3.0339 0.92134 1.1102 184.86 1.3913 4.1134 0.0053764
-121.62 0.049128 8.5330e-05 -67.433 -67.431 -0.27879 665.91 0.0015017 -67.474 -67.473 -0.27907 1.3380 2.0089 1689.5 -0.0071322 643.70 0.17736 0.011861 84.309 403.75 432.31 3.0193 0.92451 1.1134 185.41 1.3691 4.1409 0.0054424
-120.62 0.055096 9.5042e-05 -65.419 -65.416 -0.26554 664.89 0.0015040 -65.464 -65.463 -0.26585 1.3384 2.0107 1682.8 -0.0071176 630.28 0.17678 0.013215 75.669 404.67 433.42 3.0050 0.92767 1.1166 185.96 1.3475 4.1683 0.0055087
-119.62 0.061684 0.00010569 -63.403 -63.399 -0.25236 663.87 0.0015063 -63.452 -63.452 -0.25271 1.3387 2.0126 1676.1 -0.0071028 617.30 0.17619 0.014700 68.027 405.60 434.53 2.9909 0.93084 1.1198 186.51 1.3264 4.1958 0.0055752
-118.62 0.068946 0.00011733 -61.384 -61.380 -0.23926 662.86 0.0015086 -61.439 -61.438 -0.23963 1.3391 2.0146 1669.4 -0.0070878 604.74 0.17560 0.016325 61.255 406.53 435.64 2.9772 0.93401 1.1231 187.06 1.3058 4.2233 0.0056421
-117.62 0.076937 0.00013006 -59.362 -59.358 -0.22622 661.84 0.0015109 -59.423 -59.422 -0.22663 1.3395 2.0165 1662.8 -0.0070726 592.58 0.17501 0.018101 55.245 407.46 436.76 2.9638 0.93718 1.1263 187.60 1.2857 4.2507 0.0057092
-116.62 0.085718 0.00014394 -57.339 -57.334 -0.21325 660.82 0.0015133 -57.406 -57.405 -0.21370 1.3400 2.0184 1656.1 -0.0070573 580.80 0.17442 0.020040 49.901 408.39 437.88 2.9506 0.94035 1.1295 188.14 1.2660 4.2782 0.0057767
-115.62 0.095353 0.00015906 -55.312 -55.307 -0.20034 659.80 0.0015156 -55.386 -55.385 -0.20084 1.3404 2.0204 1649.4 -0.0070417 569.38 0.17383 0.022152 45.142 409.33 439.01 2.9377 0.94352 1.1327 188.68 1.2468 4.3056 0.0058444
-114.62 0.10591 0.00017551 -53.284 -53.277 -0.18750 658.78 0.0015180 -53.365 -53.364 -0.18805 1.3409 2.0224 1642.7 -0.0070260 558.32 0.17323 0.024451 40.898 410.27 440.13 2.9250 0.94669 1.1360 189.22 1.2281 4.3330 0.0059123
-113.62 0.11746 0.00019338 -51.252 -51.245 -0.17473 657.76 0.0015203 -51.342 -51.340 -0.17533 1.3413 2.0244 1636.0 -0.0070100 547.59 0.17264 0.026949 37.107 411.21 441.26 2.9126 0.94987 1.1392 189.75 1.2097 4.3604 0.0059806
-112.62 0.13008 0.00021277 -49.218 -49.210 -0.16202 656.73 0.0015227 -49.316 -49.315 -0.16267 1.3418 2.0264 1629.3 -0.0069938 537.18 0.17204 0.029661 33.715 412.16 442.39 2.9005 0.95305 1.1424 190.28 1.1918 4.3879 0.0060491
-111.62 0.14384 0.00023377 -47.181 -47.172 -0.14937 655.71 0.0015251 -47.289 -47.287 -0.15008 1.3424 2.0285 1622.7 -0.0069774 527.08 0.17144 0.032600 30.675 413.10 443.53 2.8885 0.95623 1.1457 190.81 1.1742 4.4153 0.0061180
-110.62 0.15884 0.00025650 -45.141 -45.132 -0.13678 654.69 0.0015274 -45.259 -45.258 -0.13755 1.3429 2.0305 1616.0 -0.0069609 517.28 0.17084 0.035781 27.948 414.06 444.66 2.8769 0.95942 1.1490 191.34 1.1570 4.4427 0.0061871
-109.62 0.17516 0.00028106 -43.099 -43.088 -0.12425 653.66 0.0015298 -43.228 -43.226 -0.12509 1.3435 2.0326 1609.3 -0.0069441 507.76 0.17024 0.039220 25.497 415.01 445.80 2.8654 0.96261 1.1522 191.86 1.1402 4.4701 0.0062564
-108.62 0.19290 0.00030756 -41.054 -41.042 -0.11178 652.64 0.0015322 -41.194 -41.192 -0.11269 1.3441 2.0347 1602.6 -0.0069271 498.51 0.16964 0.042933 23.292 415.96 446.94 2.8542 0.96581 1.1555 192.38 1.1236 4.4974 0.0063261
-107.62 0.21215 0.00033614 -39.005 -38.992 -0.099368 651.61 0.0015347 -39.158 -39.156 -0.10036 1.3447 2.0369 1595.9 -0.0069098 489.52 0.16903 0.046937 21.305 416.92 448.09 2.8433 0.96901 1.1588 192.90 1.1075 4.5248 0.0063960
-106.62 0.23301 0.00036691 -36.954 -36.940 -0.087011 650.58 0.0015371 -37.120 -37.118 -0.088082 1.3453 2.0390 1589.2 -0.0068924 480.79 0.16843 0.051250 19.512 417.88 449.23 2.8325 0.97222 1.1621 193.41 1.0916 4.5522 0.0064662
-105.62 0.25561 0.00040000 -34.899 -34.884 -0.074709 649.55 0.0015395 -35.080 -35.078 -0.075868 1.3460 2.0412 1582.6 -0.0068747 472.30 0.16782 0.055891 17.892 418.85 450.38 2.8220 0.97544 1.1655 193.93 1.0760 4.5795 0.0065367
-104.62 0.28004 0.00043554 -32.841 -32.824 -0.062462 648.52 0.0015420 -33.038 -33.035 -0.063714 1.3467 2.0434 1575.9 -0.0068569 464.04 0.16721 0.060878 16.426 419.81 451.53 2.8116 0.97867 1.1688 194.44 1.0608 4.6069 0.0066074
-103.62 0.30643 0.00047368 -30.780 -30.761 -0.050267 647.49 0.0015444 -30.994 -30.991 -0.051619 1.3474 2.0456 1569.2 -0.0068387 456.00 0.16660 0.066231 15.099 420.78 452.68 2.8015 0.98191 1.1722 194.94 1.0458 4.6342 0.0066785
-102.62 0.33490 0.00051456 -28.715 -28.695 -0.038125 646.46 0.0015469 -28.947 -28.944 -0.039582 1.3481 2.0478 1562.5 -0.0068204 448.18 0.16600 0.071971 13.894 421.75 453.84 2.7916 0.98516 1.1755 195.44 1.0310 4.6615 0.0067498
-101.62 0.36558 0.00055833 -26.647 -26.625 -0.026033 645.43 0.0015494 -26.898 -26.894 -0.027602 1.3489 2.0501 1555.8 -0.0068018 440.57 0.16539 0.078120 12.801 422.73 454.99 2.7818 0.98841 1.1789 195.95 1.0166 4.6888 0.0068213
-100.62 0.39862 0.00060515 -24.576 -24.552 -0.013991 644.39 0.0015519 -24.847 -24.843 -0.015678 1.3497 2.0524 1549.1 -0.0067830 433.16 0.16478 0.084699 11.807 423.70 456.15 2.7723 0.99168 1.1823 196.44 1.0024 4.7161 0.0068932
-99.625 0.43414 0.00065517 -22.501 -22.475 -0.0019975 643.36 0.0015544 -22.794 -22.789 -0.0038103 1.3505 2.0547 1542.4 -0.0067639 425.95 0.16416 0.091731 10.901 424.68 457.31 2.7630 0.99496 1.1858 196.94 0.98838 4.7434 0.0069653
-98.625 0.47230 0.00070856 -20.422 -20.393 0.0099483 642.32 0.0015569 -20.738 -20.733 0.0080027 1.3514 2.0570 1535.7 -0.0067447 418.92 0.16355 0.099240 10.077 425.66 458.48 2.7538 0.99825 1.1892 197.43 0.97464 4.7707 0.0070377
-97.625 0.51325 0.00076550 -18.339 -18.308 0.021848 641.28 0.0015594 -18.680 -18.674 0.019762 1.3522 2.0594 1529.0 -0.0067251 412.07 0.16294 0.10725 9.3239 426.65 459.64 2.7448 1.0016 1.1927 197.92 0.96112 4.7979 0.0071103
-96.625 0.55714 0.00082615 -16.252 -16.219 0.033702 640.24 0.0015619 -16.620 -16.614 0.031467 1.3531 2.0618 1522.3 -0.0067053 405.39 0.16233 0.11579 8.6365 427.63 460.81 2.7360 1.0049 1.1962 198.40 0.94783 4.8251 0.0071832
-95.625 0.60416 0.00089070 -14.162 -14.126 0.045511 639.20 0.0015645 -14.557 -14.550 0.043120 1.3540 2.0642 1515.7 -0.0066853 398.88 0.16171 0.12488 8.0078 428.62 461.98 2.7274 1.0082 1.1997 198.88 0.93475 4.8524 0.0072564
-94.625 0.65446 0.00095934 -12.067 -12.028 0.057277 638.16 0.0015670 -12.491 -12.484 0.054721 1.3550 2.0667 1509.0 -0.0066650 392.53 0.16110 0.13455 7.4323 429.61 463.15 2.7189 1.0116 1.2032 199.36 0.92188 4.8796 0.0073299
-93.625 0.70822 0.0010323 -9.9685 -9.9260 0.069001 637.12 0.0015696 -10.424 -10.416 0.066271 1.3560 2.0691 1502.3 -0.0066444 386.34 0.16048 0.14482 6.9050 430.60 464.32 2.7107 1.0149 1.2068 199.83 0.90921 4.9068 0.0074036
-92.625 0.76564 0.0011096 -7.8653 -7.8194 0.080683 636.07 0.0015722 -8.3535 -8.3452 0.077771 1.3570 2.0716 1495.6 -0.0066236 380.31 0.15987 0.15573 6.4212 431.60 465.49 2.7025 1.0183 1.2104 200.30 0.89673 4.9340 0.0074776
-91.625 0.82689 0.0011917 -5.7578 -5.7083 0.092325 635.02 0.0015747 -6.2808 -6.2719 0.089220 1.3580 2.0742 1488.9 -0.0066025 374.41 0.15925 0.16731 5.9769 432.59 466.67 2.6946 1.0217 1.2140 200.77 0.88445 4.9611 0.0075518
-90.625 0.89218 0.0012787 -3.6458 -3.5923 0.10393 633.98 0.0015773 -4.2056 -4.1959 0.10062 1.3591 2.0767 1482.2 -0.0065811 368.66 0.15864 0.17958 5.5685 433.59 467.84 2.6868 1.0251 1.2177 201.24 0.87236 4.9883 0.0076263
-89.625 0.96172 0.0013707 -1.5292 -1.4716 0.11549 632.93 0.0015800 -2.1279 -2.1174 0.11197 1.3602 2.0793 1475.5 -0.0065595 363.05 0.15802 0.19258 5.1928 434.59 469.02 2.6791 1.0285 1.2213 201.70 0.86045 5.0154 0.0077011
-88.625 1.0357 0.0014681 0.59205 0.65415 0.12702 631.88 0.0015826 -0.047516 -0.036215 0.12328 1.3613 2.0819 1468.8 -0.0065375 357.56 0.15740 0.20633 4.8466 435.59 470.20 2.6717 1.0320 1.2250 202.15 0.84873 5.0425 0.0077761
-87.625 1.1144 0.0015710 2.7182 2.7850 0.13851 630.83 0.0015852 2.0355 2.0476 0.13454 1.3625 2.0846 1462.1 -0.0065153 352.21 0.15679 0.22087 4.5276 436.60 471.39 2.6643 1.0354 1.2288 202.61 0.83718 5.0696 0.0078514
-86.625 1.1979 0.0016797 4.8492 4.9210 0.14997 629.77 0.0015879 4.1211 4.1342 0.14575 1.3637 2.0873 1455.4 -0.0064928 346.98 0.15617 0.23623 4.2331 437.61 472.57 2.6571 1.0389 1.2325 203.06 0.82580 5.0967 0.0079270
-85.625 1.2866 0.0017944 6.9853 7.0624 0.16139 628.72 0.0015905 6.2094 6.2235 0.15691 1.3649 2.0900 1448.8 -0.0064701 341.87 0.15555 0.25245 3.9612 438.61 473.75 2.6501 1.0424 1.2363 203.50 0.81460 5.1237 0.0080028
-84.625 1.3806 0.0019154 9.1265 9.2093 0.17278 627.66 0.0015932 8.3004 8.3155 0.16803 1.3661 2.0927 1442.1 -0.0064470 336.87 0.15494 0.26956 3.7097 439.63 474.94 2.6432 1.0460 1.2402 203.95 0.80356 5.1508 0.0080789
-83.625 1.4803 0.0020428 11.273 11.362 0.18413 626.60 0.0015959 10.394 10.410 0.17911 1.3674 2.0955 1435.4 -0.0064236 331.99 0.15432 0.28760 3.4771 440.64 476.13 2.6364 1.0495 1.2440 204.38 0.79269 5.1778 0.0081553
-82.625 1.5858 0.0021770 13.425 13.520 0.19546 625.54 0.0015986 12.491 12.508 0.19014 1.3687 2.0983 1428.7 -0.0063999 327.22 0.15370 0.30659 3.2616 441.65 477.31 2.6298 1.0531 1.2479 204.82 0.78199 5.2048 0.0082319
-81.625 1.6975 0.0023182 15.582 15.684 0.20675 624.48 0.0016013 14.590 14.609 0.20113 1.3700 2.1012 1422.0 -0.0063759 322.55 0.15309 0.32659 3.0619 442.67 478.50 2.6233 1.0567 1.2519 205.25 0.77144 5.2318 0.0083088
-80.625 1.8155 0.0024666 17.745 17.854 0.21801 623.42 0.0016041 16.692 16.712 0.21208 1.3714 2.1041 1415.4 -0.0063516 317.99 0.15247 0.34763 2.8766 443.69 479.70 2.6169 1.0603 1.2558 205.67 0.76106 5.2587 0.0083860
-79.625 1.9402 0.0026226 19.914 20.030 0.22925 622.36 0.0016068 18.797 18.819 0.22299 1.3728 2.1070 1408.7 -0.0063270 313.52 0.15186 0.36974 2.7046 444.71 480.89 2.6106 1.0639 1.2598 206.10 0.75083 5.2857 0.0084634
-78.625 2.0718 0.0027863 22.089 22.213 0.24046 621.29 0.0016096 20.905 20.928 0.23385 1.3742 2.1099 1402.0 -0.0063021 309.15 0.15124 0.39296 2.5448 445.73 482.08 2.6045 1.0676 1.2639 206.51 0.74076 5.3126 0.0085411
-77.625 2.2107 0.0029582 24.269 24.402 0.25164 620.22 0.0016123 23.016 23.040 0.24468 1.3757 2.1129 1395.3 -0.0062768 304.88 0.15062 0.41735 2.3961 446.75 483.27 2.5985 1.0712 1.2680 206.93 0.73084 5.3395 0.0086190
-76.625 2.3571 0.0031384 26.456 26.597 0.26279 619.15 0.0016151 25.130 25.156 0.25546 1.3772 2.1159 1388.7 -0.0062512 300.69 0.15001 0.44292 2.2577 447.78 484.47 2.5926 1.0749 1.2721 207.34 0.72107 5.3664 0.0086972
-75.625 2.5113 0.0033272 28.649 28.800 0.27392 618.08 0.0016179 27.247 27.275 0.26620 1.3787 2.1190 1382.0 -0.0062253 296.59 0.14939 0.46974 2.1288 448.81 485.67 2.5869 1.0787 1.2762 207.74 0.71146 5.3933 0.0087757
-74.625 2.6736 0.0035250 30.849 31.009 0.28503 617.01 0.0016207 29.366 29.396 0.27691 1.3802 2.1221 1375.4 -0.0061990 292.58 0.14878 0.49783 2.0087 449.83 486.86 2.5812 1.0824 1.2804 208.14 0.70200 5.4201 0.0088544
-73.625 2.8444 0.0037320 33.054 33.225 0.29612 615.93 0.0016236 31.489 31.521 0.28758 1.3818 2.1252 1368.7 -0.0061724 288.65 0.14816 0.52725 1.8966 450.86 488.06 2.5757 1.0862 1.2847 208.54 0.69268 5.4469 0.0089334
-72.625 3.0240 0.0039485 35.267 35.448 0.30718 614.85 0.0016264 33.615 33.649 0.29821 1.3834 2.1284 1362.0 -0.0061454 284.81 0.14755 0.55804 1.7920 451.90 489.26 2.5703 1.0900 1.2889 208.93 0.68351 5.4737 0.0090126
-71.625 3.2127 0.0041749 37.486 37.679 0.31822 613.78 0.0016293 35.745 35.781 0.30880 1.3851 2.1316 1355.4 -0.0061181 281.03 0.14694 0.59024 1.6942 452.93 490.46 2.5650 1.0938 1.2932 209.32 0.67448 5.5005 0.0090922
-70.625 3.4108 0.0044114 39.713 39.917 0.32924 612.69 0.0016321 37.877 37.915 0.31935 1.3867 2.1349 1348.7 -0.0060904 277.34 0.14632 0.62390 1.6028 453.96 491.66 2.5598 1.0976 1.2976 209.70 0.66560 5.5273 0.0091720
-69.625 3.6187 0.0046584 41.946 42.163 0.34024 611.61 0.0016350 40.013 40.053 0.32987 1.3884 2.1382 1342.1 -0.0060624 273.72 0.14571 0.65906 1.5173 455.00 492.86 2.5547 1.1015 1.3020 210.08 0.65687 5.5540 0.0092520
-68.625 3.8367 0.0049162 44.186 44.416 0.35122 610.53 0.0016379 42.152 42.195 0.34036 1.3902 2.1415 1335.5 -0.0060339 270.17 0.14510 0.69577 1.4372 456.04 494.06 2.5497 1.1054 1.3064 210.45 0.64827 5.5807 0.0093324
-67.625 4.0652 0.0051851 46.434 46.678 0.36218 609.44 0.0016409 44.294 44.340 0.35080 1.3919 2.1449 1328.8 -0.0060051 266.69 0.14449 0.73408 1.3622 457.08 495.26 2.5448 1.1093 1.3109 210.82 0.63981 5.6074 0.0094130
-66.625 4.3046 0.0054654 48.689 48.947 0.37313 608.35 0.0016438 46.439 46.488 0.36122 1.3937 2.1483 1322.2 -0.0059760 263.28 0.14388 0.77404 1.2919 458.12 496.46 2.5400 1.1133 1.3154 211.18 0.63150 5.6341 0.0094939
-65.625 4.5551 0.0057575 50.952 51.225 0.38406 607.26 0.0016467 48.588 48.640 0.37160 1.3955 2.1518 1315.6 -0.0059464 259.93 0.14327 0.81570 1.2259 459.16 497.67 2.5353 1.1172 1.3200 211.54 0.62332 5.6608 0.0095750
-64.625 4.8173 0.0060617 53.222 53.511 0.39497 606.16 0.0016497 50.740 50.795 0.38195 1.3974 2.1553 1308.9 -0.0059164 256.65 0.14266 0.85910 1.1640 460.21 498.87 2.5307 1.1212 1.3246 211.89 0.61527 5.6874 0.0096564
-63.625 5.0915 0.0063784 55.501 55.806 0.40587 605.07 0.0016527 52.896 52.954 0.39226 1.3993 2.1588 1302.3 -0.0058861 253.42 0.14205 0.90429 1.1058 461.25 500.07 2.5262 1.1252 1.3293 212.24 0.60736 5.7140 0.0097382
-62.625 5.3781 0.0067079 57.787 58.110 0.41676 603.97 0.0016557 55.055 55.117 0.40254 1.4012 2.1624 1295.7 -0.0058553 250.26 0.14144 0.95134 1.0511 462.30 501.28 2.5218 1.1293 1.3340 212.58 0.59958 5.7406 0.0098201
-61.625 5.6774 0.0070506 60.082 60.422 0.42763 602.87 0.0016587 57.218 57.283 0.41279 1.4031 2.1660 1289.1 -0.0058241 247.16 0.14084 1.0003 0.99972 463.35 502.48 2.5175 1.1333 1.3387 212.92 0.59194 5.7672 0.0099024
-60.625 5.9899 0.0074068 62.384 62.744 0.43849 601.77 0.0016618 59.385 59.453 0.42301 1.4051 2.1697 1282.5 -0.0057925 244.12 0.14023 1.0512 0.95131 464.40 503.68 2.5133 1.1374 1.3435 213.26 0.58442 5.7938 0.0099850
-59.625 6.3160 0.0077769 64.696 65.074 0.44934 600.66 0.0016648 61.554 61.627 0.43320 1.4071 2.1734 1275.9 -0.0057605 241.13 0.13962 1.1041 0.90573 465.45 504.89 2.5091 1.1415 1.3483 213.58 0.57704 5.8203 0.010068
-58.625 6.6561 0.0081613 67.015 67.414 0.46018 599.55 0.0016679 63.728 63.805 0.44335 1.4091 2.1772 1269.3 -0.0057280 238.19 0.13902 1.1591 0.86277 466.50 506.09 2.5051 1.1457 1.3532 213.90 0.56978 5.8468 0.010151
-57.625 7.0107 0.0085603 69.344 69.764 0.47101 598.44 0.0016710 65.905 65.986 0.45348 1.4111 2.1810 1262.7 -0.0056951 235.31 0.13842 1.2161 0.82228 467.55 507.30 2.5011 1.1498 1.3581 214.22 0.56265 5.8733 0.010234
-56.625 7.3801 0.0089743 71.681 72.123 0.48183 597.33 0.0016741 68.086 68.172 0.46358 1.4132 2.1848 1256.1 -0.0056617 232.48 0.13781 1.2754 0.78408 468.60 508.50 2.4972 1.1540 1.3631 214.53 0.55564 5.8998 0.010318
-55.625 7.7648 0.0094038 74.027 74.493 0.49264 596.22 0.0016772 70.271 70.361 0.47364 1.4153 2.1887 1249.5 -0.0056279 229.69 0.13721 1.3369 0.74802 469.66 509.71 2.4934 1.1582 1.3681 214.84 0.54875 5.9263 0.010402
-54.625 8.1652 0.0098490 76.382 76.872 0.50344 595.10 0.0016804 72.460 72.554 0.48368 1.4174 2.1927 1242.9 -0.0055937 226.96 0.13661 1.4006 0.71396 470.72 510.91 2.4897 1.1624 1.3731 215.14 0.54199 5.9527 0.010486
-53.625 8.5819 0.010310 78.747 79.261 0.51424 593.98 0.0016836 74.652 74.752 0.49369 1.4196 2.1967 1236.3 -0.0055589 224.27 0.13601 1.4667 0.68178 471.77 512.11 2.4860 1.1667 1.3782 215.43 0.53535 5.9792 0.010571
-52.625 9.0151 0.010788 81.121 81.661 0.52502 592.86 0.0016867 76.849 76.954 0.50368 1.4218 2.2007 1229.8 -0.0055237 221.63 0.13541 1.5353 0.65136 472.83 513.32 2.4824 1.1710 1.3834 215.72 0.52882 6.0056 0.010656
-51.625 9.4655 0.011283 83.504 84.072 0.53581 591.73 0.0016900 79.049 79.159 0.51363 1.4240 2.2048 1223.2 -0.0054880 219.04 0.13482 1.6062 0.62258 473.89 514.52 2.4789 1.1752 1.3886 216.00 0.52241 6.0320 0.010741
-50.625 9.9335 0.011796 85.897 86.493 0.54659 590.60 0.0016932 81.253 81.369 0.52356 1.4262 2.2089 1216.6 -0.0054519 216.48 0.13422 1.6797 0.59534 474.95 515.73 2.4755 1.1796 1.3938 216.28 0.51612 6.0584 0.010827
-49.625 10.419 0.012326 88.300 88.925 0.55736 589.47 0.0016964 83.462 83.584 0.53347 1.4285 2.2131 1210.1 -0.0054152 213.98 0.13363 1.7558 0.56954 476.01 516.93 2.4722 1.1839 1.3991 216.55 0.50994 6.0848 0.010913
-48.625 10.924 0.012874 90.713 91.368 0.56813 588.34 0.0016997 85.674 85.802 0.54334 1.4308 2.2173 1203.5 -0.0053780 211.51 0.13303 1.8345 0.54510 477.07 518.13 2.4689 1.1883 1.4044 216.82 0.50387 6.1112 0.010999
-47.625 11.448 0.013441 93.136 93.822 0.57890 587.20 0.0017030 87.891 88.025 0.55319 1.4331 2.2216 1196.9 -0.0053403 209.08 0.13244 1.9159 0.52194 478.14 519.33 2.4657 1.1927 1.4098 217.08 0.49792 6.1375 0.011085
-46.625 11.991 0.014028 95.569 96.288 0.58966 586.06 0.0017063 90.111 90.252 0.56302 1.4354 2.2259 1190.4 -0.0053020 206.69 0.13185 2.0001 0.49997 479.20 520.53 2.4625 1.1971 1.4153 217.33 0.49207 6.1639 0.011172
-45.625 12.554 0.014633 98.013 98.765 0.60043 584.92 0.0017096 92.336 92.484 0.57282 1.4378 2.2303 1183.8 -0.0052633 204.34 0.13126 2.0872 0.47912 480.27 521.74 2.4594 1.2015 1.4207 217.58 0.48633 6.1902 0.011259
-44.625 13.137 0.015259 100.47 101.25 0.61119 583.77 0.0017130 94.565 94.720 0.58260 1.4402 2.2347 1177.3 -0.0052240 202.03 0.13067 2.1771 0.45933 481.33 522.94 2.4564 1.2060 1.4263 217.82 0.48069 6.2165 0.011347
-43.625 13.741 0.015905 102.93 103.76 0.62195 582.62 0.0017164 96.799 96.961 0.59235 1.4426 2.2392 1170.7 -0.0051841 199.75 0.13008 2.2700 0.44053 482.40 524.14 2.4535 1.2104 1.4319 218.05 0.47516 6.2429 0.011435
-42.625 14.367 0.016572 105.41 106.27 0.63271 581.47 0.0017198 99.036 99.207 0.60208 1.4450 2.2437 1164.2 -0.0051437 197.51 0.12949 2.3659 0.42267 483.46 525.33 2.4506 1.2149 1.4375 218.28 0.46973 6.2692 0.011523
-41.625 15.015 0.017260 107.89 108.79 0.64348 580.32 0.0017232 101.28 101.46 0.61179 1.4475 2.2483 1157.7 -0.0051027 195.30 0.12891 2.4649 0.40569 484.53 526.53 2.4478 1.2195 1.4432 218.50 0.46440 6.2955 0.011612
-40.625 15.686 0.017970 110.39 111.33 0.65424 579.16 0.0017266 103.52 103.71 0.62147 1.4500 2.2529 1151.1 -0.0050611 193.13 0.12832 2.5671 0.38954 485.60 527.73 2.4450 1.2240 1.4489 218.72 0.45917 6.3218 0.011701
-39.625 16.380 0.018702 112.90 113.88 0.66501 578.00 0.0017301 105.78 105.97 0.63113 1.4525 2.2576 1144.6 -0.0050189 190.99 0.12774 2.6725 0.37418 486.67 528.93 2.4423 1.2286 1.4547 218.93 0.45403 6.3481 0.011790
-38.625 17.097 0.019457 115.42 116.44 0.67577 576.83 0.0017336 108.03 108.24 0.64077 1.4550 2.2623 1138.0 -0.0049761 188.88 0.12716 2.7813 0.35955 487.74 530.12 2.4397 1.2332 1.4606 219.13 0.44900 6.3744 0.011880
-37.625 17.838 0.020235 117.95 119.02 0.68654 575.66 0.0017371 110.29 110.51 0.65039 1.4576 2.2671 1131.5 -0.0049327 186.81 0.12658 2.8934 0.34562 488.81 531.32 2.4371 1.2378 1.4665 219.33 0.44405 6.4007 0.011970
-36.625 18.604 0.021037 120.49 121.61 0.69732 574.49 0.0017407 112.56 112.78 0.65999 1.4602 2.2719 1125.0 -0.0048887 184.76 0.12600 3.0089 0.33235 489.88 532.51 2.4346 1.2424 1.4724 219.52 0.43920 6.4270 0.012060
-35.625 19.395 0.021863 123.05 124.21 0.70810 573.32 0.0017442 114.83 115.06 0.66956 1.4628 2.2768 1118.5 -0.0048440 182.75 0.12542 3.1280 0.31969 490.95 533.70 2.4321 1.2471 1.4784 219.70 0.43444 6.4533 0.012151
-34.625 20.212 0.022714 125.62 126.83 0.71888 572.14 0.0017478 117.10 117.34 0.67912 1.4654 2.2818 1111.9 -0.0047987 180.76 0.12485 3.2506 0.30763 492.02 534.89 2.4297 1.2517 1.4845 219.88 0.42977 6.4797 0.012243
-33.625 21.056 0.023590 128.19 129.46 0.72967 570.96 0.0017514 119.38 119.63 0.68865 1.4681 2.2868 1105.4 -0.0047527 178.80 0.12427 3.3770 0.29612 493.09 536.08 2.4273 1.2564 1.4906 220.05 0.42519 6.5060 0.012334
-32.625 21.926 0.024492 130.78 132.10 0.74046 569.77 0.0017551 121.66 121.93 0.69817 1.4708 2.2918 1098.9 -0.0047061 176.87 0.12370 3.5071 0.28514 494.17 537.27 2.4250 1.2611 1.4968 220.21 0.42070 6.5323 0.012426
-31.625 22.823 0.025420 133.39 134.76 0.75126 568.58 0.0017588 123.95 124.23 0.70767 1.4735 2.2970 1092.3 -0.0046587 174.97 0.12313 3.6410 0.27465 495.24 538.46 2.4227 1.2659 1.5031 220.36 0.41629 6.5587 0.012519
-30.625 23.749 0.026374 136.00 137.43 0.76207 567.39 0.0017625 126.24 126.53 0.71714 1.4762 2.3021 1085.8 -0.0046107 173.09 0.12256 3.7787 0.26464 496.31 539.64 2.4205 1.2706 1.5094 220.51 0.41196 6.5850 0.012612
-29.625 24.703 0.027356 138.63 140.11 0.77288 566.19 0.0017662 128.54 128.84 0.72660 1.4790 2.3074 1079.3 -0.0045619 171.24 0.12200 3.9205 0.25507 497.38 540.83 2.4184 1.2754 1.5157 220.65 0.40772 6.6114 0.012706
-28.625 25.687 0.028366 141.27 142.81 0.78370 564.99 0.0017699 130.84 131.16 0.73604 1.4818 2.3126 1072.8 -0.0045124 169.42 0.12143 4.0663 0.24592 498.46 542.01 2.4162 1.2802 1.5222 220.79 0.40356 6.6378 0.012800
-27.625 26.700 0.029405 143.93 145.53 0.79453 563.78 0.0017737 133.15 133.48 0.74547 1.4846 2.3180 1066.2 -0.0044621 167.62 0.12087 4.2163 0.23717 499.53 543.19 2.4142 1.2850 1.5286 220.91 0.39947 6.6642 0.012894
-26.625 27.743 0.030472 146.59 148.26 0.80537 562.57 0.0017775 135.47 135.81 0.75487 1.4874 2.3234 1059.7 -0.0044111 165.84 0.12031 4.3705 0.22881 500.60 544.37 2.4122 1.2899 1.5352 221.03 0.39547 6.6906 0.012989
-25.625 28.817 0.031569 149.27 151.00 0.81622 561.36 0.0017814 137.78 138.14 0.76426 1.4902 2.3289 1053.2 -0.0043593 164.09 0.11975 4.5290 0.22080 501.68 545.55 2.4102 1.2947 1.5418 221.14 0.39154 6.7171 0.013084
-24.625 29.923 0.032696 151.96 153.76 0.82708 560.14 0.0017853 140.11 140.48 0.77363 1.4931 2.3344 1046.7 -0.0043067 162.36 0.11919 4.6918 0.21314 502.75 546.72 2.4083 1.2996 1.5485 221.25 0.38768 6.7436 0.013180
-23.625 31.061 0.033854 154.67 156.53 0.83794 558.92 0.0017892 142.44 142.82 0.78298 1.4960 2.3400 1040.1 -0.0042533 160.65 0.11863 4.8592 0.20580 503.82 547.90 2.4064 1.3045 1.5552 221.35 0.38391 6.7701 0.013277
-22.625 32.232 0.035043 157.39 159.32 0.84882 557.69 0.0017931 144.77 145.17 0.79232 1.4990 2.3457 1033.6 -0.0041990 158.97 0.11807 5.0311 0.19877 504.90 549.07 2.4045 1.3095 1.5621 221.44 0.38020 6.7967 0.013374
-21.625 33.435 0.036264 160.12 162.13 0.85971 556.46 0.0017971 147.11 147.52 0.80164 1.5019 2.3514 1027.1 -0.0041439 157.30 0.11752 5.2076 0.19203 505.97 550.24 2.4027 1.3144 1.5690 221.52 0.37656 6.8232 0.013471
-20.625 34.673 0.037518 162.87 164.95 0.87061 555.23 0.0018011 149.45 149.88 0.81095 1.5049 2.3572 1020.6 -0.0040879 155.66 0.11697 5.3889 0.18557 507.04 551.40 2.4010 1.3194 1.5759 221.59 0.37300 6.8499 0.013569
-19.625 35.946 0.038805 165.63 167.79 0.88152 553.99 0.0018051 151.80 152.25 0.82024 1.5079 2.3630 1014.0 -0.0040311 154.04 0.11642 5.5750 0.17937 508.11 552.57 2.3992 1.3244 1.5829 221.66 0.36950 6.8765 0.013668
-18.625 37.253 0.040126 168.41 170.64 0.89244 552.74 0.0018092 154.16 154.62 0.82952 1.5109 2.3689 1007.5 -0.0039733 152.44 0.11587 5.7660 0.17343 509.19 553.73 2.3976 1.3294 1.5901 221.72 0.36608 6.9032 0.013767
-17.625 38.596 0.041482 171.19 173.51 0.90338 551.49 0.0018133 156.52 157.00 0.83878 1.5140 2.3749 1001.0 -0.0039145 150.86 0.11532 5.9621 0.16773 510.26 554.89 2.3959 1.3345 1.5972 221.77 0.36272 6.9300 0.013867
-16.625 39.976 0.042872 174.00 176.39 0.91432 550.24 0.0018174 158.89 159.39 0.84803 1.5171 2.3810 994.44 -0.0038549 149.29 0.11478 6.1632 0.16225 511.33 556.05 2.3943 1.3395 1.6045 221.81 0.35942 6.9568 0.013968
-15.625 41.392 0.044299 176.81 179.30 0.92528 548.98 0.0018216 161.26 161.78 0.85726 1.5202 2.3871 987.91 -0.0037942 147.75 0.11423 6.3696 0.15700 512.40 557.20 2.3927 1.3446 1.6119 221.85 0.35619 6.9836 0.014069
-14.625 42.846 0.045762 179.65 182.22 0.93626 547.71 0.0018258 163.64 164.18 0.86649 1.5233 2.3933 981.37 -0.0037325 146.22 0.11369 6.5812 0.15195 513.47 558.36 2.3912 1.3497 1.6193 221.87 0.35302 7.0105 0.014170
-13.625 44.338 0.047262 182.49 185.15 0.94725 546.44 0.0018300 166.02 166.58 0.87569 1.5264 2.3996 974.83 -0.0036698 144.72 0.11315 6.7983 0.14710 514.54 559.51 2.3897 1.3549 1.6268 221.89 0.34992 7.0375 0.014273
-12.625 45.870 0.048801 185.35 188.10 0.95825 545.17 0.0018343 168.41 168.99 0.88489 1.5296 2.4059 968.29 -0.0036061 143.23 0.11261 7.0208 0.14243 515.61 560.65 2.3883 1.3600 1.6344 221.90 0.34688 7.0646 0.014376
-11.625 47.440 0.050378 188.23 191.07 0.96927 543.89 0.0018386 170.81 171.41 0.89407 1.5328 2.4124 961.75 -0.0035413 141.76 0.11208 7.2490 0.13795 516.68 561.80 2.3868 1.3652 1.6421 221.91 0.34389 7.0917 0.014479
-10.625 49.051 0.051995 191.12 194.06 0.98031 542.60 0.0018430 173.21 173.83 0.90324 1.5360 2.4189 955.20 -0.0034753 140.30 0.11154 7.4829 0.13364 517.75 562.94 2.3854 1.3704 1.6498 221.90 0.34097 7.1188 0.014584
-9.6250 50.703 0.053652 194.03 197.07 0.99136 541.31 0.0018474 175.61 176.26 0.91240 1.5393 2.4255 948.65 -0.0034082 138.86 0.11101 7.7226 0.12949 518.81 564.08 2.3841 1.3757 1.6577 221.88 0.33810 7.1461 0.014689
-8.6250 52.396 0.055351 196.95 200.09 1.0024 540.02 0.0018518 178.03 178.70 0.92154 1.5426 2.4321 942.10 -0.0033400 137.44 0.11048 7.9683 0.12550 519.88 565.21 2.3827 1.3809 1.6657 221.86 0.33529 7.1734 0.014795
-7.6250 54.131 0.057091 199.89 203.13 1.0135 538.72 0.0018563 180.45 181.14 0.93068 1.5459 2.4389 935.55 -0.0032705 136.03 0.10995 8.2200 0.12165 520.94 566.35 2.3814 1.3862 1.6737 221.83 0.33254 7.2008 0.014902
-6.6250 55.909 0.058874 202.84 206.19 1.0246 537.41 0.0018608 182.87 183.59 0.93980 1.5492 2.4457 928.99 -0.0031998 134.64 0.10942 8.4779 0.11795 522.01 567.48 2.3801 1.3915 1.6819 221.79 0.32984 7.2284 0.015009
-5.6250 57.730 0.060701 205.81 209.27 1.0357 536.10 0.0018653 185.30 186.05 0.94892 1.5525 2.4526 922.43 -0.0031279 133.27 0.10889 8.7420 0.11439 523.07 568.60 2.3789 1.3969 1.6902 221.74 0.32720 7.2560 0.015117
-4.6250 59.595 0.062572 208.79 212.36 1.0469 534.78 0.0018699 187.74 188.51 0.95802 1.5559 2.4596 915.87 -0.0030546 131.91 0.10837 9.0126 0.11096 524.13 569.72 2.3777 1.4022 1.6985 221.68 0.32461 7.2837 0.015226
-3.6250 61.505 0.064488 211.79 215.48 1.0580 533.45 0.0018746 190.19 190.98 0.96711 1.5593 2.4667 909.30 -0.0029800 130.56 0.10785 9.2896 0.10765 525.19 570.84 2.3765 1.4076 1.7070 221.62 0.32207 7.3115 0.015336
-2.6250 63.461 0.066451 214.81 218.61 1.0692 532.12 0.0018793 192.64 193.46 0.97620 1.5627 2.4739 902.73 -0.0029041 129.23 0.10733 9.5733 0.10446 526.25 571.96 2.3753 1.4131 1.7156 221.54 0.31958 7.3394 0.015447
-1.6250 65.462 0.068461 217.84 221.76 1.0804 530.78 0.0018840 195.10 195.95 0.98527 1.5662 2.4811 896.16 -0.0028267 127.91 0.10681 9.8638 0.10138 527.31 573.07 2.3742 1.4185 1.7243 221.45 0.31715 7.3674 0.015559
-0.62500 67.510 0.070519 220.89 224.93 1.0916 529.44 0.0018888 197.56 198.44 0.99434 1.5696 2.4885 889.58 -0.0027478 126.61 0.10629 10.161 0.098414 528.37 574.18 2.3731 1.4240 1.7331 221.36 0.31476 7.3956 0.015671
0.37500 69.606 0.072626 223.95 228.13 1.1028 528.09 0.0018936 200.03 200.94 1.0034 1.5731 2.4960 883.00 -0.0026675 125.32 0.10578 10.466 0.095552 529.42 575.28 2.3720 1.4295 1.7421 221.26 0.31242 7.4239 0.015785
1.3750 71.749 0.074783 227.03 231.34 1.1140 526.73 0.0018985 202.51 203.45 1.0124 1.5767 2.5035 876.42 -0.0025856 124.04 0.10527 10.777 0.092790 530.48 576.38 2.3709 1.4350 1.7512 221.14 0.31013 7.4523 0.015899
2.3750 73.941 0.076992 230.13 234.56 1.1253 525.37 0.0019034 204.99 205.96 1.0215 1.5802 2.5112 869.83 -0.0025022 122.78 0.10476 11.096 0.090123 531.53 577.47 2.3699 1.4406 1.7604 221.02 0.30789 7.4808 0.016015
3.3750 76.183 0.079253 233.25 237.81 1.1366 523.99 0.0019084 207.48 208.48 1.0305 1.5838 2.5190 863.24 -0.0024171 121.53 0.10425 11.422 0.087549 532.58 578.56 2.3688 1.4462 1.7697 220.89 0.30569 7.5095 0.016131
4.3750 78.475 0.081567 236.38 241.08 1.1479 522.62 0.0019134 209.98 211.01 1.0395 1.5874 2.5268 856.64 -0.0023303 120.29 0.10374 11.756 0.085062 533.63 579.65 2.3678 1.4518 1.7792 220.75 0.30354 7.5384 0.016249
5.3750 80.817 0.083936 239.53 244.37 1.1592 521.23 0.0019185 212.48 213.55 1.0486 1.5910 2.5348 850.04 -0.0022417 119.06 0.10324 12.098 0.082660 534.67 580.73 2.3669 1.4575 1.7888 220.60 0.30144 7.5674 0.016368
6.3750 83.211 0.086360 242.69 247.68 1.1706 519.84 0.0019237 215.00 216.10 1.0576 1.5946 2.5429 843.43 -0.0021514 117.85 0.10273 12.447 0.080340 535.72 581.81 2.3659 1.4632 1.7986 220.44 0.29938 7.5966 0.016487
7.3750 85.657 0.088841 245.88 251.01 1.1819 518.44 0.0019289 217.51 218.65 1.0666 1.5983 2.5511 836.82 -0.0020593 116.65 0.10223 12.805 0.078096 536.76 582.88 2.3650 1.4689 1.8085 220.27 0.29736 7.6259 0.016608
8.3750 88.156 0.091380 249.08 254.36 1.1933 517.03 0.0019341 220.04 221.22 1.0756 1.6020 2.5595 830.20 -0.0019652 115.46 0.10173 13.170 0.075928 537.80 583.95 2.3640 1.4746 1.8186 220.08 0.29538 7.6555 0.016730
9.3750 90.708 0.093979 252.30 257.73 1.2047 515.62 0.0019394 222.57 223.79 1.0846 1.6057 2.5679 823.58 -0.0018691 114.28 0.10124 13.545 0.073830 538.84 585.01 2.3631 1.4804 1.8288 219.89 0.29345 7.6852 0.016853
10.375 93.315 0.096638 255.53 261.13 1.2162 514.19 0.0019448 225.11 226.37 1.0936 1.6095 2.5765 816.96 -0.0017710 113.11 0.10074 13.927 0.071802 539.87 586.07 2.3622 1.4863 1.8392 219.69 0.29156 7.7151 0.016978
11.375 95.977 0.099359 258.79 264.54 1.2276 512.76 0.0019502 227.66 228.95 1.1025 1.6132 2.5852 810.32 -0.0016708 111.95 0.10025 14.319 0.069840 540.90 587.12 2.3614 1.4921 1.8498 219.48 0.28971 7.7452 0.017103
12.375 98.694 0.10214 262.06 267.97 1.2391 511.32 0.0019557 230.22 231.55 1.1115 1.6170 2.5940 803.68 -0.0015685 110.80 0.099756 14.719 0.067941 541.93 588.17 2.3605 1.4980 1.8605 219.26 0.28790 7.7756 0.017230
13.375 101.47 0.10499 265.35 271.43 1.2506 509.87 0.0019613 232.78 234.15 1.1205 1.6208 2.6030 797.04 -0.0014639 109.67 0.099267 15.128 0.066103 542.96 589.21 2.3597 1.5040 1.8715 219.03 0.28612 7.8061 0.017359
14.375 104.30 0.10791 268.66 274.91 1.2621 508.42 0.0019669 235.35 236.77 1.1295 1.6247 2.6121 790.39 -0.0013569 108.54 0.098779 15.547 0.064323 543.99 590.24 2.3588 1.5099 1.8826 218.79 0.28439 7.8369 0.017488
15.375 107.19 0.11089 271.98 278.41 1.2737 506.95 0.0019726 237.93 239.39 1.1384 1.6286 2.6214 783.73 -0.0012476 107.43 0.098294 15.974 0.062600 545.01 591.27 2.3580 1.5159 1.8940 218.53 0.28270 7.8680 0.017619
16.375 110.13 0.11394 275.33 281.93 1.2853 505.48 0.0019783 240.52 242.02 1.1474 1.6324 2.6308 777.07 -0.0011357 106.32 0.097810 16.412 0.060931 546.03 592.29 2.3572 1.5220 1.9055 218.27 0.28104 7.8993 0.017752
17.375 113.14 0.11707 278.69 285.48 1.2969 504.00 0.0019841 243.11 244.66 1.1564 1.6364 2.6403 770.40 -0.0010213 105.22 0.097328 16.859 0.059314 547.04 593.31 2.3564 1.5281 1.9172 217.99 0.27942 7.9308 0.017886
18.375 116.21 0.12027 282.08 289.04 1.3085 502.50 0.0019900 245.72 247.31 1.1653 1.6403 2.6501 763.72 -0.00090422 104.14 0.096848 17.317 0.057747 548.05 594.32 2.3557 1.5342 1.9292 217.71 0.27783 7.9626 0.018021
19.375 119.33 0.12354 285.48 292.63 1.3201 501.00 0.0019960 248.33 249.97 1.1743 1.6443 2.6599 757.04 -0.00078435 103.06 0.096371 17.785 0.056228 549.06 595.33 2.3549 1.5404 1.9414 217.41 0.27628 7.9947 0.018159
20.375 122.52 0.12688 288.90 296.25 1.3318 499.49 0.0020020 250.95 252.64 1.1832 1.6483 2.6700 750.35 -0.00066161 101.99 0.095895 18.263 0.054756 550.07 596.32 2.3541 1.5466 1.9538 217.10 0.27477 8.0272 0.018297
21.375 125.77 0.13031 292.34 299.88 1.3435 497.97 0.0020082 253.57 255.32 1.1922 1.6523 2.6802 743.64 -0.00053589 100.93 0.095420 18.752 0.053328 551.07 597.31 2.3534 1.5528 1.9665 216.78 0.27329 8.0599 0.018438
22.375 129.08 0.13382 295.80 303.54 1.3552 496.43 0.0020144 256.21 258.00 1.2012 1.6563 2.6906 736.94 -0.00040708 99.877 0.094948 19.252 0.051943 552.07 598.30 2.3526 1.5591 1.9795 216.45 0.27184 8.0929 0.018580
23.375 132.46 0.13740 299.28 307.22 1.3670 494.89 0.0020206 258.86 260.70 1.2101 1.6604 2.7012 730.22 -0.00027505 98.834 0.094478 19.763 0.050600 553.06 599.27 2.3519 1.5655 1.9927 216.11 0.27043 8.1263 0.018724
24.375 135.90 0.14108 302.78 310.93 1.3788 493.34 0.0020270 261.51 263.41 1.2191 1.6645 2.7120 723.49 -0.00013968 97.800 0.094009 20.285 0.049297 554.05 600.24 2.3512 1.5718 2.0061 215.75 0.26906 8.1600 0.018870
25.375 139.41 0.14484 306.30 314.66 1.3906 491.77 0.0020335 264.17 266.13 1.2280 1.6686 2.7230 716.76 -8.3775e-07 96.773 0.093543 20.820 0.048032 555.03 601.20 2.3504 1.5783 2.0199 215.39 0.26771 8.1941 0.019017
26.375 142.98 0.14868 309.84 318.41 1.4024 490.20 0.0020400 266.84 268.85 1.2370 1.6728 2.7342 710.01 0.00014161 95.755 0.093078 21.366 0.046804 556.01 602.15 2.3497 1.5847 2.0340 215.01 0.26640 8.2286 0.019167
27.375 146.62 0.15262 313.40 322.19 1.4143 488.61 0.0020466 269.52 271.59 1.2459 1.6770 2.7456 703.26 0.00028782 94.745 0.092615 21.924 0.045612 556.99 603.10 2.3490 1.5913 2.0484 214.62 0.26512 8.2634 0.019319
28.375 150.33 0.15666 316.98 325.99 1.4262 487.01 0.0020533 272.21 274.34 1.2549 1.6812 2.7573 696.49 0.00043793 93.742 0.092154 22.495 0.044454 557.96 604.03 2.3483 1.5978 2.0631 214.21 0.26387 8.2987 0.019472
29.375 154.10 0.16079 320.58 329.82 1.4381 485.40 0.0020601 274.91 277.10 1.2638 1.6854 2.7691 689.72 0.00059212 92.747 0.091695 23.079 0.043329 558.92 604.96 2.3476 1.6044 2.0781 213.80 0.26265 8.3344 0.019628
30.375 157.94 0.16502 324.20 333.67 1.4501 483.78 0.0020671 277.62 279.87 1.2728 1.6897 2.7813 682.93 0.00075055 91.760 0.091238 23.676 0.042237 559.88 605.88 2.3469 1.6111 2.0935 213.37 0.26147 8.3705 0.019786
31.375 161.86 0.16935 327.84 337.55 1.4620 482.15 0.0020741 280.34 282.66 1.2818 1.6939 2.7936 676.13 0.00091340 90.779 0.090782 24.287 0.041175 560.84 606.79 2.3462 1.6178 2.1092 212.93 0.26031 8.4071 0.019947
32.375 165.84 0.17378 331.51 341.45 1.4740 480.50 0.0020812 283.07 285.45 1.2908 1.6983 2.8063 669.32 0.0010809 89.806 0.090328 24.911 0.040143 561.79 607.69 2.3455 1.6246 2.1254 212.48 0.25919 8.4442 0.020110
33.375 169.90 0.17833 335.19 345.38 1.4861 478.83 0.0020884 285.81 288.26 1.2997 1.7026 2.8192 662.50 0.0012532 88.840 0.089876 25.549 0.039140 562.73 608.58 2.3448 1.6314 2.1419 212.01 0.25809 8.4818 0.020275
34.375 174.02 0.18298 338.90 349.33 1.4982 477.16 0.0020957 288.56 291.07 1.3087 1.7070 2.8324 655.67 0.0014305 87.880 0.089426 26.202 0.038164 563.67 609.46 2.3440 1.6383 2.1589 211.53 0.25702 8.5199 0.020443
35.375 178.22 0.18775 342.63 353.31 1.5103 475.47 0.0021032 291.32 293.90 1.3177 1.7114 2.8459 648.82 0.0016131 86.927 0.088977 26.870 0.037216 564.60 610.33 2.3433 1.6452 2.1763 211.04 0.25599 8.5586 0.020613
36.375 182.50 0.19264 346.38 357.32 1.5224 473.77 0.0021107 294.09 296.74 1.3267 1.7158 2.8597 641.96 0.0018012 85.980 0.088531 27.553 0.036293 565.52 611.19 2.3426 1.6522 2.1942 210.53 0.25498 8.5978 0.020786
37.375 186.84 0.19765 350.15 361.35 1.5346 472.05 0.0021184 296.87 299.60 1.3357 1.7203 2.8739 635.08 0.0019950 85.040 0.088085 28.252 0.035395 566.44 612.04 2.3419 1.6592 2.2125 210.01 0.25400 8.6376 0.020962
38.375 191.27 0.20279 353.94 365.41 1.5468 470.31 0.0021262 299.66 302.46 1.3447 1.7248 2.8884 628.19 0.0021949 84.105 0.087642 28.967 0.034522 567.35 612.88 2.3411 1.6663 2.2314 209.47 0.25305 8.6780 0.021141
39.375 195.77 0.20806 357.76 369.50 1.5590 468.56 0.0021342 302.46 305.34 1.3537 1.7293 2.9033 621.29 0.0024011 83.177 0.087200 29.699 0.033671 568.26 613.70 2.3404 1.6734 2.2508 208.92 0.25213 8.7190 0.021323
40.375 200.34 0.21346 361.60 373.61 1.5713 466.80 0.0021423 305.27 308.23 1.3627 1.7339 2.9185 614.37 0.0026140 82.254 0.086760 30.447 0.032844 569.15 614.52 2.3396 1.6806 2.2708 208.36 0.25123 8.7608 0.021508
41.375 205.00 0.21900 365.46 377.75 1.5836 465.01 0.0021505 308.10 311.14 1.3718 1.7385 2.9342 607.43 0.0028338 81.338 0.086322 31.214 0.032037 570.04 615.32 2.3389 1.6879 2.2913 207.78 0.25037 8.8032 0.021696
42.375 209.73 0.22468 369.35 381.92 1.5959 463.21 0.0021588 310.94 314.06 1.3808 1.7432 2.9502 600.47 0.0030609 80.426 0.085885 31.998 0.031252 570.92 616.11 2.3381 1.6952 2.3125 207.19 0.24953 8.8463 0.021888
43.375 214.54 0.23052 373.26 386.12 1.6083 461.40 0.0021673 313.79 316.99 1.3899 1.7478 2.9667 593.50 0.0032957 79.520 0.085449 32.800 0.030488 571.79 616.88 2.3373 1.7027 2.3344 206.58 0.24871 8.8902 0.022084
44.375 219.43 0.23651 377.19 390.35 1.6207 459.56 0.0021760 316.65 319.94 1.3989 1.7525 2.9837 586.51 0.0035386 78.619 0.085015 33.622 0.029742 572.65 617.65 2.3365 1.7101 2.3569 205.96 0.24793 8.9349 0.022283
45.375 224.41 0.24266 381.15 394.61 1.6331 457.71 0.0021848 319.52 322.90 1.4080 1.7573 3.0012 579.50 0.0037900 77.723 0.084583 34.463 0.029016 573.50 618.40 2.3357 1.7177 2.3802 205.32 0.24717 8.9805 0.022485
46.375 229.46 0.24897 385.13 398.89 1.6456 455.83 0.0021938 322.41 325.88 1.4171 1.7621 3.0192 572.46 0.0040504 76.832 0.084152 35.325 0.028308 574.34 619.13 2.3349 1.7253 2.4042 204.67 0.24644 9.0269 0.022692
47.375 234.60 0.25546 389.14 403.21 1.6581 453.94 0.0022029 325.31 328.87 1.4262 1.7669 3.0377 565.41 0.0043202 75.946 0.083723 36.208 0.027618 575.17 619.85 2.3340 1.7329 2.4291 204.00 0.24573 9.0742 0.022903
48.375 239.83 0.26214 393.17 407.55 1.6707 452.03 0.0022123 328.22 331.88 1.4353 1.7718 3.0569 558.34 0.0046000 75.064 0.083295 37.112 0.026945 576.00 620.55 2.3332 1.7407 2.4548 203.31 0.24505 9.1224 0.023119
49.375 245.13 0.26899 397.23 411.93 1.6833 450.09 0.0022218 331.15 334.90 1.4445 1.7767 3.0766 551.24 0.0048904 74.186 0.082868 38.039 0.026289 576.81 621.24 2.3323 1.7485 2.4815 202.61 0.24440 9.1716 0.023339
50.375 250.53 0.27605 401.31 416.33 1.6959 448.13 0.0022315 334.09 337.94 1.4536 1.7817 3.0970 544.13 0.0051920 73.313 0.082442 38.989 0.025648 577.61 621.91 2.3314 1.7564 2.5092 201.89 0.24377 9.2219 0.023564
51.375 256.01 0.28330 405.42 420.77 1.7086 446.15 0.0022414 337.04 341.00 1.4628 1.7867 3.1181 536.98 0.0055054 72.443 0.082018 39.962 0.025024 578.39 622.56 2.3304 1.7644 2.5379 201.16 0.24317 9.2733 0.023794
52.375 261.57 0.29077 409.55 425.24 1.7213 444.15 0.0022515 340.01 344.07 1.4720 1.7918 3.1400 529.82 0.0058313 71.577 0.081595 40.961 0.024414 579.17 623.20 2.3295 1.7724 2.5677 200.41 0.24260 9.3258 0.024029
53.375 267.23 0.29847 413.71 429.74 1.7341 442.12 0.0022618 343.00 347.17 1.4812 1.7969 3.1627 522.62 0.0061705 70.715 0.081174 41.985 0.023818 579.93 623.81 2.3285 1.7805 2.5987 199.63 0.24205 9.3795 0.024270
54.375 272.97 0.30639 417.90 434.27 1.7469 440.06 0.0022724 346.00 350.28 1.4904 1.8021 3.1862 515.40 0.0065239 69.856 0.080753 43.036 0.023237 580.68 624.41 2.3274 1.7887 2.6310 198.85 0.24154 9.4344 0.024516
55.375 278.81 0.31456 422.12 438.83 1.7597 437.98 0.0022832 349.02 353.40 1.4997 1.8073 3.2106 508.15 0.0068923 69.001 0.080334 44.114 0.022669 581.41 624.99 2.3264 1.7969 2.6646 198.04 0.24105 9.4907 0.024769
56.375 284.74 0.32299 426.36 443.43 1.7726 435.87 0.0022943 352.05 356.55 1.5090 1.8126 3.2360 500.87 0.0072767 68.148 0.079915 45.221 0.022114 582.13 625.54 2.3253 1.8052 2.6998 197.22 0.24059 9.5484 0.025028
57.375 290.76 0.33168 430.63 448.06 1.7856 433.73 0.0023056 355.10 359.72 1.5183 1.8179 3.2624 493.56 0.0076782 67.299 0.079498 46.358 0.021571 582.83 626.07 2.3241 1.8136 2.7365 196.37 0.24016 9.6075 0.025294
58.375 296.87 0.34066 434.93 452.73 1.7986 431.56 0.0023172 358.17 362.91 1.5276 1.8233 3.2900 486.22 0.0080980 66.451 0.079082 47.525 0.021041 583.52 626.58 2.3230 1.8220 2.7749 195.51 0.23976 9.6682 0.025568
59.375 303.08 0.34993 439.26 457.43 1.8116 429.36 0.0023290 361.25 366.12 1.5370 1.8288 3.3188 478.84 0.0085373 65.606 0.078666 48.726 0.020523 584.18 627.07 2.3218 1.8305 2.8152 194.63 0.23939 9.7305 0.025849
60.375 309.38 0.35952 443.62 462.17 1.8247 427.13 0.0023412 364.36 369.35 1.5464 1.8343 3.3489 471.43 0.0089976 64.763 0.078251 49.960 0.020016 584.83 627.53 2.3205 1.8391 2.8576 193.73 0.23905 9.7945 0.026138
61.375 315.78 0.36944 448.01 466.94 1.8378 424.87 0.0023537 367.48 372.60 1.5558 1.8400 3.3805 463.99 0.0094803 63.922 0.077838 51.229 0.019520 585.46 627.96 2.3192 1.8479 2.9022 192.82 0.23873 9.8603 0.026436
62.375 322.28 0.37971 452.43 471.75 1.8510 422.56 0.0023665 370.62 375.88 1.5653 1.8457 3.4136 456.50 0.0099871 63.083 0.077425 52.535 0.019035 586.07 628.37 2.3178 1.8567 2.9492 191.88 0.23845 9.9281 0.026744
63.375 328.88 0.39035 456.88 476.60 1.8643 420.22 0.0023797 373.79 379.18 1.5748 1.8514 3.4483 448.97 0.010520 62.244 0.077012 53.879 0.018560 586.66 628.74 2.3164 1.8656 2.9989 190.92 0.23819 9.9979 0.027061
64.375 335.58 0.40139 461.37 481.48 1.8776 417.85 0.0023932 376.97 382.51 1.5844 1.8573 3.4850 441.40 0.011081 61.407 0.076600 55.265 0.018095 587.22 629.09 2.3149 1.8747 3.0517 189.95 0.23796 10.070 0.027389
65.375 342.38 0.41285 465.88 486.41 1.8909 415.42 0.0024072 380.18 385.86 1.5939 1.8633 3.5236 433.79 0.011672 60.570 0.076189 56.692 0.017639 587.76 629.40 2.3133 1.8839 3.1077 188.95 0.23775 10.144 0.027729
66.375 349.28 0.42476 470.43 491.37 1.9044 412.96 0.0024215 383.41 389.25 1.6036 1.8693 3.5645 426.12 0.012296 59.733 0.075779 58.165 0.017193 588.28 629.68 2.3117 1.8933 3.1674 187.93 0.23757 10.221 0.028080
67.375 356.28 0.43715 475.01 496.38 1.9178 410.45 0.0024363 386.67 392.65 1.6133 1.8755 3.6078 418.41 0.012956 58.897 0.075368 59.684 0.016755 588.76 629.92 2.3100 1.9030 3.2311 186.89 0.23740 10.300 0.028446
68.375 363.40 0.45005 479.63 501.42 1.9314 407.89 0.0024516 389.95 396.09 1.6230 1.8818 3.6537 410.64 0.013655 58.059 0.074959 61.253 0.016326 589.22 630.13 2.3082 1.9129 3.2994 185.83 0.23724 10.382 0.028825
69.375 370.61 0.46351 484.29 506.51 1.9450 405.28 0.0024674 393.26 399.57 1.6328 1.8882 3.7027 402.81 0.014396 57.221 0.074549 62.875 0.015905 589.65 630.29 2.3064 1.9231 3.3727 184.74 0.23710 10.467 0.029221
70.375 377.94 0.47756 488.98 511.64 1.9587 402.62 0.0024838 396.60 403.07 1.6426 1.8947 3.7550 394.92 0.015183 56.381 0.074141 64.552 0.015491 590.04 630.41 2.3044 1.9336 3.4518 183.63 0.23697 10.555 0.029633
71.375 385.37 0.49225 493.71 516.81 1.9724 399.89 0.0025007 399.96 406.61 1.6525 1.9014 3.8109 386.97 0.016021 55.540 0.073732 66.288 0.015086 590.40 630.49 2.3024 1.9444 3.5371 182.50 0.23684 10.647 0.030064
72.375 392.92 0.50764 498.48 522.03 1.9862 397.11 0.0025182 403.36 410.18 1.6625 1.9083 3.8711 378.95 0.016915 54.696 0.073324 68.087 0.014687 590.73 630.51 2.3002 1.9556 3.6297 181.34 0.23671 10.743 0.030515
73.375 400.57 0.52379 503.28 527.30 2.0001 394.26 0.0025364 406.79 413.80 1.6726 1.9153 3.9359 370.85 0.017871 53.848 0.072917 69.953 0.014295 591.01 630.49 2.2979 1.9673 3.7303 180.16 0.23658 10.842 0.030989
74.375 408.34 0.54077 508.13 532.61 2.0141 391.34 0.0025553 410.26 417.45 1.6827 1.9226 4.0060 362.67 0.018894 52.997 0.072510 71.890 0.013910 591.25 630.41 2.2955 1.9793 3.8401 178.95 0.23643 10.946 0.031488
75.375 416.23 0.55865 513.02 537.98 2.0282 388.34 0.0025751 413.76 421.15 1.6930 1.9301 4.0822 354.41 0.019993 52.142 0.072104 73.904 0.013531 591.44 630.27 2.2930 1.9919 3.9604 177.71 0.23627 11.054 0.032014
76.375 424.23 0.57754 517.96 543.39 2.0423 385.26 0.0025957 417.31 424.90 1.7033 1.9378 4.1654 346.06 0.021177 51.281 0.071699 76.001 0.013158 591.59 630.07 2.2903 2.0050 4.0927 176.44 0.23609 11.168 0.032570
77.375 432.35 0.59753 522.94 548.86 2.0565 382.09 0.0026172 420.89 428.70 1.7137 1.9459 4.2565 337.60 0.022455 50.414 0.071295 78.187 0.012790 591.68 629.80 2.2874 2.0186 4.2389 175.15 0.23588 11.287 0.033161
78.375 440.59 0.61874 527.97 554.38 2.0709 378.83 0.0026397 424.53 432.54 1.7243 1.9543 4.3570 329.05 0.023838 49.539 0.070893 80.469 0.012427 591.71 629.46 2.2844 2.0328 4.4012 173.82 0.23563 11.412 0.033789
79.375 448.95 0.64134 533.05 559.96 2.0853 375.46 0.0026634 428.21 436.45 1.7349 1.9631 4.4684 320.38 0.025341 48.657 0.070494 82.856 0.012069 591.68 629.04 2.2812 2.0475 4.5824 172.46 0.23535 11.544 0.034461
80.375 457.44 0.66549 538.18 565.60 2.0998 371.97 0.0026884 431.94 440.42 1.7457 1.9723 4.5928 311.58 0.026980 47.764 0.070099 85.359 0.011715 591.58 628.53 2.2778 2.0630 4.7859 171.07 0.23501 11.684 0.035181
81.375 466.05 0.69140 543.36 571.31 2.1145 368.36 0.0027147 435.74 444.46 1.7567 1.9820 4.7327 302.66 0.028773 46.860 0.069708 87.988 0.011365 591.40 627.92 2.2742 2.0791 5.0161 169.64 0.23461 11.832 0.035957
82.375 474.79 0.71932 548.61 577.07 2.1292 364.61 0.0027427 439.60 448.58 1.7678 1.9924 4.8914 293.60 0.030744 45.942 0.069323 90.757 0.011018 591.14 627.21 2.2703 2.0959 5.2786 168.17 0.23413 11.989 0.036797
83.375 483.66 0.74958 553.91 582.91 2.1441 360.70 0.0027724 443.53 452.78 1.7791 2.0034 5.0731 284.38 0.032920 45.010 0.068948 93.681 0.010674 590.79 626.38 2.2661 2.1136 5.5807 166.67 0.23357 12.157 0.037711
84.375 492.67 0.78257 559.28 588.82 2.1592 356.61 0.0028041 447.54 457.07 1.7907 2.0153 5.2834 275.00 0.035335 44.059 0.068586 96.781 0.010333 590.33 625.42 2.2616 2.1321 5.9321 165.13 0.23290 12.338 0.038713
85.375 501.81 0.81878 564.72 594.80 2.1744 352.33 0.0028382 451.65 461.47 1.8025 2.0281 5.5302 265.44 0.038030 43.088 0.068241 100.08 0.0099920 589.74 624.31 2.2567 2.1517 6.3459 163.54 0.23209 12.532 0.039819
86.375 511.09 0.85888 570.23 600.87 2.1897 347.82 0.0028751 455.85 465.98 1.8145 2.0420 5.8240 255.69 0.041058 42.092 0.067923 103.61 0.0096520 589.03 623.04 2.2514 2.1723 6.8405 161.91 0.23112 12.743 0.041051
87.375 520.51 0.90374 575.83 607.03 2.2053 343.04 0.0029151 460.18 470.64 1.8269 2.0574 6.1803 245.72 0.044485 41.066 0.067640 107.40 0.0093114 588.15 621.56 2.2456 2.1943 7.4422 160.23 0.22995 12.973 0.042436
88.375 530.07 0.95454 581.51 613.29 2.2210 337.95 0.0029590 464.64 475.45 1.8397 2.0745 6.6221 235.52 0.048397 40.005 0.067412 111.50 0.0089689 587.08 619.86 2.2392 2.2178 8.1900 158.49 0.22854 13.226 0.044014
89.375 538.92 undefined 586.55 618.86 2.2349 115.00 0.0086957 586.55 618.86 2.2349 2.2345 8.7905 157.32 0.22635 13.453 0.045303 115.00 0.0086957 586.55 618.86 2.2349 2.2345 8.7905 157.32 0.22635 13.453 0.045303
90.375 544.52 undefined 588.77 621.42 2.2410 115.00 0.0086957 588.77 621.42 2.2410 2.2195 8.2234 158.47 0.22237 13.487 0.044751 115.00 0.0086957 588.77 621.42 2.2410 2.2195 8.2234 158.47 0.22237 13.487 0.044751
91.375 550.08 undefined 590.99 623.97 2.2471 115.00 0.0086957 590.99 623.97 2.2471 2.2059 7.7488 159.62 0.21852 13.521 0.044289 115.00 0.0086957 590.99 623.97 2.2471 2.2059 7.7488 159.62 0.21852 13.521 0.044289
92.375 555.60 undefined 593.19 626.50 2.2531 115.00 0.0086957 593.19 626.50 2.2531 2.1937 7.3459 160.77 0.21478 13.555 0.043900 115.00 0.0086957 593.19 626.50 2.2531 2.1937 7.3459 160.77 0.21478 13.555 0.043900
93.375 561.09 undefined 595.37 629.01 2.2591 115.00 0.0086957 595.37 629.01 2.2591 2.1827 6.9997 161.92 0.21115 13.589 0.043572 115.00 0.0086957 595.37 629.01 2.2591 2.1827 6.9997 161.92 0.21115 13.589 0.043572
94.375 566.54 undefined 597.55 631.52 2.2651 115.00 0.0086957 597.55 631.52 2.2651 2.1731 6.6991 163.06 0.20761 13.624 0.043293 115.00 0.0086957 597.55 631.52 2.2651 2.1731 6.6991 163.06 0.20761 13.624 0.043293
95.375 571.96 undefined 599.72 634.01 2.2710 115.00 0.0086957 599.72 634.01 2.2710 2.1645 6.4356 164.19 0.20417 13.661 0.043055 115.00 0.0086957 599.72 634.01 2.2710 2.1645 6.4356 164.19 0.20417 13.661 0.043055
96.375 577.35 undefined 601.88 636.50 2.2768 115.00 0.0086957 601.88 636.50 2.2768 2.1571 6.2027 165.32 0.20081 13.701 0.042851 115.00 0.0086957 601.88 636.50 2.2768 2.1571 6.2027 165.32 0.20081 13.701 0.042851
97.375 582.72 undefined 604.03 638.97 2.2826 115.00 0.0086957 604.03 638.97 2.2826 2.1506 5.9954 166.43 0.19753 13.732 0.042681 115.00 0.0086957 604.03 638.97 2.2826 2.1506 5.9954 166.43 0.19753 13.732 0.042681
98.375 588.06 undefined 606.18 641.44 2.2884 115.00 0.0086957 606.18 641.44 2.2884 2.1450 5.8095 167.54 0.19434 13.760 0.042540 115.00 0.0086957 606.18 641.44 2.2884 2.1450 5.8095 167.54 0.19434 13.760 0.042540
99.375 593.39 undefined 608.32 643.90 2.2942 115.00 0.0086957 608.32 643.90 2.2942 2.1401 5.6420 168.64 0.19122 13.790 0.042420 115.00 0.0086957 608.32 643.90 2.2942 2.1401 5.6420 168.64 0.19122 13.790 0.042420
100.38 598.69 undefined 610.46 646.36 2.2999 115.00 0.0086957 610.46 646.36 2.2999 2.1359 5.4901 169.73 0.18818 13.822 0.042319 115.00 0.0086957 610.46 646.36 2.2999 2.1359 5.4901 169.73 0.18818 13.822 0.042319
101.38 603.97 undefined 612.60 648.81 2.3056 115.00 0.0086957 612.60 648.81 2.3056 2.1323 5.3518 170.81 0.18521 13.854 0.042235 115.00 0.0086957 612.60 648.81 2.3056 2.1323 5.3518 170.81 0.18521 13.854 0.042235
102.38 609.23 undefined 614.73 651.25 2.3113 115.00 0.0086957 614.73 651.25 2.3113 2.1293 5.2252 171.88 0.18231 13.887 0.042167 115.00 0.0086957 614.73 651.25 2.3113 2.1293 5.2252 171.88 0.18231 13.887 0.042167
103.38 614.48 undefined 616.86 653.70 2.3170 115.00 0.0086957 616.86 653.70 2.3170 2.1267 5.1090 172.95 0.17948 13.920 0.042112 115.00 0.0086957 616.86 653.70 2.3170 2.1267 5.1090 172.95 0.17948 13.920 0.042112
104.38 619.71 undefined 618.98 656.14 2.3226 115.00 0.0086957 618.98 656.14 2.3226 2.1245 5.0018 174.00 0.17672 13.953 0.042070 115.00 0.0086957 618.98 656.14 2.3226 2.1245 5.0018 174.00 0.17672 13.953 0.042070
105.38 624.92 undefined 621.10 658.57 2.3282 115.00 0.0086957 621.10 658.57 2.3282 2.1227 4.9027 175.05 0.17402 13.986 0.042040 115.00 0.0086957 621.10 658.57 2.3282 2.1227 4.9027 175.05 0.17402 13.986 0.042040
106.38 630.12 undefined 623.23 661.00 2.3338 115.00 0.0086957 623.23 661.00 2.3338 2.1212 4.8108 176.10 0.17139 14.018 0.042019 115.00 0.0086957 623.23 661.00 2.3338 2.1212 4.8108 176.10 0.17139 14.018 0.042019
107.38 635.31 undefined 625.35 663.44 2.3394 115.00 0.0086957 625.35 663.44 2.3394 2.1200 4.7253 177.13 0.16882 14.051 0.042008 115.00 0.0086957 625.35 663.44 2.3394 2.1200 4.7253 177.13 0.16882 14.051 0.042008
108.38 640.48 undefined 627.47 665.87 2.3450 115.00 0.0086957 627.47 665.87 2.3450 2.1191 4.6456 178.17 0.16631 14.084 0.042005 115.00 0.0086957 627.47 665.87 2.3450 2.1191 4.6456 178.17 0.16631 14.084 0.042005
109.38 645.64 undefined 629.59 668.29 2.3505 115.00 0.0086957 629.59 668.29 2.3505 2.1184 4.5712 179.19 0.16385 14.117 0.042011 115.00 0.0086957 629.59 668.29 2.3505 2.1184 4.5712 179.19 0.16385 14.117 0.042011
110.38 650.78 undefined 631.70 670.72 2.3560 115.00 0.0086957 631.70 670.72 2.3560 2.1180 4.5014 180.21 0.16146 14.150 0.042023 115.00 0.0086957 631.70 670.72 2.3560 2.1180 4.5014 180.21 0.16146 14.150 0.042023
111.38 655.92 undefined 633.82 673.15 2.3615 115.00 0.0086957 633.82 673.15 2.3615 2.1178 4.4360 181.22 0.15911 14.182 0.042043 115.00 0.0086957 633.82 673.15 2.3615 2.1178 4.4360 181.22 0.15911 14.182 0.042043
112.38 661.04 undefined 635.94 675.57 2.3670 115.00 0.0086957 635.94 675.57 2.3670 2.1177 4.3746 182.23 0.15682 14.215 0.042068 115.00 0.0086957 635.94 675.57 2.3670 2.1177 4.3746 182.23 0.15682 14.215 0.042068
113.38 666.15 undefined 638.06 678.00 2.3725 115.00 0.0086957 638.06 678.00 2.3725 2.1178 4.3167 183.23 0.15459 14.248 0.042099 115.00 0.0086957 638.06 678.00 2.3725 2.1178 4.3167 183.23 0.15459 14.248 0.042099
114.38 671.25 undefined 640.17 680.42 2.3780 115.00 0.0086957 640.17 680.42 2.3780 2.1181 4.2622 184.22 0.15240 14.280 0.042136 115.00 0.0086957 640.17 680.42 2.3780 2.1181 4.2622 184.22 0.15240 14.280 0.042136
115.38 676.34 undefined 642.29 682.84 2.3835 115.00 0.0086957 642.29 682.84 2.3835 2.1185 4.2107 185.21 0.15026 14.313 0.042178 115.00 0.0086957 642.29 682.84 2.3835 2.1185 4.2107 185.21 0.15026 14.313 0.042178
116.38 681.42 undefined 644.41 685.27 2.3889 115.00 0.0086957 644.41 685.27 2.3889 2.1191 4.1620 186.20 0.14817 14.345 0.042224 115.00 0.0086957 644.41 685.27 2.3889 2.1191 4.1620 186.20 0.14817 14.345 0.042224
117.38 686.49 undefined 646.53 687.69 2.3943 115.00 0.0086957 646.53 687.69 2.3943 2.1198 4.1160 187.18 0.14612 14.378 0.042275 115.00 0.0086957 646.53 687.69 2.3943 2.1198 4.1160 187.18 0.14612 14.378 0.042275
118.38 691.55 undefined 648.65 690.11 2.3998 115.00 0.0086957 648.65 690.11 2.3998 2.1206 4.0723 188.15 0.14412 14.410 0.042330 115.00 0.0086957 648.65 690.11 2.3998 2.1206 4.0723 188.15 0.14412 14.410 0.042330
119.38 696.60 undefined 650.77 692.54 2.4052 115.00 0.0086957 650.77 692.54 2.4052 2.1215 4.0309 189.12 0.14216 14.442 0.042389 115.00 0.0086957 650.77 692.54 2.4052 2.1215 4.0309 189.12 0.14216 14.442 0.042389
120.38 701.65 undefined 652.89 694.96 2.4106 115.00 0.0086957 652.89 694.96 2.4106 2.1226 3.9916 190.09 0.14024 14.475 0.042452 115.00 0.0086957 652.89 694.96 2.4106 2.1226 3.9916 190.09 0.14024 14.475 0.042452
121.38 706.68 undefined 655.02 697.39 2.4160 115.00 0.0086957 655.02 697.39 2.4160 2.1237 3.9542 191.05 0.13836 14.507 0.042518 115.00 0.0086957 655.02 697.39 2.4160 2.1237 3.9542 191.05 0.13836 14.507 0.042518
122.38 711.71 undefined 657.14 699.81 2.4213 115.00 0.0086957 657.14 699.81 2.4213 2.1250 3.9187 192.00 0.13652 14.539 0.042587 115.00 0.0086957 657.14 699.81 2.4213 2.1250 3.9187 192.00 0.13652 14.539 0.042587
123.38 716.72 undefined 659.27 702.24 2.4267 115.00 0.0086957 659.27 702.24 2.4267 2.1264 3.8848 192.95 0.13472 14.571 0.042660 115.00 0.0086957 659.27 702.24 2.4267 2.1264 3.8848 192.95 0.13472 14.571 0.042660
124.38 721.73 undefined 661.39 704.67 2.4321 115.00 0.0086957 661.39 704.67 2.4321 2.1278 3.8526 193.90 0.13295 14.603 0.042735 115.00 0.0086957 661.39 704.67 2.4321 2.1278 3.8526 193.90 0.13295 14.603 0.042735
125.38 726.74 undefined 663.52 707.09 2.4374 115.00 0.0086957 663.52 707.09 2.4374 2.1293 3.8218 194.84 0.13122 14.636 0.042814 115.00 0.0086957 663.52 707.09 2.4374 2.1293 3.8218 194.84 0.13122 14.636 0.042814
126.38 731.73 undefined 665.65 709.52 2.4428 115.00 0.0086957 665.65 709.52 2.4428 2.1309 3.7924 195.77 0.12953 14.668 0.042895 115.00 0.0086957 665.65 709.52 2.4428 2.1309 3.7924 195.77 0.12953 14.668 0.042895
127.38 736.72 undefined 667.79 711.95 2.4481 115.00 0.0086957 667.79 711.95 2.4481 2.1326 3.7643 196.70 0.12787 14.700 0.042978 115.00 0.0086957 667.79 711.95 2.4481 2.1326 3.7643 196.70 0.12787 14.700 0.042978
128.38 741.70 undefined 669.92 714.39 2.4534 115.00 0.0086957 669.92 714.39 2.4534 2.1344 3.7375 197.63 0.12624 14.732 0.043064 115.00 0.0086957 669.92 714.39 2.4534 2.1344 3.7375 197.63 0.12624 14.732 0.043064
129.38 746.67 undefined 672.05 716.82 2.4587 115.00 0.0086957 672.05 716.82 2.4587 2.1362 3.7118 198.56 0.12464 14.764 0.043152 115.00 0.0086957 672.05 716.82 2.4587 2.1362 3.7118 198.56 0.12464 14.764 0.043152
130.38 751.64 undefined 674.19 719.26 2.4640 115.00 0.0086957 674.19 719.26 2.4640 2.1381 3.6873 199.47 0.12308 14.795 0.043243 115.00 0.0086957 674.19 719.26 2.4640 2.1381 3.6873 199.47 0.12308 14.795 0.043243
131.38 756.60 undefined 676.33 721.69 2.4693 115.00 0.0086957 676.33 721.69 2.4693 2.1400 3.6638 200.39 0.12154 14.827 0.043336 115.00 0.0086957 676.33 721.69 2.4693 2.1400 3.6638 200.39 0.12154 14.827 0.043336
132.38 761.56 undefined 678.47 724.13 2.4746 115.00 0.0086957 678.47 724.13 2.4746 2.1420 3.6412 201.30 0.12004 14.859 0.043430 115.00 0.0086957 678.47 724.13 2.4746 2.1420 3.6412 201.30 0.12004 14.859 0.043430
133.38 766.51 undefined 680.61 726.57 2.4799 115.00 0.0086957 680.61 726.57 2.4799 2.1441 3.6196 202.21 0.11856 14.891 0.043527 115.00 0.0086957 680.61 726.57 2.4799 2.1441 3.6196 202.21 0.11856 14.891 0.043527
134.38 771.45 undefined 682.76 729.01 2.4851 115.00 0.0086957 682.76 729.01 2.4851 2.1462 3.5989 203.11 0.11711 14.923 0.043625 115.00 0.0086957 682.76 729.01 2.4851 2.1462 3.5989 203.11 0.11711 14.923 0.043625
135.38 776.38 undefined 684.91 731.45 2.4904 115.00 0.0086957 684.91 731.45 2.4904 2.1484 3.5790 204.01 0.11569 14.954 0.043725 115.00 0.0086957 684.91 731.45 2.4904 2.1484 3.5790 204.01 0.11569 14.954 0.043725
136.38 781.32 undefined 687.06 733.90 2.4957 115.00 0.0086957 687.06 733.90 2.4957 2.1506 3.5599 204.90 0.11429 14.986 0.043827 115.00 0.0086957 687.06 733.90 2.4957 2.1506 3.5599 204.90 0.11429 14.986 0.043827
137.38 786.24 undefined 689.21 736.35 2.5009 115.00 0.0086957 689.21 736.35 2.5009 2.1529 3.5415 205.79 0.11292 15.018 0.043931 115.00 0.0086957 689.21 736.35 2.5009 2.1529 3.5415 205.79 0.11292 15.018 0.043931
138.38 791.16 undefined 691.36 738.80 2.5061 115.00 0.0086957 691.36 738.80 2.5061 2.1552 3.5239 206.68 0.11158 15.049 0.044036 115.00 0.0086957 691.36 738.80 2.5061 2.1552 3.5239 206.68 0.11158 15.049 0.044036
139.38 796.07 undefined 693.52 741.25 2.5114 115.00 0.0086957 693.52 741.25 2.5114 2.1575 3.5069 207.56 0.11026 15.081 0.044143 115.00 0.0086957 693.52 741.25 2.5114 2.1575 3.5069 207.56 0.11026 15.081 0.044143
140.38 800.98 undefined 695.68 743.70 2.5166 115.00 0.0086957 695.68 743.70 2.5166 2.1599 3.4906 208.44 0.10896 15.112 0.044251 115.00 0.0086957 695.68 743.70 2.5166 2.1599 3.4906 208.44 0.10896 15.112 0.044251
141.38 805.88 undefined 697.84 746.15 2.5218 115.00 0.0086957 697.84 746.15 2.5218 2.1623 3.4749 209.31 0.10768 15.144 0.044360 115.00 0.0086957 697.84 746.15 2.5218 2.1623 3.4749 209.31 0.10768 15.144 0.044360
142.38 810.78 undefined 700.00 748.61 2.5270 115.00 0.0086957 700.00 748.61 2.5270 2.1648 3.4598 210.19 0.10643 15.175 0.044471 115.00 0.0086957 700.00 748.61 2.5270 2.1648 3.4598 210.19 0.10643 15.175 0.044471
143.38 815.68 undefined 702.17 751.07 2.5322 115.00 0.0086957 702.17 751.07 2.5322 2.1673 3.4453 211.05 0.10520 15.206 0.044584 115.00 0.0086957 702.17 751.07 2.5322 2.1673 3.4453 211.05 0.10520 15.206 0.044584
144.38 820.56 undefined 704.34 753.53 2.5374 115.00 0.0086957 704.34 753.53 2.5374 2.1698 3.4312 211.92 0.10399 15.238 0.044697 115.00 0.0086957 704.34 753.53 2.5374 2.1698 3.4312 211.92 0.10399 15.238 0.044697
145.38 825.45 undefined 706.51 756.00 2.5426 115.00 0.0086957 706.51 756.00 2.5426 2.1724 3.4178 212.78 0.10281 15.269 0.044812 115.00 0.0086957 706.51 756.00 2.5426 2.1724 3.4178 212.78 0.10281 15.269 0.044812
146.38 830.33 undefined 708.68 758.46 2.5478 115.00 0.0086957 708.68 758.46 2.5478 2.1750 3.4048 213.64 0.10164 15.300 0.044928 115.00 0.0086957 708.68 758.46 2.5478 2.1750 3.4048 213.64 0.10164 15.300 0.044928
147.38 835.20 undefined 710.86 760.93 2.5530 115.00 0.0086957 710.86 760.93 2.5530 2.1776 3.3922 214.49 0.10049 15.331 0.045045 115.00 0.0086957 710.86 760.93 2.5530 2.1776 3.3922 214.49 0.10049 15.331 0.045045
148.38 840.07 undefined 713.04 763.40 2.5582 115.00 0.0086957 713.04 763.40 2.5582 2.1802 3.3802 215.34 0.099364 15.363 0.045164 115.00 0.0086957 713.04 763.40 2.5582 2.1802 3.3802 215.34 0.099364 15.363 0.045164
149.38 844.93 undefined 715.22 765.88 2.5634 115.00 0.0086957 715.22 765.88 2.5634 2.1829 3.3685 216.19 0.098255 15.394 0.045283 115.00 0.0086957 715.22 765.88 2.5634 2.1829 3.3685 216.19 0.098255 15.394 0.045283
150.38 849.79 undefined 717.40 768.35 2.5685 115.00 0.0086957 717.40 768.35 2.5685 2.1856 3.3573 217.03 0.097165 15.425 0.045404 115.00 0.0086957 717.40 768.35 2.5685 2.1856 3.3573 217.03 0.097165 15.425 0.045404
151.38 854.65 undefined 719.59 770.83 2.5737 115.00 0.0086957 719.59 770.83 2.5737 2.1883 3.3464 217.87 0.096094 15.456 0.045525 115.00 0.0086957 719.59 770.83 2.5737 2.1883 3.3464 217.87 0.096094 15.456 0.045525
152.38 859.50 undefined 721.78 773.31 2.5788 115.00 0.0086957 721.78 773.31 2.5788 2.1911 3.3360 218.71 0.095039 15.487 0.045648 115.00 0.0086957 721.78 773.31 2.5788 2.1911 3.3360 218.71 0.095039 15.487 0.045648
153.38 864.35 undefined 723.97 775.79 2.5840 115.00 0.0086957 723.97 775.79 2.5840 2.1939 3.3259 219.54 0.094002 15.518 0.045771 115.00 0.0086957 723.97 775.79 2.5840 2.1939 3.3259 219.54 0.094002 15.518 0.045771
154.38 869.19 undefined 726.17 778.28 2.5891 115.00 0.0086957 726.17 778.28 2.5891 2.1966 3.3162 220.37 0.092983 15.549 0.045896 115.00 0.0086957 726.17 778.28 2.5891 2.1966 3.3162 220.37 0.092983 15.549 0.045896
155.38 874.03 undefined 728.36 780.77 2.5943 115.00 0.0086957 728.36 780.77 2.5943 2.1995 3.3068 221.20 0.091979 15.580 0.046021 115.00 0.0086957 728.36 780.77 2.5943 2.1995 3.3068 221.20 0.091979 15.580 0.046021
156.38 878.86 undefined 730.57 783.26 2.5994 115.00 0.0086957 730.57 783.26 2.5994 2.2023 3.2977 222.03 0.090992 15.611 0.046148 115.00 0.0086957 730.57 783.26 2.5994 2.2023 3.2977 222.03 0.090992 15.611 0.046148
157.38 883.70 undefined 732.77 785.75 2.6045 115.00 0.0086957 732.77 785.75 2.6045 2.2051 3.2890 222.85 0.090020 15.641 0.046275 115.00 0.0086957 732.77 785.75 2.6045 2.2051 3.2890 222.85 0.090020 15.641 0.046275
158.38 888.52 undefined 734.98 788.25 2.6096 115.00 0.0086957 734.98 788.25 2.6096 2.2080 3.2805 223.67 0.089064 15.672 0.046403 115.00 0.0086957 734.98 788.25 2.6096 2.2080 3.2805 223.67 0.089064 15.672 0.046403
159.38 893.35 undefined 737.18 790.75 2.6147 115.00 0.0086957 737.18 790.75 2.6147 2.2109 3.2723 224.48 0.088123 15.703 0.046532 115.00 0.0086957 737.18 790.75 2.6147 2.2109 3.2723 224.48 0.088123 15.703 0.046532
160.38 898.17 undefined 739.40 793.25 2.6198 115.00 0.0086957 739.40 793.25 2.6198 2.2138 3.2645 225.30 0.087197 15.734 0.046662 115.00 0.0086957 739.40 793.25 2.6198 2.2138 3.2645 225.30 0.087197 15.734 0.046662
161.38 902.98 undefined 741.61 795.75 2.6250 115.00 0.0086957 741.61 795.75 2.6250 2.2167 3.2569 226.10 0.086286 15.764 0.046792 115.00 0.0086957 741.61 795.75 2.6250 2.2167 3.2569 226.10 0.086286 15.764 0.046792
162.38 907.79 undefined 743.83 798.26 2.6301 115.00 0.0086957 743.83 798.26 2.6301 2.2197 3.2495 226.91 0.085388 15.795 0.046924 115.00 0.0086957 743.83 798.26 2.6301 2.2197 3.2495 226.91 0.085388 15.795 0.046924
163.38 912.60 undefined 746.05 800.77 2.6351 115.00 0.0086957 746.05 800.77 2.6351 2.2226 3.2424 227.72 0.084504 15.826 0.047056 115.00 0.0086957 746.05 800.77 2.6351 2.2226 3.2424 227.72 0.084504 15.826 0.047056
164.38 917.41 undefined 748.28 803.28 2.6402 115.00 0.0086957 748.28 803.28 2.6402 2.2256 3.2356 228.52 0.083634 15.856 0.047189 115.00 0.0086957 748.28 803.28 2.6402 2.2256 3.2356 228.52 0.083634 15.856 0.047189
165.38 922.21 undefined 750.50 805.79 2.6453 115.00 0.0086957 750.50 805.79 2.6453 2.2286 3.2290 229.31 0.082777 15.887 0.047323 115.00 0.0086957 750.50 805.79 2.6453 2.2286 3.2290 229.31 0.082777 15.887 0.047323
166.38 927.00 undefined 752.73 808.31 2.6504 115.00 0.0086957 752.73 808.31 2.6504 2.2315 3.2226 230.11 0.081934 15.917 0.047457 115.00 0.0086957 752.73 808.31 2.6504 2.2315 3.2226 230.11 0.081934 15.917 0.047457
167.38 931.80 undefined 754.97 810.83 2.6555 115.00 0.0086957 754.97 810.83 2.6555 2.2346 3.2164 230.90 0.081102 15.948 0.047592 115.00 0.0086957 754.97 810.83 2.6555 2.2346 3.2164 230.90 0.081102 15.948 0.047592
168.38 936.59 undefined 757.20 813.35 2.6605 115.00 0.0086957 757.20 813.35 2.6605 2.2376 3.2104 231.69 0.080284 15.978 0.047728 115.00 0.0086957 757.20 813.35 2.6605 2.2376 3.2104 231.69 0.080284 15.978 0.047728
169.38 941.38 undefined 759.44 815.88 2.6656 115.00 0.0086957 759.44 815.88 2.6656 2.2406 3.2047 232.48 0.079477 16.008 0.047865 115.00 0.0086957 759.44 815.88 2.6656 2.2406 3.2047 232.48 0.079477 16.008 0.047865
170.38 946.16 undefined 761.68 818.41 2.6707 115.00 0.0086957 761.68 818.41 2.6707 2.2436 3.1992 233.26 0.078683 16.039 0.048002 115.00 0.0086957 761.68 818.41 2.6707 2.2436 3.1992 233.26 0.078683 16.039 0.048002
171.38 950.94 undefined 763.93 820.94 2.6757 115.00 0.0086957 763.93 820.94 2.6757 2.2467 3.1938 234.04 0.077900 16.069 0.048140 115.00 0.0086957 763.93 820.94 2.6757 2.2467 3.1938 234.04 0.077900 16.069 0.048140
172.38 955.72 undefined 766.18 823.48 2.6808 115.00 0.0086957 766.18 823.48 2.6808 2.2498 3.1886 234.82 0.077129 16.099 0.048278 115.00 0.0086957 766.18 823.48 2.6808 2.2498 3.1886 234.82 0.077129 16.099 0.048278
173.38 960.49 undefined 768.43 826.01 2.6858 115.00 0.0086957 768.43 826.01 2.6858 2.2528 3.1837 235.60 0.076368 16.130 0.048417 115.00 0.0086957 768.43 826.01 2.6858 2.2528 3.1837 235.60 0.076368 16.130 0.048417
174.38 965.26 undefined 770.68 828.55 2.6909 115.00 0.0086957 770.68 828.55 2.6909 2.2559 3.1789 236.37 0.075619 16.160 0.048557 115.00 0.0086957 770.68 828.55 2.6909 2.2559 3.1789 236.37 0.075619 16.160 0.048557
175.38 970.03 undefined 772.94 831.10 2.6959 115.00 0.0086957 772.94 831.10 2.6959 2.2590 3.1742 237.15 0.074881 16.190 0.048697 115.00 0.0086957 772.94 831.10 2.6959 2.2590 3.1742 237.15 0.074881 16.190 0.048697
176.38 974.80 undefined 775.20 833.64 2.7009 115.00 0.0086957 775.20 833.64 2.7009 2.2621 3.1697 237.91 0.074153 16.220 0.048838 115.00 0.0086957 775.20 833.64 2.7009 2.2621 3.1697 237.91 0.074153 16.220 0.048838
177.38 979.56 undefined 777.46 836.19 2.7060 115.00 0.0086957 777.46 836.19 2.7060 2.2653 3.1654 238.68 0.073436 16.250 0.048980 115.00 0.0086957 777.46 836.19 2.7060 2.2653 3.1654 238.68 0.073436 16.250 0.048980
178.38 984.32 undefined 779.73 838.75 2.7110 115.00 0.0086957 779.73 838.75 2.7110 2.2684 3.1613 239.44 0.072729 16.280 0.049122 115.00 0.0086957 779.73 838.75 2.7110 2.2684 3.1613 239.44 0.072729 16.280 0.049122
179.38 989.07 undefined 782.00 841.30 2.7160 115.00 0.0086957 782.00 841.30 2.7160 2.2715 3.1573 240.21 0.072032 16.310 0.049265 115.00 0.0086957 782.00 841.30 2.7160 2.2715 3.1573 240.21 0.072032 16.310 0.049265
180.38 993.83 undefined 784.27 843.86 2.7210 115.00 0.0086957 784.27 843.86 2.7210 2.2747 3.1534 240.96 0.071345 16.340 0.049408 115.00 0.0086957 784.27 843.86 2.7210 2.2747 3.1534 240.96 0.071345 16.340 0.049408
181.38 998.58 undefined 786.55 846.42 2.7261 115.00 0.0086957 786.55 846.42 2.7261 2.2778 3.1497 241.72 0.070667 16.370 0.049552 115.00 0.0086957 786.55 846.42 2.7261 2.2778 3.1497 241.72 0.070667 16.370 0.049552
182.38 1003.3 undefined 788.83 848.98 2.7311 115.00 0.0086957 788.83 848.98 2.7311 2.2810 3.1462 242.47 0.069998 16.400 0.049697 115.00 0.0086957 788.83 848.98 2.7311 2.2810 3.1462 242.47 0.069998 16.400 0.049697
183.38 1008.1 undefined 791.11 851.55 2.7361 115.00 0.0086957 791.11 851.55 2.7361 2.2841 3.1427 243.23 0.069339 16.430 0.049841 115.00 0.0086957 791.11 851.55 2.7361 2.2841 3.1427 243.23 0.069339 16.430 0.049841
184.38 1012.8 undefined 793.40 854.12 2.7411 115.00 0.0086957 793.40 854.12 2.7411 2.2873 3.1394 243.98 0.068689 16.460 0.049987 115.00 0.0086957 793.40 854.12 2.7411 2.2873 3.1394 243.98 0.068689 16.460 0.049987
185.38 1017.5 undefined 795.69 856.69 2.7461 115.00 0.0086957 795.69 856.69 2.7461 2.2905 3.1362 244.72 0.068048 16.489 0.050133 115.00 0.0086957 795.69 856.69 2.7461 2.2905 3.1362 244.72 0.068048 16.489 0.050133
186.38 1022.3 undefined 797.98 859.27 2.7511 115.00 0.0086957 797.98 859.27 2.7511 2.2937 3.1332 245.47 0.067416 16.519 0.050280 115.00 0.0086957 797.98 859.27 2.7511 2.2937 3.1332 245.47 0.067416 16.519 0.050280
187.38 1027.0 undefined 800.27 861.85 2.7560 115.00 0.0086957 800.27 861.85 2.7560 2.2969 3.1303 246.21 0.066792 16.549 0.050427 115.00 0.0086957 800.27 861.85 2.7560 2.2969 3.1303 246.21 0.066792 16.549 0.050427
188.38 1031.7 undefined 802.57 864.43 2.7610 115.00 0.0086957 802.57 864.43 2.7610 2.3001 3.1274 246.95 0.066177 16.579 0.050574 115.00 0.0086957 802.57 864.43 2.7610 2.3001 3.1274 246.95 0.066177 16.579 0.050574
189.38 1036.5 undefined 804.87 867.02 2.7660 115.00 0.0086957 804.87 867.02 2.7660 2.3033 3.1247 247.69 0.065570 16.608 0.050722 115.00 0.0086957 804.87 867.02 2.7660 2.3033 3.1247 247.69 0.065570 16.608 0.050722
190.38 1041.2 undefined 807.18 869.60 2.7710 115.00 0.0086957 807.18 869.60 2.7710 2.3065 3.1222 248.42 0.064971 16.638 0.050871 115.00 0.0086957 807.18 869.60 2.7710 2.3065 3.1222 248.42 0.064971 16.638 0.050871
191.38 1045.9 undefined 809.49 872.20 2.7760 115.00 0.0086957 809.49 872.20 2.7760 2.3098 3.1197 249.16 0.064380 16.667 0.051020 115.00 0.0086957 809.49 872.20 2.7760 2.3098 3.1197 249.16 0.064380 16.667 0.051020
192.38 1050.6 undefined 811.80 874.79 2.7809 115.00 0.0086957 811.80 874.79 2.7809 2.3130 3.1173 249.89 0.063796 16.697 0.051170 115.00 0.0086957 811.80 874.79 2.7809 2.3130 3.1173 249.89 0.063796 16.697 0.051170
193.38 1055.4 undefined 814.11 877.39 2.7859 115.00 0.0086957 814.11 877.39 2.7859 2.3162 3.1150 250.62 0.063221 16.726 0.051320 115.00 0.0086957 814.11 877.39 2.7859 2.3162 3.1150 250.62 0.063221 16.726 0.051320
194.38 1060.1 undefined 816.43 879.99 2.7909 115.00 0.0086957 816.43 879.99 2.7909 2.3195 3.1129 251.34 0.062653 16.756 0.051470 115.00 0.0086957 816.43 879.99 2.7909 2.3195 3.1129 251.34 0.062653 16.756 0.051470
195.38 1064.8 undefined 818.75 882.59 2.7958 115.00 0.0086957 818.75 882.59 2.7958 2.3227 3.1108 252.07 0.062092 16.785 0.051621 115.00 0.0086957 818.75 882.59 2.7958 2.3227 3.1108 252.07 0.062092 16.785 0.051621
196.38 1069.5 undefined 821.08 885.20 2.8008 115.00 0.0086957 821.08 885.20 2.8008 2.3260 3.1088 252.79 0.061539 16.815 0.051773 115.00 0.0086957 821.08 885.20 2.8008 2.3260 3.1088 252.79 0.061539 16.815 0.051773
197.38 1074.2 undefined 823.40 887.81 2.8057 115.00 0.0086957 823.40 887.81 2.8057 2.3292 3.1070 253.51 0.060993 16.844 0.051925 115.00 0.0086957 823.40 887.81 2.8057 2.3292 3.1070 253.51 0.060993 16.844 0.051925
198.38 1078.9 undefined 825.74 890.42 2.8107 115.00 0.0086957 825.74 890.42 2.8107 2.3325 3.1052 254.23 0.060454 16.873 0.052077 115.00 0.0086957 825.74 890.42 2.8107 2.3325 3.1052 254.23 0.060454 16.873 0.052077
199.38 1083.6 undefined 828.07 893.04 2.8156 115.00 0.0086957 828.07 893.04 2.8156 2.3357 3.1035 254.94 0.059921 16.903 0.052230 115.00 0.0086957 828.07 893.04 2.8156 2.3357 3.1035 254.94 0.059921 16.903 0.052230
200.38 1088.3 undefined 830.41 895.66 2.8206 115.00 0.0086957 830.41 895.66 2.8206 2.3390 3.1018 255.66 0.059396 16.932 0.052383 115.00 0.0086957 830.41 895.66 2.8206 2.3390 3.1018 255.66 0.059396 16.932 0.052383
201.38 1093.0 undefined 832.75 898.28 2.8255 115.00 0.0086957 832.75 898.28 2.8255 2.3423 3.1003 256.37 0.058877 16.961 0.052537 115.00 0.0086957 832.75 898.28 2.8255 2.3423 3.1003 256.37 0.058877 16.961 0.052537
202.38 1097.7 undefined 835.09 900.90 2.8304 115.00 0.0086957 835.09 900.90 2.8304 2.3456 3.0989 257.08 0.058365 16.990 0.052691 115.00 0.0086957 835.09 900.90 2.8304 2.3456 3.0989 257.08 0.058365 16.990 0.052691
203.38 1102.4 undefined 837.44 903.53 2.8354 115.00 0.0086957 837.44 903.53 2.8354 2.3489 3.0975 257.79 0.057859 17.020 0.052845 115.00 0.0086957 837.44 903.53 2.8354 2.3489 3.0975 257.79 0.057859 17.020 0.052845
204.38 1107.1 undefined 839.79 906.16 2.8403 115.00 0.0086957 839.79 906.16 2.8403 2.3521 3.0962 258.50 0.057360 17.049 0.053000 115.00 0.0086957 839.79 906.16 2.8403 2.3521 3.0962 258.50 0.057360 17.049 0.053000
205.38 1111.8 undefined 842.14 908.80 2.8452 115.00 0.0086957 842.14 908.80 2.8452 2.3554 3.0950 259.20 0.056867 17.078 0.053156 115.00 0.0086957 842.14 908.80 2.8452 2.3554 3.0950 259.20 0.056867 17.078 0.053156
206.38 1116.5 undefined 844.50 911.44 2.8501 115.00 0.0086957 844.50 911.44 2.8501 2.3587 3.0939 259.90 0.056379 17.107 0.053311 115.00 0.0086957 844.50 911.44 2.8501 2.3587 3.0939 259.90 0.056379 17.107 0.053311
207.38 1121.2 undefined 846.86 914.08 2.8551 115.00 0.0086957 846.86 914.08 2.8551 2.3620 3.0928 260.60 0.055898 17.136 0.053468 115.00 0.0086957 846.86 914.08 2.8551 2.3620 3.0928 260.60 0.055898 17.136 0.053468
208.38 1125.8 undefined 849.22 916.72 2.8600 115.00 0.0086957 849.22 916.72 2.8600 2.3653 3.0918 261.30 0.055423 17.165 0.053624 115.00 0.0086957 849.22 916.72 2.8600 2.3653 3.0918 261.30 0.055423 17.165 0.053624
209.38 1130.5 undefined 851.59 919.37 2.8649 115.00 0.0086957 851.59 919.37 2.8649 2.3686 3.0909 262.00 0.054954 17.194 0.053781 115.00 0.0086957 851.59 919.37 2.8649 2.3686 3.0909 262.00 0.054954 17.194 0.053781
210.38 1135.2 undefined 853.96 922.02 2.8698 115.00 0.0086957 853.96 922.02 2.8698 2.3720 3.0900 262.69 0.054490 17.223 0.053939 115.00 0.0086957 853.96 922.02 2.8698 2.3720 3.0900 262.69 0.054490 17.223 0.053939
211.38 1139.9 undefined 856.33 924.68 2.8747 115.00 0.0086957 856.33 924.68 2.8747 2.3753 3.0892 263.38 0.054032 17.252 0.054097 115.00 0.0086957 856.33 924.68 2.8747 2.3753 3.0892 263.38 0.054032 17.252 0.054097
212.38 1144.6 undefined 858.71 927.33 2.8796 115.00 0.0086957 858.71 927.33 2.8796 2.3786 3.0885 264.07 0.053580 17.281 0.054255 115.00 0.0086957 858.71 927.33 2.8796 2.3786 3.0885 264.07 0.053580 17.281 0.054255
213.38 1149.2 undefined 861.09 929.99 2.8845 115.00 0.0086957 861.09 929.99 2.8845 2.3819 3.0879 264.76 0.053133 17.309 0.054413 115.00 0.0086957 861.09 929.99 2.8845 2.3819 3.0879 264.76 0.053133 17.309 0.054413
214.38 1153.9 undefined 863.48 932.66 2.8894 115.00 0.0086957 863.48 932.66 2.8894 2.3852 3.0873 265.45 0.052691 17.338 0.054572 115.00 0.0086957 863.48 932.66 2.8894 2.3852 3.0873 265.45 0.052691 17.338 0.054572
215.38 1158.6 undefined 865.86 935.32 2.8943 115.00 0.0086957 865.86 935.32 2.8943 2.3886 3.0867 266.14 0.052255 17.367 0.054732 115.00 0.0086957 865.86 935.32 2.8943 2.3886 3.0867 266.14 0.052255 17.367 0.054732
216.38 1163.2 undefined 868.25 937.99 2.8992 115.00 0.0086957 868.25 937.99 2.8992 2.3919 3.0863 266.82 0.051824 17.396 0.054891 115.00 0.0086957 868.25 937.99 2.8992 2.3919 3.0863 266.82 0.051824 17.396 0.054891
217.38 1167.9 undefined 870.65 940.67 2.9041 115.00 0.0086957 870.65 940.67 2.9041 2.3952 3.0858 267.50 0.051398 17.424 0.055052 115.00 0.0086957 870.65 940.67 2.9041 2.3952 3.0858 267.50 0.051398 17.424 0.055052
218.38 1172.6 undefined 873.04 943.34 2.9089 115.00 0.0086957 873.04 943.34 2.9089 2.3985 3.0855 268.18 0.050977 17.453 0.055212 115.00 0.0086957 873.04 943.34 2.9089 2.3985 3.0855 268.18 0.050977 17.453 0.055212
219.38 1177.2 undefined 875.44 946.02 2.9138 115.00 0.0086957 875.44 946.02 2.9138 2.4019 3.0852 268.86 0.050561 17.482 0.055373 115.00 0.0086957 875.44 946.02 2.9138 2.4019 3.0852 268.86 0.050561 17.482 0.055373
220.38 1181.9 undefined 877.85 948.71 2.9187 115.00 0.0086957 877.85 948.71 2.9187 2.4052 3.0849 269.53 0.050149 17.510 0.055534 115.00 0.0086957 877.85 948.71 2.9187 2.4052 3.0849 269.53 0.050149 17.510 0.055534
221.38 1186.5 undefined 880.25 951.39 2.9236 115.00 0.0086957 880.25 951.39 2.9236 2.4086 3.0847 270.21 0.049743 17.539 0.055696 115.00 0.0086957 880.25 951.39 2.9236 2.4086 3.0847 270.21 0.049743 17.539 0.055696
222.38 1191.2 undefined 882.66 954.08 2.9284 115.00 0.0086957 882.66 954.08 2.9284 2.4119 3.0846 270.88 0.049341 17.567 0.055858 115.00 0.0086957 882.66 954.08 2.9284 2.4119 3.0846 270.88 0.049341 17.567 0.055858
223.38 1195.9 undefined 885.08 956.77 2.9333 115.00 0.0086957 885.08 956.77 2.9333 2.4152 3.0845 271.55 0.048944 17.596 0.056020 115.00 0.0086957 885.08 956.77 2.9333 2.4152 3.0845 271.55 0.048944 17.596 0.056020
224.38 1200.5 undefined 887.49 959.47 2.9382 115.00 0.0086957 887.49 959.47 2.9382 2.4186 3.0844 272.22 0.048552 17.624 0.056183 115.00 0.0086957 887.49 959.47 2.9382 2.4186 3.0844 272.22 0.048552 17.624 0.056183
225.38 1205.2 undefined 889.91 962.17 2.9430 115.00 0.0086957 889.91 962.17 2.9430 2.4219 3.0844 272.89 0.048164 17.653 0.056346 115.00 0.0086957 889.91 962.17 2.9430 2.4219 3.0844 272.89 0.048164 17.653 0.056346
226.38 1209.8 undefined 892.34 964.87 2.9479 115.00 0.0086957 892.34 964.87 2.9479 2.4253 3.0845 273.56 0.047780 17.681 0.056509 115.00 0.0086957 892.34 964.87 2.9479 2.4253 3.0845 273.56 0.047780 17.681 0.056509
227.38 1214.5 undefined 894.77 967.58 2.9527 115.00 0.0086957 894.77 967.58 2.9527 2.4286 3.0846 274.22 0.047401 17.709 0.056673 115.00 0.0086957 894.77 967.58 2.9527 2.4286 3.0846 274.22 0.047401 17.709 0.056673
228.38 1219.1 undefined 897.20 970.29 2.9576 115.00 0.0086957 897.20 970.29 2.9576 2.4320 3.0847 274.88 0.047026 17.738 0.056837 115.00 0.0086957 897.20 970.29 2.9576 2.4320 3.0847 274.88 0.047026 17.738 0.056837
229.38 1223.7 undefined 899.63 973.00 2.9624 115.00 0.0086957 899.63 973.00 2.9624 2.4353 3.0849 275.54 0.046655 17.766 0.057001 115.00 0.0086957 899.63 973.00 2.9624 2.4353 3.0849 275.54 0.046655 17.766 0.057001
230.38 1228.4 undefined 902.07 975.71 2.9673 115.00 0.0086957 902.07 975.71 2.9673 2.4387 3.0851 276.20 0.046289 17.794 0.057166 115.00 0.0086957 902.07 975.71 2.9673 2.4387 3.0851 276.20 0.046289 17.794 0.057166
231.38 1233.0 undefined 904.51 978.43 2.9721 115.00 0.0086957 904.51 978.43 2.9721 2.4421 3.0854 276.86 0.045926 17.822 0.057331 115.00 0.0086957 904.51 978.43 2.9721 2.4421 3.0854 276.86 0.045926 17.822 0.057331
232.38 1237.7 undefined 906.95 981.15 2.9769 115.00 0.0086957 906.95 981.15 2.9769 2.4454 3.0857 277.52 0.045568 17.851 0.057496 115.00 0.0086957 906.95 981.15 2.9769 2.4454 3.0857 277.52 0.045568 17.851 0.057496
233.38 1242.3 undefined 909.40 983.88 2.9818 115.00 0.0086957 909.40 983.88 2.9818 2.4488 3.0861 278.17 0.045213 17.879 0.057662 115.00 0.0086957 909.40 983.88 2.9818 2.4488 3.0861 278.17 0.045213 17.879 0.057662
234.38 1246.9 undefined 911.85 986.61 2.9866 115.00 0.0086957 911.85 986.61 2.9866 2.4521 3.0865 278.83 0.044863 17.907 0.057828 115.00 0.0086957 911.85 986.61 2.9866 2.4521 3.0865 278.83 0.044863 17.907 0.057828
235.38 1251.6 undefined 914.30 989.34 2.9914 115.00 0.0086957 914.30 989.34 2.9914 2.4555 3.0869 279.48 0.044516 17.935 0.057994 115.00 0.0086957 914.30 989.34 2.9914 2.4555 3.0869 279.48 0.044516 17.935 0.057994
236.38 1256.2 undefined 916.76 992.07 2.9963 115.00 0.0086957 916.76 992.07 2.9963 2.4589 3.0874 280.13 0.044173 17.963 0.058161 115.00 0.0086957 916.76 992.07 2.9963 2.4589 3.0874 280.13 0.044173 17.963 0.058161
237.38 1260.8 undefined 919.22 994.81 3.0011 115.00 0.0086957 919.22 994.81 3.0011 2.4622 3.0879 280.77 0.043834 17.991 0.058328 115.00 0.0086957 919.22 994.81 3.0011 2.4622 3.0879 280.77 0.043834 17.991 0.058328
238.38 1265.5 undefined 921.68 997.55 3.0059 115.00 0.0086957 921.68 997.55 3.0059 2.4656 3.0885 281.42 0.043499 18.019 0.058495 115.00 0.0086957 921.68 997.55 3.0059 2.4656 3.0885 281.42 0.043499 18.019 0.058495
239.38 1270.1 undefined 924.15 1000.3 3.0107 115.00 0.0086957 924.15 1000.3 3.0107 2.4689 3.0891 282.07 0.043167 18.047 0.058663 115.00 0.0086957 924.15 1000.3 3.0107 2.4689 3.0891 282.07 0.043167 18.047 0.058663
240.38 1274.7 undefined 926.62 1003.0 3.0156 115.00 0.0086957 926.62 1003.0 3.0156 2.4723 3.0897 282.71 0.042839 18.075 0.058831 115.00 0.0086957 926.62 1003.0 3.0156 2.4723 3.0897 282.71 0.042839 18.075 0.058831
241.38 1279.3 undefined 929.10 1005.8 3.0204 115.00 0.0086957 929.10 1005.8 3.0204 2.4757 3.0903 283.35 0.042515 18.103 0.058999 115.00 0.0086957 929.10 1005.8 3.0204 2.4757 3.0903 283.35 0.042515 18.103 0.058999
242.38 1284.0 undefined 931.57 1008.6 3.0252 115.00 0.0086957 931.57 1008.6 3.0252 2.4790 3.0910 283.99 0.042193 18.131 0.059167 115.00 0.0086957 931.57 1008.6 3.0252 2.4790 3.0910 283.99 0.042193 18.131 0.059167
243.38 1288.6 undefined 934.05 1011.3 3.0300 115.00 0.0086957 934.05 1011.3 3.0300 2.4824 3.0918 284.63 0.041876 18.158 0.059336 115.00 0.0086957 934.05 1011.3 3.0300 2.4824 3.0918 284.63 0.041876 18.158 0.059336
244.38 1293.2 undefined 936.54 1014.1 3.0348 115.00 0.0086957 936.54 1014.1 3.0348 2.4858 3.0925 285.27 0.041561 18.186 0.059505 115.00 0.0086957 936.54 1014.1 3.0348 2.4858 3.0925 285.27 0.041561 18.186 0.059505
245.38 1297.8 undefined 939.02 1016.8 3.0396 115.00 0.0086957 939.02 1016.8 3.0396 2.4891 3.0933 285.91 0.041250 18.214 0.059675 115.00 0.0086957 939.02 1016.8 3.0396 2.4891 3.0933 285.91 0.041250 18.214 0.059675
246.38 1302.4 undefined 941.52 1019.6 3.0444 115.00 0.0086957 941.52 1019.6 3.0444 2.4925 3.0941 286.54 0.040943 18.242 0.059844 115.00 0.0086957 941.52 1019.6 3.0444 2.4925 3.0941 286.54 0.040943 18.242 0.059844
247.38 1307.1 undefined 944.01 1022.4 3.0492 115.00 0.0086957 944.01 1022.4 3.0492 2.4959 3.0950 287.17 0.040638 18.269 0.060014 115.00 0.0086957 944.01 1022.4 3.0492 2.4959 3.0950 287.17 0.040638 18.269 0.060014
248.38 1311.7 undefined 946.51 1025.1 3.0540 115.00 0.0086957 946.51 1025.1 3.0540 2.4992 3.0959 287.81 0.040337 18.297 0.060184 115.00 0.0086957 946.51 1025.1 3.0540 2.4992 3.0959 287.81 0.040337 18.297 0.060184
249.38 1316.3 undefined 949.01 1027.9 3.0588 115.00 0.0086957 949.01 1027.9 3.0588 2.5026 3.0968 288.44 0.040039 18.325 0.060355 115.00 0.0086957 949.01 1027.9 3.0588 2.5026 3.0968 288.44 0.040039 18.325 0.060355
250.38 1320.9 undefined 951.51 1030.7 3.0636 115.00 0.0086957 951.51 1030.7 3.0636 2.5060 3.0977 289.07 0.039744 18.352 0.060525 115.00 0.0086957 951.51 1030.7 3.0636 2.5060 3.0977 289.07 0.039744 18.352 0.060525
251.38 1325.5 undefined 954.02 1033.5 3.0683 115.00 0.0086957 954.02 1033.5 3.0683 2.5093 3.0987 289.69 0.039452 18.380 0.060696 115.00 0.0086957 954.02 1033.5 3.0683 2.5093 3.0987 289.69 0.039452 18.380 0.060696
252.38 1330.1 undefined 956.53 1036.3 3.0731 115.00 0.0086957 956.53 1036.3 3.0731 2.5127 3.0997 290.32 0.039163 18.407 0.060867 115.00 0.0086957 956.53 1036.3 3.0731 2.5127 3.0997 290.32 0.039163 18.407 0.060867
253.38 1334.7 undefined 959.05 1039.1 3.0779 115.00 0.0086957 959.05 1039.1 3.0779 2.5161 3.1007 290.94 0.038877 18.435 0.061039 115.00 0.0086957 959.05 1039.1 3.0779 2.5161 3.1007 290.94 0.038877 18.435 0.061039
254.38 1339.3 undefined 961.56 1041.9 3.0827 115.00 0.0086957 961.56 1041.9 3.0827 2.5194 3.1018 291.57 0.038594 18.462 0.061210 115.00 0.0086957 961.56 1041.9 3.0827 2.5194 3.1018 291.57 0.038594 18.462 0.061210
255.38 1343.9 undefined 964.08 1044.7 3.0875 115.00 0.0086957 964.08 1044.7 3.0875 2.5228 3.1029 292.19 0.038314 18.490 0.061382 115.00 0.0086957 964.08 1044.7 3.0875 2.5228 3.1029 292.19 0.038314 18.490 0.061382
256.38 1348.5 undefined 966.61 1047.5 3.0922 115.00 0.0086957 966.61 1047.5 3.0922 2.5262 3.1040 292.81 0.038037 18.517 0.061554 115.00 0.0086957 966.61 1047.5 3.0922 2.5262 3.1040 292.81 0.038037 18.517 0.061554
257.38 1353.1 undefined 969.14 1050.3 3.0970 115.00 0.0086957 969.14 1050.3 3.0970 2.5295 3.1051 293.43 0.037762 18.545 0.061727 115.00 0.0086957 969.14 1050.3 3.0970 2.5295 3.1051 293.43 0.037762 18.545 0.061727
258.38 1357.7 undefined 971.67 1053.1 3.1018 115.00 0.0086957 971.67 1053.1 3.1018 2.5329 3.1063 294.05 0.037491 18.572 0.061899 115.00 0.0086957 971.67 1053.1 3.1018 2.5329 3.1063 294.05 0.037491 18.572 0.061899
259.38 1362.3 undefined 974.20 1055.9 3.1065 115.00 0.0086957 974.20 1055.9 3.1065 2.5363 3.1075 294.66 0.037222 18.599 0.062072 115.00 0.0086957 974.20 1055.9 3.1065 2.5363 3.1075 294.66 0.037222 18.599 0.062072
260.38 1366.9 undefined 976.74 1058.7 3.1113 115.00 0.0086957 976.74 1058.7 3.1113 2.5396 3.1087 295.28 0.036956 18.627 0.062244 115.00 0.0086957 976.74 1058.7 3.1113 2.5396 3.1087 295.28 0.036956 18.627 0.062244
261.38 1371.5 undefined 979.28 1061.5 3.1161 115.00 0.0086957 979.28 1061.5 3.1161 2.5430 3.1099 295.89 0.036692 18.654 0.062417 115.00 0.0086957 979.28 1061.5 3.1161 2.5430 3.1099 295.89 0.036692 18.654 0.062417
262.38 1376.1 undefined 981.83 1064.3 3.1208 115.00 0.0086957 981.83 1064.3 3.1208 2.5463 3.1111 296.50 0.036431 18.681 0.062591 115.00 0.0086957 981.83 1064.3 3.1208 2.5463 3.1111 296.50 0.036431 18.681 0.062591
263.38 1380.7 undefined 984.37 1067.2 3.1256 115.00 0.0086957 984.37 1067.2 3.1256 2.5497 3.1124 297.12 0.036173 18.708 0.062764 115.00 0.0086957 984.37 1067.2 3.1256 2.5497 3.1124 297.12 0.036173 18.708 0.062764
264.38 1385.3 undefined 986.93 1070.0 3.1303 115.00 0.0086957 986.93 1070.0 3.1303 2.5531 3.1137 297.73 0.035917 18.735 0.062937 115.00 0.0086957 986.93 1070.0 3.1303 2.5531 3.1137 297.73 0.035917 18.735 0.062937
265.38 1389.9 undefined 989.48 1072.8 3.1351 115.00 0.0086957 989.48 1072.8 3.1351 2.5564 3.1150 298.33 0.035664 18.763 0.063111 115.00 0.0086957 989.48 1072.8 3.1351 2.5564 3.1150 298.33 0.035664 18.763 0.063111
266.38 1394.5 undefined 992.04 1075.6 3.1398 115.00 0.0086957 992.04 1075.6 3.1398 2.5598 3.1164 298.94 0.035413 18.790 0.063284 115.00 0.0086957 992.04 1075.6 3.1398 2.5598 3.1164 298.94 0.035413 18.790 0.063284
267.38 1399.1 undefined 994.60 1078.5 3.1446 115.00 0.0086957 994.60 1078.5 3.1446 2.5631 3.1177 299.55 0.035165 18.817 0.063458 115.00 0.0086957 994.60 1078.5 3.1446 2.5631 3.1177 299.55 0.035165 18.817 0.063458
268.38 1403.7 undefined 997.17 1081.3 3.1493 115.00 0.0086957 997.17 1081.3 3.1493 2.5665 3.1191 300.15 0.034919 18.844 0.063631 115.00 0.0086957 997.17 1081.3 3.1493 2.5665 3.1191 300.15 0.034919 18.844 0.063631
269.38 1408.3 undefined 999.73 1084.2 3.1540 115.00 0.0086957 999.73 1084.2 3.1540 2.5698 3.1205 300.76 0.034675 18.871 0.063805 115.00 0.0086957 999.73 1084.2 3.1540 2.5698 3.1205 300.76 0.034675 18.871 0.063805
270.38 1412.8 undefined 1002.3 1087.0 3.1588 115.00 0.0086957 1002.3 1087.0 3.1588 2.5732 3.1219 301.36 0.034434 18.898 0.063978 115.00 0.0086957 1002.3 1087.0 3.1588 2.5732 3.1219 301.36 0.034434 18.898 0.063978
271.38 1417.4 undefined 1004.9 1089.9 3.1635 115.00 0.0086957 1004.9 1089.9 3.1635 2.5765 3.1234 301.96 0.034196 18.925 0.064151 115.00 0.0086957 1004.9 1089.9 3.1635 2.5765 3.1234 301.96 0.034196 18.925 0.064151
272.38 1422.0 undefined 1007.5 1092.7 3.1682 115.00 0.0086957 1007.5 1092.7 3.1682 2.5799 3.1248 302.56 0.033959 18.952 0.064324 115.00 0.0086957 1007.5 1092.7 3.1682 2.5799 3.1248 302.56 0.033959 18.952 0.064324
273.38 1426.6 undefined 1010.0 1095.6 3.1730 115.00 0.0086957 1010.0 1095.6 3.1730 2.5832 3.1263 303.16 0.033725 18.979 0.064497 115.00 0.0086957 1010.0 1095.6 3.1730 2.5832 3.1263 303.16 0.033725 18.979 0.064497
274.38 1431.2 undefined 1012.6 1098.4 3.1777 115.00 0.0086957 1012.6 1098.4 3.1777 2.5866 3.1278 303.75 0.033493 19.005 0.064669 115.00 0.0086957 1012.6 1098.4 3.1777 2.5866 3.1278 303.75 0.033493 19.005 0.064669
275.38 1435.8 undefined 1015.2 1101.3 3.1824 115.00 0.0086957 1015.2 1101.3 3.1824 2.5899 3.1293 304.35 0.033263 19.032 0.064840 115.00 0.0086957 1015.2 1101.3 3.1824 2.5899 3.1293 304.35 0.033263 19.032 0.064840
276.38 1440.3 undefined 1017.8 1104.2 3.1871 115.00 0.0086957 1017.8 1104.2 3.1871 2.5933 3.1309 304.95 0.033036 19.059 0.065011 115.00 0.0086957 1017.8 1104.2 3.1871 2.5933 3.1309 304.95 0.033036 19.059 0.065011
277.38 1444.9 undefined 1020.4 1107.0 3.1918 115.00 0.0086957 1020.4 1107.0 3.1918 2.5966 3.1324 305.54 0.032810 19.086 0.065180 115.00 0.0086957 1020.4 1107.0 3.1918 2.5966 3.1324 305.54 0.032810 19.086 0.065180
278.38 1449.5 undefined 1023.0 1109.9 3.1966 115.00 0.0086957 1023.0 1109.9 3.1966 2.6000 3.1340 306.13 0.032587 19.112 0.065348 115.00 0.0086957 1023.0 1109.9 3.1966 2.6000 3.1340 306.13 0.032587 19.112 0.065348
279.38 1454.1 undefined 1025.6 1112.8 3.2013 115.00 0.0086957 1025.6 1112.8 3.2013 2.6033 3.1356 306.72 0.032366 19.139 0.065512 115.00 0.0086957 1025.6 1112.8 3.2013 2.6033 3.1356 306.72 0.032366 19.139 0.065512
280.38 1458.6 undefined 1028.2 1115.7 3.2060 115.00 0.0086957 1028.2 1115.7 3.2060 2.6066 3.1372 307.31 0.032147 19.166 0.065671 115.00 0.0086957 1028.2 1115.7 3.2060 2.6066 3.1372 307.31 0.032147 19.166 0.065671
281.38 1463.2 undefined 1030.8 1118.5 3.2107 115.00 0.0086957 1030.8 1118.5 3.2107 2.6100 3.1388 307.90 0.031930 19.192 0.065810 115.00 0.0086957 1030.8 1118.5 3.2107 2.6100 3.1388 307.90 0.031930 19.192 0.065810
282.38 1467.8 undefined 1033.4 1121.4 3.2154 115.00 0.0086957 1033.4 1121.4 3.2154 2.6133 3.1404 308.49 0.031715 19.219 0.065965 115.00 0.0086957 1033.4 1121.4 3.2154 2.6133 3.1404 308.49 0.031715 19.219 0.065965
283.38 1472.4 undefined 1036.0 1124.3 3.2201 115.00 0.0086957 1036.0 1124.3 3.2201 2.6166 3.1420 309.08 0.031502 19.246 0.066155 115.00 0.0086957 1036.0 1124.3 3.2201 2.6166 3.1420 309.08 0.031502 19.246 0.066155
284.38 1476.9 undefined 1038.7 1127.2 3.2248 115.00 0.0086957 1038.7 1127.2 3.2248 2.6200 3.1437 309.66 0.031291 19.272 0.066345 115.00 0.0086957 1038.7 1127.2 3.2248 2.6200 3.1437 309.66 0.031291 19.272 0.066345
285.38 1481.5 undefined 1041.3 1130.1 3.2295 115.00 0.0086957 1041.3 1130.1 3.2295 2.6233 3.1454 310.25 0.031082 19.299 0.066535 115.00 0.0086957 1041.3 1130.1 3.2295 2.6233 3.1454 310.25 0.031082 19.299 0.066535
286.38 1486.1 undefined 1043.9 1133.0 3.2342 115.00 0.0086957 1043.9 1133.0 3.2342 2.6266 3.1471 310.83 0.030875 19.325 0.066725 115.00 0.0086957 1043.9 1133.0 3.2342 2.6266 3.1471 310.83 0.030875 19.325 0.066725
287.38 1490.6 undefined 1046.5 1135.9 3.2389 115.00 0.0086957 1046.5 1135.9 3.2389 2.6299 3.1488 311.41 0.030670 19.352 0.066916 115.00 0.0086957 1046.5 1135.9 3.2389 2.6299 3.1488 311.41 0.030670 19.352 0.066916
288.38 1495.2 undefined 1049.2 1138.8 3.2436 115.00 0.0086957 1049.2 1138.8 3.2436 2.6333 3.1505 311.99 0.030466 19.378 0.067107 115.00 0.0086957 1049.2 1138.8 3.2436 2.6333 3.1505 311.99 0.030466 19.378 0.067107
289.38 1499.8 undefined 1051.8 1141.7 3.2483 115.00 0.0086957 1051.8 1141.7 3.2483 2.6366 3.1522 312.57 0.030265 19.404 0.067298 115.00 0.0086957 1051.8 1141.7 3.2483 2.6366 3.1522 312.57 0.030265 19.404 0.067298
290.38 1504.3 undefined 1054.4 1144.6 3.2529 115.00 0.0086957 1054.4 1144.6 3.2529 2.6399 3.1540 313.15 0.030065 19.431 0.067489 115.00 0.0086957 1054.4 1144.6 3.2529 2.6399 3.1540 313.15 0.030065 19.431 0.067489
291.38 1508.9 undefined 1057.1 1147.5 3.2576 115.00 0.0086957 1057.1 1147.5 3.2576 2.6432 3.1557 313.73 0.029867 19.457 0.067681 115.00 0.0086957 1057.1 1147.5 3.2576 2.6432 3.1557 313.73 0.029867 19.457 0.067681
292.38 1513.5 undefined 1059.7 1150.5 3.2623 115.00 0.0086957 1059.7 1150.5 3.2623 2.6465 3.1575 314.30 0.029671 19.483 0.067873 115.00 0.0086957 1059.7 1150.5 3.2623 2.6465 3.1575 314.30 0.029671 19.483 0.067873
293.38 1518.0 undefined 1062.4 1153.4 3.2670 115.00 0.0086957 1062.4 1153.4 3.2670 2.6498 3.1593 314.88 0.029477 19.510 0.068066 115.00 0.0086957 1062.4 1153.4 3.2670 2.6498 3.1593 314.88 0.029477 19.510 0.068066
294.38 1522.6 undefined 1065.0 1156.3 3.2717 115.00 0.0086957 1065.0 1156.3 3.2717 2.6532 3.1611 315.45 0.029284 19.536 0.068258 115.00 0.0086957 1065.0 1156.3 3.2717 2.6532 3.1611 315.45 0.029284 19.536 0.068258
295.38 1527.1 undefined 1067.7 1159.2 3.2763 115.00 0.0086957 1067.7 1159.2 3.2763 2.6565 3.1629 316.03 0.029093 19.562 0.068451 115.00 0.0086957 1067.7 1159.2 3.2763 2.6565 3.1629 316.03 0.029093 19.562 0.068451
296.38 1531.7 undefined 1070.3 1162.2 3.2810 115.00 0.0086957 1070.3 1162.2 3.2810 2.6598 3.1647 316.60 0.028904 19.588 0.068645 115.00 0.0086957 1070.3 1162.2 3.2810 2.6598 3.1647 316.60 0.028904 19.588 0.068645
297.38 1536.3 undefined 1073.0 1165.1 3.2857 115.00 0.0086957 1073.0 1165.1 3.2857 2.6631 3.1665 317.17 0.028717 19.615 0.068838 115.00 0.0086957 1073.0 1165.1 3.2857 2.6631 3.1665 317.17 0.028717 19.615 0.068838
298.38 1540.8 undefined 1075.7 1168.0 3.2903 115.00 0.0086957 1075.7 1168.0 3.2903 2.6664 3.1684 317.74 0.028531 19.641 0.069032 115.00 0.0086957 1075.7 1168.0 3.2903 2.6664 3.1684 317.74 0.028531 19.641 0.069032
299.38 1545.4 undefined 1078.3 1171.0 3.2950 115.00 0.0086957 1078.3 1171.0 3.2950 2.6697 3.1702 318.31 0.028347 19.667 0.069226 115.00 0.0086957 1078.3 1171.0 3.2950 2.6697 3.1702 318.31 0.028347 19.667 0.069226
300.38 1549.9 undefined 1081.0 1173.9 3.2997 115.00 0.0086957 1081.0 1173.9 3.2997 2.6730 3.1721 318.87 0.028164 19.693 0.069421 115.00 0.0086957 1081.0 1173.9 3.2997 2.6730 3.1721 318.87 0.028164 19.693 0.069421