Temperature (C) Pressure (psia) Quality (l+v) Internal Energy (l+v, kJ/kg) Enthalpy (l+v, kJ/kg) Entropy (l+v, J/g*K) Density (l, kg/m3) Volume (l, m3/kg) Internal Energy (l, kJ/kg) Enthalpy (l, kJ/kg) Entropy (l, J/g*K) Cv (l, J/g*K) Cp (l, J/g*K) Sound Spd. (l, m/s) Joule-Thomson (l, F/psia) Viscosity (l, uPa*s) Therm. Cond. (l, W/m*K) Density (v, kg/m3) Volume (v, m3/kg) Internal Energy (v, kJ/kg) Enthalpy (v, kJ/kg) Entropy (v, J/g*K) Cv (v, J/g*K) Cp (v, J/g*K) Sound Spd. (v, m/s) Joule-Thomson (v, F/psia) Viscosity (v, uPa*s) Therm. Cond. (v, W/m*K)
-187.62 2.4953e-08 6.9670e-10 -196.64 -196.64 -1.3959 733.13 0.0013640 -196.64 -196.64 -1.3959 1.3553 1.9158 2136.4 -0.0077592 10960. 0.20792 1.0669e-08 9.3732e+07 350.13 366.26 5.1858 0.69067 0.87923 143.28 6.1051 2.3259 0.0017061
-186.62 3.7339e-08 1.0304e-09 -194.73 -194.73 -1.3736 732.08 0.0013660 -194.73 -194.73 -1.3736 1.3539 1.9166 2129.6 -0.0077546 10073. 0.20765 1.5780e-08 6.3371e+07 350.82 367.14 5.1200 0.69462 0.88317 144.03 5.9178 2.3534 0.0017533
-185.62 5.5322e-08 1.5092e-09 -192.81 -192.81 -1.3516 731.04 0.0013679 -192.81 -192.81 -1.3516 1.3525 1.9174 2122.9 -0.0077498 9276.1 0.20737 2.3112e-08 4.3267e+07 351.52 368.02 5.0561 0.69857 0.88713 144.77 5.7383 2.3808 0.0018007
-184.62 8.1182e-08 2.1896e-09 -190.89 -190.89 -1.3298 730.00 0.0013699 -190.89 -190.89 -1.3298 1.3513 1.9182 2116.1 -0.0077448 8557.8 0.20708 3.3533e-08 2.9821e+07 352.22 368.91 4.9939 0.70253 0.89108 145.51 5.5662 2.4083 0.0018485
-183.62 1.1803e-07 3.1479e-09 -188.97 -188.97 -1.3083 728.96 0.0013718 -188.97 -188.97 -1.3083 1.3501 1.9191 2109.3 -0.0077395 7909.8 0.20678 4.8211e-08 2.0742e+07 352.92 369.81 4.9333 0.70648 0.89504 146.24 5.4011 2.4357 0.0018965
-182.62 1.7009e-07 4.4859e-09 -187.05 -187.05 -1.2869 727.92 0.0013738 -187.05 -187.05 -1.2869 1.3490 1.9201 2102.5 -0.0077340 7324.3 0.20647 6.8704e-08 1.4555e+07 353.63 370.70 4.8744 0.71043 0.89899 146.97 5.2426 2.4632 0.0019448
-181.62 2.4299e-07 6.3384e-09 -185.13 -185.13 -1.2658 726.88 0.0013757 -185.13 -185.13 -1.2658 1.3480 1.9210 2095.7 -0.0077283 6794.5 0.20616 9.7079e-08 1.0301e+07 354.35 371.60 4.8170 0.71438 0.90294 147.69 5.0904 2.4906 0.0019934
-180.62 3.4425e-07 8.8824e-09 -183.21 -183.21 -1.2450 725.85 0.0013777 -183.21 -183.21 -1.2450 1.3470 1.9220 2088.9 -0.0077225 6314.4 0.20584 1.3605e-07 7.3504e+06 355.06 372.51 4.7612 0.71833 0.90688 148.41 4.9442 2.5181 0.0020423
-179.62 4.8378e-07 1.2349e-08 -181.29 -181.29 -1.2243 724.81 0.0013797 -181.29 -181.29 -1.2243 1.3461 1.9231 2082.0 -0.0077164 5878.8 0.20551 1.8915e-07 5.2868e+06 355.78 373.42 4.7068 0.72227 0.91082 149.13 4.8038 2.5456 0.0020915
-178.62 6.7459e-07 1.7037e-08 -179.37 -179.37 -1.2038 723.78 0.0013816 -179.37 -179.37 -1.2038 1.3453 1.9241 2075.2 -0.0077102 5482.9 0.20517 2.6096e-07 3.8320e+06 356.51 374.33 4.6538 0.72620 0.91475 149.84 4.6688 2.5731 0.0021410
-177.62 9.3358e-07 2.3330e-08 -177.44 -177.44 -1.1836 722.75 0.0013836 -177.44 -177.44 -1.1836 1.3445 1.9252 2068.4 -0.0077039 5122.6 0.20483 3.5737e-07 2.7982e+06 357.23 375.25 4.6022 0.73012 0.91867 150.54 4.5390 2.6005 0.0021907
-176.62 1.2826e-06 3.1719e-08 -175.52 -175.52 -1.1635 721.72 0.0013856 -175.52 -175.52 -1.1635 1.3437 1.9263 2061.5 -0.0076973 4794.1 0.20447 4.8588e-07 2.0581e+06 357.97 376.17 4.5519 0.73403 0.92258 151.25 4.4142 2.6280 0.0022408
-175.62 1.7496e-06 4.2824e-08 -173.59 -173.59 -1.1437 720.69 0.0013876 -173.59 -173.59 -1.1437 1.3430 1.9274 2054.7 -0.0076907 4494.3 0.20411 6.5601e-07 1.5244e+06 358.70 377.09 4.5029 0.73792 0.92648 151.95 4.2941 2.6555 0.0022912
-174.62 2.3705e-06 5.7428e-08 -171.66 -171.66 -1.1240 719.66 0.0013895 -171.66 -171.66 -1.1240 1.3423 1.9286 2047.9 -0.0076838 4220.2 0.20375 8.7976e-07 1.1367e+06 359.44 378.02 4.4551 0.74181 0.93036 152.64 4.1784 2.6830 0.0023418
-173.62 3.1903e-06 7.6511e-08 -169.73 -169.73 -1.1045 718.64 0.0013915 -169.73 -169.73 -1.1045 1.3417 1.9298 2041.0 -0.0076769 3969.3 0.20338 1.1721e-06 8.5314e+05 360.19 378.95 4.4085 0.74568 0.93423 153.33 4.0671 2.7105 0.0023928
-172.62 4.2661e-06 1.0129e-07 -167.80 -167.80 -1.0852 717.61 0.0013935 -167.80 -167.80 -1.0852 1.3411 1.9310 2034.2 -0.0076698 3739.3 0.20300 1.5518e-06 6.4441e+05 360.93 379.89 4.3631 0.74953 0.93809 154.02 3.9599 2.7379 0.0024440
-171.62 5.6692e-06 1.3328e-07 -165.87 -165.87 -1.0661 716.58 0.0013955 -165.87 -165.87 -1.0661 1.3405 1.9322 2027.3 -0.0076625 3528.0 0.20261 2.0419e-06 4.8974e+05 361.69 380.83 4.3188 0.75337 0.94193 154.71 3.8566 2.7654 0.0024955
-170.62 7.4884e-06 1.7432e-07 -163.94 -163.94 -1.0472 715.56 0.0013975 -163.94 -163.94 -1.0472 1.3400 1.9334 2020.5 -0.0076552 3333.8 0.20222 2.6708e-06 3.7442e+05 362.44 381.77 4.2755 0.75720 0.94575 155.39 3.7570 2.7929 0.0025473
-169.62 9.8334e-06 2.2669e-07 -162.00 -162.00 -1.0284 714.54 0.0013995 -162.00 -162.00 -1.0284 1.3395 1.9347 2013.6 -0.0076477 3154.9 0.20182 3.4733e-06 2.8791e+05 363.20 382.72 4.2334 0.76100 0.94956 156.07 3.6609 2.8204 0.0025994
-168.62 1.2839e-05 2.9315e-07 -160.07 -160.07 -1.0098 713.52 0.0014015 -160.07 -160.07 -1.0098 1.3390 1.9359 2006.8 -0.0076401 2989.9 0.20141 4.4917e-06 2.2263e+05 363.96 383.67 4.1922 0.76479 0.95335 156.74 3.5683 2.8479 0.0026518
-167.62 1.6672e-05 3.7703e-07 -158.13 -158.13 -0.99134 712.49 0.0014035 -158.13 -158.13 -0.99134 1.3386 1.9372 2000.0 -0.0076323 2837.5 0.20100 5.7771e-06 1.7310e+05 364.73 384.63 4.1521 0.76856 0.95712 157.41 3.4790 2.8754 0.0027045
-166.62 2.1533e-05 4.8237e-07 -156.19 -156.19 -0.97306 711.47 0.0014055 -156.19 -156.19 -0.97306 1.3382 1.9385 1993.1 -0.0076245 2696.5 0.20058 7.3914e-06 1.3529e+05 365.50 385.59 4.1129 0.77232 0.96087 158.08 3.3927 2.9029 0.0027575
-165.62 2.7666e-05 6.1398e-07 -154.25 -154.25 -0.95494 710.45 0.0014075 -154.25 -154.25 -0.95494 1.3378 1.9398 1986.3 -0.0076165 2566.0 0.20016 9.4084e-06 1.0629e+05 366.27 386.55 4.0746 0.77605 0.96460 158.75 3.3095 2.9304 0.0028108
-164.62 3.5367e-05 7.7763e-07 -152.31 -152.31 -0.93698 709.44 0.0014096 -152.31 -152.31 -0.93698 1.3375 1.9411 1979.4 -0.0076084 2444.9 0.19973 1.1916e-05 83918. 367.05 387.52 4.0372 0.77976 0.96832 159.41 3.2291 2.9579 0.0028643
-163.62 4.4989e-05 9.8014e-07 -150.37 -150.37 -0.91917 708.42 0.0014116 -150.37 -150.37 -0.91917 1.3371 1.9424 1972.6 -0.0076002 2332.3 0.19930 1.5020e-05 66577. 367.83 388.49 4.0008 0.78346 0.97201 160.07 3.1514 2.9854 0.0029182
-162.62 5.6956e-05 1.2296e-06 -148.43 -148.43 -0.90150 707.40 0.0014136 -148.43 -148.43 -0.90151 1.3368 1.9437 1965.8 -0.0075919 2227.7 0.19886 1.8844e-05 53068. 368.62 389.46 3.9651 0.78713 0.97569 160.72 3.0764 3.0129 0.0029723
-161.62 7.1773e-05 1.5355e-06 -146.48 -146.48 -0.88399 706.38 0.0014157 -146.48 -146.48 -0.88400 1.3365 1.9451 1959.0 -0.0075834 2130.2 0.19841 2.3533e-05 42494. 369.41 390.44 3.9304 0.79079 0.97935 161.38 3.0038 3.0404 0.0030268
-160.62 9.0036e-05 1.9091e-06 -144.54 -144.54 -0.86662 705.37 0.0014177 -144.54 -144.54 -0.86663 1.3363 1.9465 1952.1 -0.0075748 2039.2 0.19796 2.9258e-05 34178. 370.20 391.42 3.8964 0.79443 0.98298 162.03 2.9337 3.0679 0.0030815
-159.62 0.00011245 2.3633e-06 -142.59 -142.59 -0.84939 704.35 0.0014197 -142.59 -142.59 -0.84940 1.3360 1.9478 1945.3 -0.0075661 1954.2 0.19751 3.6221e-05 27609. 371.00 392.40 3.8632 0.79805 0.98660 162.68 2.8658 3.0955 0.0031365
-158.62 0.00013985 2.9133e-06 -140.64 -140.64 -0.83230 703.34 0.0014218 -140.64 -140.64 -0.83231 1.3358 1.9492 1938.5 -0.0075573 1874.8 0.19705 4.4652e-05 22395. 371.80 393.39 3.8307 0.80164 0.99020 163.32 2.8002 3.1230 0.0031918
-157.62 0.00017320 3.5767e-06 -138.69 -138.69 -0.81534 702.32 0.0014238 -138.69 -138.69 -0.81536 1.3356 1.9506 1931.7 -0.0075484 1800.3 0.19658 5.4822e-05 18241. 372.60 394.38 3.7990 0.80522 0.99378 163.96 2.7367 3.1505 0.0032474
-156.62 0.00021364 4.3738e-06 -136.74 -136.74 -0.79852 701.31 0.0014259 -136.74 -136.74 -0.79854 1.3354 1.9520 1924.9 -0.0075393 1730.5 0.19611 6.7040e-05 14916. 373.41 395.38 3.7680 0.80878 0.99734 164.60 2.6752 3.1780 0.0033033
-155.62 0.00026248 5.3278e-06 -134.79 -134.79 -0.78183 700.30 0.0014280 -134.79 -134.79 -0.78185 1.3352 1.9534 1918.1 -0.0075302 1664.9 0.19564 8.1666e-05 12245. 374.22 396.38 3.7377 0.81232 1.0009 165.24 2.6157 3.2055 0.0033595
-154.62 0.00032125 6.4656e-06 -132.83 -132.83 -0.76527 699.29 0.0014300 -132.83 -132.83 -0.76530 1.3350 1.9548 1911.3 -0.0075209 1603.3 0.19516 9.9109e-05 10090. 375.03 397.38 3.7081 0.81585 1.0044 165.87 2.5580 3.2330 0.0034160
-153.62 0.00039171 7.8176e-06 -130.87 -130.87 -0.74883 698.27 0.0014321 -130.88 -130.88 -0.74887 1.3349 1.9563 1904.5 -0.0075114 1545.3 0.19468 0.00011984 8344.6 375.85 398.39 3.6792 0.81935 1.0079 166.50 2.5022 3.2606 0.0034727
-152.62 0.00047590 9.4186e-06 -128.92 -128.92 -0.73252 697.26 0.0014342 -128.92 -128.92 -0.73256 1.3348 1.9577 1897.8 -0.0075019 1490.6 0.19419 0.00014439 6925.9 376.67 399.40 3.6509 0.82284 1.0114 167.13 2.4481 3.2881 0.0035298
-151.62 0.00057613 1.1308e-05 -126.96 -126.96 -0.71633 696.25 0.0014363 -126.96 -126.96 -0.71638 1.3346 1.9592 1891.0 -0.0074922 1438.9 0.19370 0.00017336 5768.4 377.49 400.41 3.6232 0.82631 1.0149 167.76 2.3957 3.3156 0.0035872
-150.62 0.00069507 1.3531e-05 -125.00 -125.00 -0.70026 695.24 0.0014384 -125.00 -125.00 -0.70032 1.3345 1.9606 1884.2 -0.0074824 1390.2 0.19320 0.00020744 4820.7 378.32 401.42 3.5962 0.82976 1.0183 168.38 2.3448 3.3431 0.0036448
-149.62 0.00083574 1.6137e-05 -123.03 -123.03 -0.68431 694.23 0.0014404 -123.04 -123.04 -0.68438 1.3345 1.9621 1877.4 -0.0074724 1344.0 0.19270 0.00024740 4042.0 379.15 402.44 3.5697 0.83319 1.0218 169.00 2.2956 3.3706 0.0037027
-148.62 0.0010016 1.9184e-05 -121.07 -121.07 -0.66847 693.22 0.0014425 -121.08 -121.08 -0.66855 1.3344 1.9636 1870.7 -0.0074623 1300.3 0.19220 0.00029412 3400.0 379.99 403.47 3.5438 0.83661 1.0252 169.62 2.2478 3.3982 0.0037610
-147.62 0.0011965 2.2734e-05 -119.10 -119.10 -0.65274 692.21 0.0014447 -119.11 -119.11 -0.65284 1.3343 1.9651 1863.9 -0.0074521 1258.9 0.19169 0.00034856 2869.0 380.83 404.49 3.5185 0.84001 1.0286 170.24 2.2014 3.4257 0.0038195
-146.62 0.0014249 2.6858e-05 -117.14 -117.13 -0.63713 691.20 0.0014468 -117.15 -117.15 -0.63724 1.3343 1.9666 1857.2 -0.0074417 1219.6 0.19117 0.00041181 2428.3 381.67 405.52 3.4938 0.84340 1.0320 170.85 2.1565 3.4532 0.0038783
-145.62 0.0016917 3.1637e-05 -115.17 -115.17 -0.62162 690.19 0.0014489 -115.18 -115.18 -0.62175 1.3343 1.9682 1850.4 -0.0074312 1182.3 0.19066 0.00048510 2061.4 382.51 406.56 3.4695 0.84677 1.0353 171.46 2.1128 3.4807 0.0039374
-144.62 0.0020026 3.7157e-05 -113.19 -113.19 -0.60622 689.18 0.0014510 -113.21 -113.21 -0.60637 1.3343 1.9697 1843.7 -0.0074206 1146.8 0.19014 0.00056976 1755.1 383.36 407.59 3.4458 0.85012 1.0387 172.07 2.0705 3.5082 0.0039967
-143.62 0.0023637 4.3518e-05 -111.22 -111.22 -0.59092 688.17 0.0014531 -111.24 -111.24 -0.59110 1.3343 1.9713 1836.9 -0.0074098 1113.0 0.18962 0.00066731 1498.6 384.21 408.63 3.4226 0.85346 1.0420 172.68 2.0294 3.5358 0.0040564
-142.62 0.0027820 5.0825e-05 -109.25 -109.24 -0.57573 687.16 0.0014553 -109.27 -109.27 -0.57593 1.3343 1.9728 1830.2 -0.0073988 1080.8 0.18909 0.00077939 1283.1 385.07 409.68 3.3999 0.85679 1.0454 173.28 1.9896 3.5633 0.0041164
-141.62 0.0032653 5.9200e-05 -107.27 -107.27 -0.56064 686.15 0.0014574 -107.30 -107.30 -0.56087 1.3343 1.9744 1823.5 -0.0073878 1050.1 0.18856 0.00090784 1101.5 385.93 410.72 3.3777 0.86011 1.0487 173.88 1.9508 3.5908 0.0041766
-140.62 0.0038222 6.8772e-05 -105.29 -105.29 -0.54564 685.14 0.0014596 -105.32 -105.32 -0.54591 1.3344 1.9760 1816.7 -0.0073765 1020.7 0.18803 0.0010547 948.16 386.79 411.77 3.3560 0.86341 1.0520 174.48 1.9133 3.6183 0.0042372
-139.62 0.0044623 7.9687e-05 -103.31 -103.30 -0.53074 684.13 0.0014617 -103.34 -103.34 -0.53105 1.3344 1.9776 1810.0 -0.0073651 992.74 0.18749 0.0012221 818.26 387.65 412.83 3.3347 0.86670 1.0553 175.08 1.8768 3.6459 0.0042980
-138.62 0.0051963 9.2102e-05 -101.32 -101.32 -0.51593 683.12 0.0014639 -101.37 -101.37 -0.51629 1.3345 1.9792 1803.3 -0.0073536 965.97 0.18695 0.0014125 707.94 388.52 413.88 3.3139 0.86998 1.0586 175.67 1.8413 3.6734 0.0043592
-137.62 0.0060358 0.00010619 -99.334 -99.331 -0.50122 682.11 0.0014660 -99.386 -99.386 -0.50162 1.3346 1.9808 1796.6 -0.0073419 940.35 0.18641 0.0016287 614.00 389.39 414.94 3.2935 0.87325 1.0619 176.26 1.8069 3.7009 0.0044206
-136.62 0.0069938 0.00012214 -97.345 -97.342 -0.48659 681.10 0.0014682 -97.404 -97.404 -0.48705 1.3347 1.9825 1789.9 -0.0073301 915.81 0.18586 0.0018733 533.80 390.26 416.00 3.2735 0.87650 1.0651 176.85 1.7734 3.7284 0.0044823
-135.62 0.0080843 0.00014016 -95.353 -95.349 -0.47206 680.09 0.0014704 -95.421 -95.421 -0.47258 1.3348 1.9841 1783.2 -0.0073180 892.30 0.18531 0.0021497 465.17 391.14 417.07 3.2540 0.87975 1.0684 177.44 1.7409 3.7559 0.0045443
-134.62 0.0093230 0.00016046 -93.358 -93.354 -0.45761 679.08 0.0014726 -93.436 -93.436 -0.45820 1.3350 1.9858 1776.5 -0.0073059 869.75 0.18476 0.0024613 406.30 392.02 418.14 3.2348 0.88299 1.0716 178.02 1.7093 3.7834 0.0046066
-133.62 0.010727 0.00018330 -91.361 -91.356 -0.44324 678.07 0.0014748 -91.450 -91.449 -0.44391 1.3351 1.9875 1769.8 -0.0072935 848.11 0.18421 0.0028116 355.67 392.91 419.21 3.2161 0.88622 1.0749 178.61 1.6786 3.8109 0.0046691
-132.62 0.012315 0.00020892 -89.360 -89.355 -0.42895 677.06 0.0014770 -89.461 -89.461 -0.42971 1.3353 1.9892 1763.1 -0.0072810 827.32 0.18365 0.0032049 312.03 393.79 420.29 3.1977 0.88944 1.0781 179.19 1.6488 3.8385 0.0047320
-131.62 0.014106 0.00023763 -87.357 -87.350 -0.41474 676.04 0.0014792 -87.471 -87.471 -0.41560 1.3354 1.9909 1756.4 -0.0072684 807.34 0.18309 0.0036453 274.33 394.68 421.36 3.1798 0.89266 1.0813 179.76 1.6197 3.8660 0.0047951
-130.62 0.016124 0.00026971 -85.350 -85.342 -0.40061 675.03 0.0014814 -85.479 -85.479 -0.40157 1.3356 1.9926 1749.7 -0.0072555 788.12 0.18253 0.0041375 241.69 395.58 422.44 3.1622 0.89586 1.0846 180.34 1.5915 3.8935 0.0048586
-129.62 0.018392 0.00030549 -83.339 -83.331 -0.38656 674.02 0.0014836 -83.486 -83.486 -0.38763 1.3358 1.9944 1743.0 -0.0072425 769.63 0.18196 0.0046867 213.37 396.47 423.53 3.1450 0.89906 1.0878 180.91 1.5641 3.9210 0.0049223
-128.62 0.020935 0.00034534 -81.325 -81.316 -0.37257 673.01 0.0014859 -81.491 -81.490 -0.37378 1.3360 1.9961 1736.3 -0.0072294 751.83 0.18140 0.0052981 188.75 397.37 424.62 3.1281 0.90226 1.0910 181.48 1.5374 3.9485 0.0049863
-127.62 0.023783 0.00038961 -79.307 -79.297 -0.35866 672.00 0.0014881 -79.494 -79.493 -0.36001 1.3363 1.9979 1729.6 -0.0072160 734.67 0.18083 0.0059776 167.29 398.27 425.71 3.1116 0.90545 1.0942 182.05 1.5114 3.9760 0.0050506
-126.62 0.026966 0.00043873 -77.286 -77.273 -0.34481 670.98 0.0014904 -77.495 -77.495 -0.34632 1.3365 1.9997 1722.9 -0.0072025 718.14 0.18025 0.0067313 148.56 399.18 426.80 3.0954 0.90863 1.0974 182.62 1.4861 4.0035 0.0051152
-125.62 0.030515 0.00049311 -75.260 -75.246 -0.33103 669.97 0.0014926 -75.494 -75.494 -0.33272 1.3368 2.0015 1716.2 -0.0071888 702.18 0.17968 0.0075660 132.17 400.09 427.89 3.0795 0.91181 1.1006 183.18 1.4615 4.0310 0.0051800
-124.62 0.034467 0.00055322 -73.229 -73.214 -0.31732 668.95 0.0014949 -73.492 -73.492 -0.31919 1.3371 2.0033 1709.5 -0.0071749 686.79 0.17910 0.0084885 117.81 401.00 428.99 3.0640 0.91499 1.1038 183.74 1.4375 4.0584 0.0052452
-123.62 0.038859 0.00061954 -71.194 -71.177 -0.30366 667.94 0.0014971 -71.488 -71.487 -0.30574 1.3374 2.0051 1702.8 -0.0071609 671.93 0.17852 0.0095065 105.19 401.91 430.10 3.0488 0.91816 1.1070 184.30 1.4141 4.0859 0.0053106
-122.62 0.043731 0.00069260 -69.154 -69.134 -0.29006 666.92 0.0014994 -69.482 -69.481 -0.29237 1.3377 2.0070 1696.2 -0.0071466 657.57 0.17794 0.010628 94.092 402.83 431.20 3.0339 0.92134 1.1102 184.86 1.3913 4.1134 0.0053764
-121.62 0.049128 0.00077295 -67.109 -67.087 -0.27652 665.91 0.0015017 -67.474 -67.473 -0.27907 1.3380 2.0089 1689.5 -0.0071322 643.70 0.17736 0.011861 84.309 403.75 432.31 3.0193 0.92451 1.1134 185.41 1.3691 4.1409 0.0054424
-120.62 0.055096 0.00086117 -65.059 -65.034 -0.26304 664.89 0.0015040 -65.464 -65.463 -0.26585 1.3384 2.0107 1682.8 -0.0071176 630.28 0.17678 0.013215 75.669 404.67 433.42 3.0050 0.92767 1.1166 185.96 1.3475 4.1683 0.0055087
-119.62 0.061684 0.00095788 -63.003 -62.975 -0.24960 663.87 0.0015063 -63.452 -63.452 -0.25271 1.3387 2.0126 1676.1 -0.0071028 617.30 0.17619 0.014700 68.027 405.60 434.53 2.9909 0.93084 1.1198 186.51 1.3264 4.1958 0.0055752
-118.62 0.068946 0.0010637 -60.941 -60.909 -0.23621 662.86 0.0015086 -61.439 -61.438 -0.23963 1.3391 2.0146 1669.4 -0.0070878 604.74 0.17560 0.016325 61.255 406.53 435.64 2.9772 0.93401 1.1231 187.06 1.3058 4.2233 0.0056421
-117.62 0.076937 0.0011794 -58.872 -58.837 -0.22287 661.84 0.0015109 -59.423 -59.422 -0.22663 1.3395 2.0165 1662.8 -0.0070726 592.58 0.17501 0.018101 55.245 407.46 436.76 2.9638 0.93718 1.1263 187.60 1.2857 4.2507 0.0057092
-116.62 0.085718 0.0013057 -56.798 -56.758 -0.20957 660.82 0.0015133 -57.406 -57.405 -0.21370 1.3400 2.0184 1656.1 -0.0070573 580.80 0.17442 0.020040 49.901 408.39 437.88 2.9506 0.94035 1.1295 188.14 1.2660 4.2782 0.0057767
-115.62 0.095353 0.0014433 -54.716 -54.672 -0.19631 659.80 0.0015156 -55.386 -55.385 -0.20084 1.3404 2.0204 1649.4 -0.0070417 569.38 0.17383 0.022152 45.142 409.33 439.01 2.9377 0.94352 1.1327 188.68 1.2468 4.3056 0.0058444
-114.62 0.10591 0.0015930 -52.626 -52.578 -0.18309 658.78 0.0015180 -53.365 -53.364 -0.18805 1.3409 2.0224 1642.7 -0.0070260 558.32 0.17323 0.024451 40.898 410.27 440.13 2.9250 0.94669 1.1360 189.22 1.2281 4.3330 0.0059123
-113.62 0.11746 0.0017557 -50.529 -50.475 -0.16990 657.76 0.0015203 -51.342 -51.340 -0.17533 1.3413 2.0244 1636.0 -0.0070100 547.59 0.17264 0.026949 37.107 411.21 441.26 2.9126 0.94987 1.1392 189.75 1.2097 4.3604 0.0059806
-112.62 0.13008 0.0019323 -48.424 -48.365 -0.15675 656.73 0.0015227 -49.316 -49.315 -0.16267 1.3418 2.0264 1629.3 -0.0069938 537.18 0.17204 0.029661 33.715 412.16 442.39 2.9005 0.95305 1.1424 190.28 1.1918 4.3879 0.0060491
-111.62 0.14384 0.0021237 -46.311 -46.245 -0.14363 655.71 0.0015251 -47.289 -47.287 -0.15008 1.3424 2.0285 1622.7 -0.0069774 527.08 0.17144 0.032600 30.675 413.10 443.53 2.8885 0.95623 1.1457 190.81 1.1742 4.4153 0.0061180
-110.62 0.15884 0.0023308 -44.189 -44.116 -0.13053 654.69 0.0015274 -45.259 -45.258 -0.13755 1.3429 2.0305 1616.0 -0.0069609 517.28 0.17084 0.035781 27.948 414.06 444.66 2.8769 0.95942 1.1490 191.34 1.1570 4.4427 0.0061871
-109.62 0.17516 0.0025548 -42.057 -41.977 -0.11745 653.66 0.0015298 -43.228 -43.226 -0.12509 1.3435 2.0326 1609.3 -0.0069441 507.76 0.17024 0.039220 25.497 415.01 445.80 2.8654 0.96261 1.1522 191.86 1.1402 4.4701 0.0062564
-108.62 0.19290 0.0027966 -39.916 -39.827 -0.10440 652.64 0.0015322 -41.194 -41.192 -0.11269 1.3441 2.0347 1602.6 -0.0069271 498.51 0.16964 0.042933 23.292 415.96 446.94 2.8542 0.96581 1.1555 192.38 1.1236 4.4974 0.0063261
-107.62 0.21215 0.0030573 -37.764 -37.666 -0.091357 651.61 0.0015347 -39.158 -39.156 -0.10036 1.3447 2.0369 1595.9 -0.0069098 489.52 0.16903 0.046937 21.305 416.92 448.09 2.8433 0.96901 1.1588 192.90 1.1075 4.5248 0.0063960
-106.62 0.23301 0.0033382 -35.602 -35.494 -0.078333 650.58 0.0015371 -37.120 -37.118 -0.088082 1.3453 2.0390 1589.2 -0.0068924 480.79 0.16843 0.051250 19.512 417.88 449.23 2.8325 0.97222 1.1621 193.41 1.0916 4.5522 0.0064662
-105.62 0.25561 0.0036403 -33.428 -33.311 -0.065319 649.55 0.0015395 -35.080 -35.078 -0.075868 1.3460 2.0412 1582.6 -0.0068747 472.30 0.16782 0.055891 17.892 418.85 450.38 2.8220 0.97544 1.1655 193.93 1.0760 4.5795 0.0065367
-104.62 0.28004 0.0039650 -31.243 -31.114 -0.052314 648.52 0.0015420 -33.038 -33.035 -0.063714 1.3467 2.0434 1575.9 -0.0068569 464.04 0.16721 0.060878 16.426 419.81 451.53 2.8116 0.97867 1.1688 194.44 1.0608 4.6069 0.0066074
-103.62 0.30643 0.0043136 -29.045 -28.904 -0.039312 647.49 0.0015444 -30.994 -30.991 -0.051619 1.3474 2.0456 1569.2 -0.0068387 456.00 0.16660 0.066231 15.099 420.78 452.68 2.8015 0.98191 1.1722 194.94 1.0458 4.6342 0.0066785
-102.62 0.33490 0.0046873 -26.835 -26.681 -0.026311 646.46 0.0015469 -28.947 -28.944 -0.039582 1.3481 2.0478 1562.5 -0.0068204 448.18 0.16600 0.071971 13.894 421.75 453.84 2.7916 0.98516 1.1755 195.44 1.0310 4.6615 0.0067498
-101.62 0.36558 0.0050876 -24.611 -24.443 -0.013308 645.43 0.0015494 -26.898 -26.894 -0.027602 1.3489 2.0501 1555.8 -0.0068018 440.57 0.16539 0.078120 12.801 422.73 454.99 2.7818 0.98841 1.1789 195.95 1.0166 4.6888 0.0068213
-100.62 0.39862 0.0055159 -22.373 -22.190 -0.00030001 644.39 0.0015519 -24.847 -24.843 -0.015678 1.3497 2.0524 1549.1 -0.0067830 433.16 0.16478 0.084699 11.807 423.70 456.15 2.7723 0.99168 1.1823 196.44 1.0024 4.7161 0.0068932
-99.625 0.43414 0.0059737 -20.121 -19.921 0.012717 643.36 0.0015544 -22.794 -22.789 -0.0038103 1.3505 2.0547 1542.4 -0.0067639 425.95 0.16416 0.091731 10.901 424.68 457.31 2.7630 0.99496 1.1858 196.94 0.98838 4.7434 0.0069653
-98.625 0.47230 0.0064625 -17.853 -17.636 0.025747 642.32 0.0015569 -20.738 -20.733 0.0080027 1.3514 2.0570 1535.7 -0.0067447 418.92 0.16355 0.099240 10.077 425.66 458.48 2.7538 0.99825 1.1892 197.43 0.97464 4.7707 0.0070377
-97.625 0.51325 0.0069840 -15.570 -15.334 0.038793 641.28 0.0015594 -18.680 -18.674 0.019762 1.3522 2.0594 1529.0 -0.0067251 412.07 0.16294 0.10725 9.3239 426.65 459.64 2.7448 1.0016 1.1927 197.92 0.96112 4.7979 0.0071103
-96.625 0.55714 0.0075397 -13.270 -13.014 0.051859 640.24 0.0015619 -16.620 -16.614 0.031467 1.3531 2.0618 1522.3 -0.0067053 405.39 0.16233 0.11579 8.6365 427.63 460.81 2.7360 1.0049 1.1962 198.40 0.94783 4.8251 0.0071832
-95.625 0.60416 0.0081314 -10.953 -10.675 0.064947 639.20 0.0015645 -14.557 -14.550 0.043120 1.3540 2.0642 1515.7 -0.0066853 398.88 0.16171 0.12488 8.0078 428.62 461.98 2.7274 1.0082 1.1997 198.88 0.93475 4.8524 0.0072564
-94.625 0.65446 0.0087608 -8.6182 -8.3174 0.078062 638.16 0.0015670 -12.491 -12.484 0.054721 1.3550 2.0667 1509.0 -0.0066650 392.53 0.16110 0.13455 7.4323 429.61 463.15 2.7189 1.0116 1.2032 199.36 0.92188 4.8796 0.0073299
-93.625 0.70822 0.0094297 -6.2650 -5.9394 0.091207 637.12 0.0015696 -10.424 -10.416 0.066271 1.3560 2.0691 1502.3 -0.0066444 386.34 0.16048 0.14482 6.9050 430.60 464.32 2.7107 1.0149 1.2068 199.83 0.90921 4.9068 0.0074036
-92.625 0.76564 0.010140 -3.8925 -3.5405 0.10439 636.07 0.0015722 -8.3535 -8.3452 0.077771 1.3570 2.0716 1495.6 -0.0066236 380.31 0.15987 0.15573 6.4212 431.60 465.49 2.7025 1.0183 1.2104 200.30 0.89673 4.9340 0.0074776
-91.625 0.82689 0.010893 -1.5000 -1.1199 0.11760 635.02 0.0015747 -6.2808 -6.2719 0.089220 1.3580 2.0742 1488.9 -0.0066025 374.41 0.15925 0.16731 5.9769 432.59 466.67 2.6946 1.0217 1.2140 200.77 0.88445 4.9611 0.0075518
-90.625 0.89218 0.011692 0.91313 1.3232 0.13086 633.98 0.0015773 -4.2056 -4.1959 0.10062 1.3591 2.0767 1482.2 -0.0065811 368.66 0.15864 0.17958 5.5685 433.59 467.84 2.6868 1.0251 1.2177 201.24 0.87236 4.9883 0.0076263
-89.625 0.96172 0.012538 3.3477 3.7898 0.14416 632.93 0.0015800 -2.1279 -2.1174 0.11197 1.3602 2.0793 1475.5 -0.0065595 363.05 0.15802 0.19258 5.1928 434.59 469.02 2.6791 1.0285 1.2213 201.70 0.86045 5.0154 0.0077011
-88.625 1.0357 0.013433 5.8045 6.2805 0.15751 631.88 0.0015826 -0.047516 -0.036215 0.12328 1.3613 2.0819 1468.8 -0.0065375 357.56 0.15740 0.20633 4.8466 435.59 470.20 2.6717 1.0320 1.2250 202.15 0.84873 5.0425 0.0077761
-87.625 1.1144 0.014380 8.2843 8.7965 0.17091 630.83 0.0015852 2.0355 2.0476 0.13454 1.3625 2.0846 1462.1 -0.0065153 352.21 0.15679 0.22087 4.5276 436.60 471.39 2.6643 1.0354 1.2288 202.61 0.83718 5.0696 0.0078514
-86.625 1.1979 0.015379 10.788 11.338 0.18437 629.77 0.0015879 4.1211 4.1342 0.14575 1.3637 2.0873 1455.4 -0.0064928 346.98 0.15617 0.23623 4.2331 437.61 472.57 2.6571 1.0389 1.2325 203.06 0.82580 5.0967 0.0079270
-85.625 1.2866 0.016435 13.316 13.907 0.19789 628.72 0.0015905 6.2094 6.2235 0.15691 1.3649 2.0900 1448.8 -0.0064701 341.87 0.15555 0.25245 3.9612 438.61 473.75 2.6501 1.0424 1.2363 203.50 0.81460 5.1237 0.0080028
-84.625 1.3806 0.017549 15.870 16.504 0.21147 627.66 0.0015932 8.3004 8.3155 0.16803 1.3661 2.0927 1442.1 -0.0064470 336.87 0.15494 0.26956 3.7097 439.63 474.94 2.6432 1.0460 1.2402 203.95 0.80356 5.1508 0.0080789
-83.625 1.4803 0.018723 18.449 19.130 0.22512 626.60 0.0015959 10.394 10.410 0.17911 1.3674 2.0955 1435.4 -0.0064236 331.99 0.15432 0.28760 3.4771 440.64 476.13 2.6364 1.0495 1.2440 204.38 0.79269 5.1778 0.0081553
-82.625 1.5858 0.019959 21.056 21.785 0.23884 625.54 0.0015986 12.491 12.508 0.19014 1.3687 2.0983 1428.7 -0.0063999 327.22 0.15370 0.30659 3.2616 441.65 477.31 2.6298 1.0531 1.2479 204.82 0.78199 5.2048 0.0082319
-81.625 1.6975 0.021261 23.691 24.472 0.25263 624.48 0.0016013 14.590 14.609 0.20113 1.3700 2.1012 1422.0 -0.0063759 322.55 0.15309 0.32659 3.0619 442.67 478.50 2.6233 1.0567 1.2519 205.25 0.77144 5.2318 0.0083088
-80.625 1.8155 0.022630 26.355 27.190 0.26650 623.42 0.0016041 16.692 16.712 0.21208 1.3714 2.1041 1415.4 -0.0063516 317.99 0.15247 0.34763 2.8766 443.69 479.70 2.6169 1.0603 1.2558 205.67 0.76106 5.2587 0.0083860
-79.625 1.9402 0.024069 29.048 29.940 0.28046 622.36 0.0016068 18.797 18.819 0.22299 1.3728 2.1070 1408.7 -0.0063270 313.52 0.15186 0.36974 2.7046 444.71 480.89 2.6106 1.0639 1.2598 206.10 0.75083 5.2857 0.0084634
-78.625 2.0718 0.025581 31.773 32.725 0.29450 621.29 0.0016096 20.905 20.928 0.23385 1.3742 2.1099 1402.0 -0.0063021 309.15 0.15124 0.39296 2.5448 445.73 482.08 2.6045 1.0676 1.2639 206.51 0.74076 5.3126 0.0085411
-77.625 2.2107 0.027168 34.528 35.544 0.30863 620.22 0.0016123 23.016 23.040 0.24468 1.3757 2.1129 1395.3 -0.0062768 304.88 0.15062 0.41735 2.3961 446.75 483.27 2.5985 1.0712 1.2680 206.93 0.73084 5.3395 0.0086190
-76.625 2.3571 0.028833 37.316 38.400 0.32285 619.15 0.0016151 25.130 25.156 0.25546 1.3772 2.1159 1388.7 -0.0062512 300.69 0.15001 0.44292 2.2577 447.78 484.47 2.5926 1.0749 1.2721 207.34 0.72107 5.3664 0.0086972
-75.625 2.5113 0.030579 40.137 41.292 0.33717 618.08 0.0016179 27.247 27.275 0.26620 1.3787 2.1190 1382.0 -0.0062253 296.59 0.14939 0.46974 2.1288 448.81 485.67 2.5869 1.0787 1.2762 207.74 0.71146 5.3933 0.0087757
-74.625 2.6736 0.032408 42.993 44.222 0.35159 617.01 0.0016207 29.366 29.396 0.27691 1.3802 2.1221 1375.4 -0.0061990 292.58 0.14878 0.49783 2.0087 449.83 486.86 2.5812 1.0824 1.2804 208.14 0.70200 5.4201 0.0088544
-73.625 2.8444 0.034324 45.884 47.191 0.36611 615.93 0.0016236 31.489 31.521 0.28758 1.3818 2.1252 1368.7 -0.0061724 288.65 0.14816 0.52725 1.8966 450.86 488.06 2.5757 1.0862 1.2847 208.54 0.69268 5.4469 0.0089334
-72.625 3.0240 0.036328 48.811 50.201 0.38075 614.85 0.0016264 33.615 33.649 0.29821 1.3834 2.1284 1362.0 -0.0061454 284.81 0.14755 0.55804 1.7920 451.90 489.26 2.5703 1.0900 1.2889 208.93 0.68351 5.4737 0.0090126
-71.625 3.2127 0.038425 51.775 53.252 0.39549 613.78 0.0016293 35.745 35.781 0.30880 1.3851 2.1316 1355.4 -0.0061181 281.03 0.14694 0.59024 1.6942 452.93 490.46 2.5650 1.0938 1.2932 209.32 0.67448 5.5005 0.0090922
-70.625 3.4108 0.040616 54.777 56.345 0.41035 612.69 0.0016321 37.877 37.915 0.31935 1.3867 2.1349 1348.7 -0.0060904 277.34 0.14632 0.62390 1.6028 453.96 491.66 2.5598 1.0976 1.2976 209.70 0.66560 5.5273 0.0091720
-69.625 3.6187 0.042906 57.818 59.481 0.42533 611.61 0.0016350 40.013 40.053 0.32987 1.3884 2.1382 1342.1 -0.0060624 273.72 0.14571 0.65906 1.5173 455.00 492.86 2.5547 1.1015 1.3020 210.08 0.65687 5.5540 0.0092520
-68.625 3.8367 0.045297 60.899 62.663 0.44043 610.53 0.0016379 42.152 42.195 0.34036 1.3902 2.1415 1335.5 -0.0060339 270.17 0.14510 0.69577 1.4372 456.04 494.06 2.5497 1.1054 1.3064 210.45 0.64827 5.5807 0.0093324
-67.625 4.0652 0.047792 64.022 65.890 0.45566 609.44 0.0016409 44.294 44.340 0.35080 1.3919 2.1449 1328.8 -0.0060051 266.69 0.14449 0.73408 1.3622 457.08 495.26 2.5448 1.1093 1.3109 210.82 0.63981 5.6074 0.0094130
-66.625 4.3046 0.050395 67.186 69.164 0.47102 608.35 0.0016438 46.439 46.488 0.36122 1.3937 2.1483 1322.2 -0.0059760 263.28 0.14388 0.77404 1.2919 458.12 496.46 2.5400 1.1133 1.3154 211.18 0.63150 5.6341 0.0094939
-65.625 4.5551 0.053108 70.393 72.487 0.48651 607.26 0.0016467 48.588 48.640 0.37160 1.3955 2.1518 1315.6 -0.0059464 259.93 0.14327 0.81570 1.2259 459.16 497.67 2.5353 1.1172 1.3200 211.54 0.62332 5.6608 0.0095750
-64.625 4.8173 0.055935 73.644 75.858 0.50214 606.16 0.0016497 50.740 50.795 0.38195 1.3974 2.1553 1308.9 -0.0059164 256.65 0.14266 0.85910 1.1640 460.21 498.87 2.5307 1.1212 1.3246 211.89 0.61527 5.6874 0.0096564
-63.625 5.0915 0.058880 76.940 79.280 0.51791 605.07 0.0016527 52.896 52.954 0.39226 1.3993 2.1588 1302.3 -0.0058861 253.42 0.14205 0.90429 1.1058 461.25 500.07 2.5262 1.1252 1.3293 212.24 0.60736 5.7140 0.0097382
-62.625 5.3781 0.061945 80.282 82.754 0.53382 603.97 0.0016557 55.055 55.117 0.40254 1.4012 2.1624 1295.7 -0.0058553 250.26 0.14144 0.95134 1.0511 462.30 501.28 2.5218 1.1293 1.3340 212.58 0.59958 5.7406 0.0098201
-61.625 5.6774 0.065135 83.671 86.281 0.54988 602.87 0.0016587 57.218 57.283 0.41279 1.4031 2.1660 1289.1 -0.0058241 247.16 0.14084 1.0003 0.99972 463.35 502.48 2.5175 1.1333 1.3387 212.92 0.59194 5.7672 0.0099024
-60.625 5.9899 0.068452 87.108 89.861 0.56609 601.77 0.0016618 59.385 59.453 0.42301 1.4051 2.1697 1282.5 -0.0057925 244.12 0.14023 1.0512 0.95131 464.40 503.68 2.5133 1.1374 1.3435 213.26 0.58442 5.7938 0.0099850
-59.625 6.3160 0.071900 90.594 93.497 0.58245 600.66 0.0016648 61.554 61.627 0.43320 1.4071 2.1734 1275.9 -0.0057605 241.13 0.13962 1.1041 0.90573 465.45 504.89 2.5091 1.1415 1.3483 213.58 0.57704 5.8203 0.010068
-58.625 6.6561 0.075483 94.130 97.190 0.59898 599.55 0.0016679 63.728 63.805 0.44335 1.4091 2.1772 1269.3 -0.0057280 238.19 0.13902 1.1591 0.86277 466.50 506.09 2.5051 1.1457 1.3532 213.90 0.56978 5.8468 0.010151
-57.625 7.0107 0.079204 97.717 100.94 0.61566 598.44 0.0016710 65.905 65.986 0.45348 1.4111 2.1810 1262.7 -0.0056951 235.31 0.13842 1.2161 0.82228 467.55 507.30 2.5011 1.1498 1.3581 214.22 0.56265 5.8733 0.010234
-56.625 7.3801 0.083068 101.36 104.75 0.63250 597.33 0.0016741 68.086 68.172 0.46358 1.4132 2.1848 1256.1 -0.0056617 232.48 0.13781 1.2754 0.78408 468.60 508.50 2.4972 1.1540 1.3631 214.53 0.55564 5.8998 0.010318
-55.625 7.7648 0.087078 105.05 108.62 0.64952 596.22 0.0016772 70.271 70.361 0.47364 1.4153 2.1887 1249.5 -0.0056279 229.69 0.13721 1.3369 0.74802 469.66 509.71 2.4934 1.1582 1.3681 214.84 0.54875 5.9263 0.010402
-54.625 8.1652 0.091237 108.80 112.55 0.66670 595.10 0.0016804 72.460 72.554 0.48368 1.4174 2.1927 1242.9 -0.0055937 226.96 0.13661 1.4006 0.71396 470.72 510.91 2.4897 1.1624 1.3731 215.14 0.54199 5.9527 0.010486
-53.625 8.5819 0.095549 112.60 116.54 0.68406 593.98 0.0016836 74.652 74.752 0.49369 1.4196 2.1967 1236.3 -0.0055589 224.27 0.13601 1.4667 0.68178 471.77 512.11 2.4860 1.1667 1.3782 215.43 0.53535 5.9792 0.010571
-52.625 9.0151 0.10002 116.45 120.60 0.70159 592.86 0.0016867 76.849 76.954 0.50368 1.4218 2.2007 1229.8 -0.0055237 221.63 0.13541 1.5353 0.65136 472.83 513.32 2.4824 1.1710 1.3834 215.72 0.52882 6.0056 0.010656
-51.625 9.4655 0.10465 120.37 124.72 0.71930 591.73 0.0016900 79.049 79.159 0.51363 1.4240 2.2048 1223.2 -0.0054880 219.04 0.13482 1.6062 0.62258 473.89 514.52 2.4789 1.1752 1.3886 216.00 0.52241 6.0320 0.010741
-50.625 9.9335 0.10945 124.34 128.91 0.73720 590.60 0.0016932 81.253 81.369 0.52356 1.4262 2.2089 1216.6 -0.0054519 216.48 0.13422 1.6797 0.59534 474.95 515.73 2.4755 1.1796 1.3938 216.28 0.51612 6.0584 0.010827
-49.625 10.419 0.11442 128.38 133.16 0.75528 589.47 0.0016964 83.462 83.584 0.53347 1.4285 2.2131 1210.1 -0.0054152 213.98 0.13363 1.7558 0.56954 476.01 516.93 2.4722 1.1839 1.3991 216.55 0.50994 6.0848 0.010913
-48.625 10.924 0.11956 132.47 137.49 0.77355 588.34 0.0016997 85.674 85.802 0.54334 1.4308 2.2173 1203.5 -0.0053780 211.51 0.13303 1.8345 0.54510 477.07 518.13 2.4689 1.1883 1.4044 216.82 0.50387 6.1112 0.010999
-47.625 11.448 0.12487 136.62 141.88 0.79201 587.20 0.0017030 87.891 88.025 0.55319 1.4331 2.2216 1196.9 -0.0053403 209.08 0.13244 1.9159 0.52194 478.14 519.33 2.4657 1.1927 1.4098 217.08 0.49792 6.1375 0.011085
-46.625 11.991 0.13037 140.84 146.35 0.81066 586.06 0.0017063 90.111 90.252 0.56302 1.4354 2.2259 1190.4 -0.0053020 206.69 0.13185 2.0001 0.49997 479.20 520.53 2.4625 1.1971 1.4153 217.33 0.49207 6.1639 0.011172
-45.625 12.554 0.13606 145.12 150.89 0.82952 584.92 0.0017096 92.336 92.484 0.57282 1.4378 2.2303 1183.8 -0.0052633 204.34 0.13126 2.0872 0.47912 480.27 521.74 2.4594 1.2015 1.4207 217.58 0.48633 6.1902 0.011259
-44.625 13.137 0.14194 149.46 155.50 0.84857 583.77 0.0017130 94.565 94.720 0.58260 1.4402 2.2347 1177.3 -0.0052240 202.03 0.13067 2.1771 0.45933 481.33 522.94 2.4564 1.2060 1.4263 217.82 0.48069 6.2165 0.011347
-43.625 13.741 0.14801 153.87 160.19 0.86782 582.62 0.0017164 96.799 96.961 0.59235 1.4426 2.2392 1170.7 -0.0051841 199.75 0.13008 2.2700 0.44053 482.40 524.14 2.4535 1.2104 1.4319 218.05 0.47516 6.2429 0.011435
-42.625 14.367 0.15429 158.35 164.95 0.88728 581.47 0.0017198 99.036 99.207 0.60208 1.4450 2.2437 1164.2 -0.0051437 197.51 0.12949 2.3659 0.42267 483.46 525.33 2.4506 1.2149 1.4375 218.28 0.46973 6.2692 0.011523
-41.625 15.015 0.16076 162.89 169.79 0.90695 580.32 0.0017232 101.28 101.46 0.61179 1.4475 2.2483 1157.7 -0.0051027 195.30 0.12891 2.4649 0.40569 484.53 526.53 2.4478 1.2195 1.4432 218.50 0.46440 6.2955 0.011612
-40.625 15.686 0.16745 167.50 174.71 0.92682 579.16 0.0017266 103.52 103.71 0.62147 1.4500 2.2529 1151.1 -0.0050611 193.13 0.12832 2.5671 0.38954 485.60 527.73 2.4450 1.2240 1.4489 218.72 0.45917 6.3218 0.011701
-39.625 16.380 0.17435 172.19 179.71 0.94691 578.00 0.0017301 105.78 105.97 0.63113 1.4525 2.2576 1144.6 -0.0050189 190.99 0.12774 2.6725 0.37418 486.67 528.93 2.4423 1.2286 1.4547 218.93 0.45403 6.3481 0.011790
-38.625 17.097 0.18147 176.94 184.80 0.96722 576.83 0.0017336 108.03 108.24 0.64077 1.4550 2.2623 1138.0 -0.0049761 188.88 0.12716 2.7813 0.35955 487.74 530.12 2.4397 1.2332 1.4606 219.13 0.44900 6.3744 0.011880
-37.625 17.838 0.18881 181.76 189.96 0.98774 575.66 0.0017371 110.29 110.51 0.65039 1.4576 2.2671 1131.5 -0.0049327 186.81 0.12658 2.8934 0.34562 488.81 531.32 2.4371 1.2378 1.4665 219.33 0.44405 6.4007 0.011970
-36.625 18.604 0.19639 186.66 195.21 1.0085 574.49 0.0017407 112.56 112.78 0.65999 1.4602 2.2719 1125.0 -0.0048887 184.76 0.12600 3.0089 0.33235 489.88 532.51 2.4346 1.2424 1.4724 219.52 0.43920 6.4270 0.012060
-35.625 19.395 0.20419 191.63 200.54 1.0295 573.32 0.0017442 114.83 115.06 0.66956 1.4628 2.2768 1118.5 -0.0048440 182.75 0.12542 3.1280 0.31969 490.95 533.70 2.4321 1.2471 1.4784 219.70 0.43444 6.4533 0.012151
-34.625 20.212 0.21223 196.67 205.96 1.0506 572.14 0.0017478 117.10 117.34 0.67912 1.4654 2.2818 1111.9 -0.0047987 180.76 0.12485 3.2506 0.30763 492.02 534.89 2.4297 1.2517 1.4845 219.88 0.42977 6.4797 0.012243
-33.625 21.056 0.22052 201.79 211.47 1.0721 570.96 0.0017514 119.38 119.63 0.68865 1.4681 2.2868 1105.4 -0.0047527 178.80 0.12427 3.3770 0.29612 493.09 536.08 2.4273 1.2564 1.4906 220.05 0.42519 6.5060 0.012334
-32.625 21.926 0.22906 206.99 217.06 1.0937 569.77 0.0017551 121.66 121.93 0.69817 1.4708 2.2918 1098.9 -0.0047061 176.87 0.12370 3.5071 0.28514 494.17 537.27 2.4250 1.2611 1.4968 220.21 0.42070 6.5323 0.012426
-31.625 22.823 0.23785 212.26 222.75 1.1156 568.58 0.0017588 123.95 124.23 0.70767 1.4735 2.2970 1092.3 -0.0046587 174.97 0.12313 3.6410 0.27465 495.24 538.46 2.4227 1.2659 1.5031 220.36 0.41629 6.5587 0.012519
-30.625 23.749 0.24690 217.61 228.53 1.1377 567.39 0.0017625 126.24 126.53 0.71714 1.4762 2.3021 1085.8 -0.0046107 173.09 0.12256 3.7787 0.26464 496.31 539.64 2.4205 1.2706 1.5094 220.51 0.41196 6.5850 0.012612
-29.625 24.703 0.25622 223.04 234.40 1.1601 566.19 0.0017662 128.54 128.84 0.72660 1.4790 2.3074 1079.3 -0.0045619 171.24 0.12200 3.9205 0.25507 497.38 540.83 2.4184 1.2754 1.5157 220.65 0.40772 6.6114 0.012706
-28.625 25.687 0.26580 228.56 240.36 1.1826 564.99 0.0017699 130.84 131.16 0.73604 1.4818 2.3126 1072.8 -0.0045124 169.42 0.12143 4.0663 0.24592 498.46 542.01 2.4162 1.2802 1.5222 220.79 0.40356 6.6378 0.012800
-27.625 26.700 0.27567 234.15 246.42 1.2055 563.78 0.0017737 133.15 133.48 0.74547 1.4846 2.3180 1066.2 -0.0044621 167.62 0.12087 4.2163 0.23717 499.53 543.19 2.4142 1.2850 1.5286 220.91 0.39947 6.6642 0.012894
-26.625 27.743 0.28582 239.83 252.58 1.2286 562.57 0.0017775 135.47 135.81 0.75487 1.4874 2.3234 1059.7 -0.0044111 165.84 0.12031 4.3705 0.22881 500.60 544.37 2.4122 1.2899 1.5352 221.03 0.39547 6.6906 0.012989
-25.625 28.817 0.29625 245.59 258.83 1.2519 561.36 0.0017814 137.78 138.14 0.76426 1.4902 2.3289 1053.2 -0.0043593 164.09 0.11975 4.5290 0.22080 501.68 545.55 2.4102 1.2947 1.5418 221.14 0.39154 6.7171 0.013084
-24.625 29.923 0.30698 251.43 265.19 1.2754 560.14 0.0017853 140.11 140.48 0.77363 1.4931 2.3344 1046.7 -0.0043067 162.36 0.11919 4.6918 0.21314 502.75 546.72 2.4083 1.2996 1.5485 221.25 0.38768 6.7436 0.013180
-23.625 31.061 0.31802 257.36 271.64 1.2992 558.92 0.0017892 142.44 142.82 0.78298 1.4960 2.3400 1040.1 -0.0042533 160.65 0.11863 4.8592 0.20580 503.82 547.90 2.4064 1.3045 1.5552 221.35 0.38391 6.7701 0.013277
-22.625 32.232 0.32935 263.38 278.19 1.3233 557.69 0.0017931 144.77 145.17 0.79232 1.4990 2.3457 1033.6 -0.0041990 158.97 0.11807 5.0311 0.19877 504.90 549.07 2.4045 1.3095 1.5621 221.44 0.38020 6.7967 0.013374
-21.625 33.435 0.34101 269.48 284.85 1.3476 556.46 0.0017971 147.11 147.52 0.80164 1.5019 2.3514 1027.1 -0.0041439 157.30 0.11752 5.2076 0.19203 505.97 550.24 2.4027 1.3144 1.5690 221.52 0.37656 6.8232 0.013471
-20.625 34.673 0.35298 275.67 291.61 1.3722 555.23 0.0018011 149.45 149.88 0.81095 1.5049 2.3572 1020.6 -0.0040879 155.66 0.11697 5.3889 0.18557 507.04 551.40 2.4010 1.3194 1.5759 221.59 0.37300 6.8499 0.013569
-19.625 35.946 0.36528 281.96 298.48 1.3970 553.99 0.0018051 151.80 152.25 0.82024 1.5079 2.3630 1014.0 -0.0040311 154.04 0.11642 5.5750 0.17937 508.11 552.57 2.3992 1.3244 1.5829 221.66 0.36950 6.8765 0.013668
-18.625 37.253 0.37791 288.33 305.45 1.4221 552.74 0.0018092 154.16 154.62 0.82952 1.5109 2.3689 1007.5 -0.0039733 152.44 0.11587 5.7660 0.17343 509.19 553.73 2.3976 1.3294 1.5901 221.72 0.36608 6.9032 0.013767
-17.625 38.596 0.39089 294.79 312.53 1.4474 551.49 0.0018133 156.52 157.00 0.83878 1.5140 2.3749 1001.0 -0.0039145 150.86 0.11532 5.9621 0.16773 510.26 554.89 2.3959 1.3345 1.5972 221.77 0.36272 6.9300 0.013867
-16.625 39.976 0.40421 301.35 319.72 1.4730 550.24 0.0018174 158.89 159.39 0.84803 1.5171 2.3810 994.44 -0.0038549 149.29 0.11478 6.1632 0.16225 511.33 556.05 2.3943 1.3395 1.6045 221.81 0.35942 6.9568 0.013968
-15.625 41.392 0.41788 307.99 327.02 1.4989 548.98 0.0018216 161.26 161.78 0.85726 1.5202 2.3871 987.91 -0.0037942 147.75 0.11423 6.3696 0.15700 512.40 557.20 2.3927 1.3446 1.6119 221.85 0.35619 6.9836 0.014069
-14.625 42.846 0.43192 314.74 334.43 1.5250 547.71 0.0018258 163.64 164.18 0.86649 1.5233 2.3933 981.37 -0.0037325 146.22 0.11369 6.5812 0.15195 513.47 558.36 2.3912 1.3497 1.6193 221.87 0.35302 7.0105 0.014170
-13.625 44.338 0.44633 321.58 341.96 1.5514 546.44 0.0018300 166.02 166.58 0.87569 1.5264 2.3996 974.83 -0.0036698 144.72 0.11315 6.7983 0.14710 514.54 559.51 2.3897 1.3549 1.6268 221.89 0.34992 7.0375 0.014273
-12.625 45.870 0.46112 328.51 349.59 1.5781 545.17 0.0018343 168.41 168.99 0.88489 1.5296 2.4059 968.29 -0.0036061 143.23 0.11261 7.0208 0.14243 515.61 560.65 2.3883 1.3600 1.6344 221.90 0.34688 7.0646 0.014376
-11.625 47.440 0.47629 335.54 357.35 1.6051 543.89 0.0018386 170.81 171.41 0.89407 1.5328 2.4124 961.75 -0.0035413 141.76 0.11208 7.2490 0.13795 516.68 561.80 2.3868 1.3652 1.6421 221.91 0.34389 7.0917 0.014479
-10.625 49.051 0.49185 342.67 365.22 1.6323 542.60 0.0018430 173.21 173.83 0.90324 1.5360 2.4189 955.20 -0.0034753 140.30 0.11154 7.4829 0.13364 517.75 562.94 2.3854 1.3704 1.6498 221.90 0.34097 7.1188 0.014584
-9.6250 50.703 0.50782 349.90 373.20 1.6597 541.31 0.0018474 175.61 176.26 0.91240 1.5393 2.4255 948.65 -0.0034082 138.86 0.11101 7.7226 0.12949 518.81 564.08 2.3841 1.3757 1.6577 221.88 0.33810 7.1461 0.014689
-8.6250 52.396 0.52420 357.23 381.31 1.6875 540.02 0.0018518 178.03 178.70 0.92154 1.5426 2.4321 942.10 -0.0033400 137.44 0.11048 7.9683 0.12550 519.88 565.21 2.3827 1.3809 1.6657 221.86 0.33529 7.1734 0.014795
-7.6250 54.131 0.54100 364.65 389.54 1.7155 538.72 0.0018563 180.45 181.14 0.93068 1.5459 2.4389 935.55 -0.0032705 136.03 0.10995 8.2200 0.12165 520.94 566.35 2.3814 1.3862 1.6737 221.83 0.33254 7.2008 0.014902
-6.6250 55.909 0.55822 372.19 397.88 1.7438 537.41 0.0018608 182.87 183.59 0.93980 1.5492 2.4457 928.99 -0.0031998 134.64 0.10942 8.4779 0.11795 522.01 567.48 2.3801 1.3915 1.6819 221.79 0.32984 7.2284 0.015009
-5.6250 57.730 0.57589 379.82 406.35 1.7724 536.10 0.0018653 185.30 186.05 0.94892 1.5525 2.4526 922.43 -0.0031279 133.27 0.10889 8.7420 0.11439 523.07 568.60 2.3789 1.3969 1.6902 221.74 0.32720 7.2560 0.015117
-4.6250 59.595 0.59399 387.56 414.95 1.8013 534.78 0.0018699 187.74 188.51 0.95802 1.5559 2.4596 915.87 -0.0030546 131.91 0.10837 9.0126 0.11096 524.13 569.72 2.3777 1.4022 1.6985 221.68 0.32461 7.2837 0.015226
-3.6250 61.505 0.61256 395.40 423.67 1.8304 533.45 0.0018746 190.19 190.98 0.96711 1.5593 2.4667 909.30 -0.0029800 130.56 0.10785 9.2896 0.10765 525.19 570.84 2.3765 1.4076 1.7070 221.62 0.32207 7.3115 0.015336
-2.6250 63.461 0.63159 403.35 432.52 1.8599 532.12 0.0018793 192.64 193.46 0.97620 1.5627 2.4739 902.73 -0.0029041 129.23 0.10733 9.5733 0.10446 526.25 571.96 2.3753 1.4131 1.7156 221.54 0.31958 7.3394 0.015447
-1.6250 65.462 0.65110 411.40 441.49 1.8896 530.78 0.0018840 195.10 195.95 0.98527 1.5662 2.4811 896.16 -0.0028267 127.91 0.10681 9.8638 0.10138 527.31 573.07 2.3742 1.4185 1.7243 221.45 0.31715 7.3674 0.015559
-0.62500 67.510 0.67110 419.56 450.59 1.9196 529.44 0.0018888 197.56 198.44 0.99434 1.5696 2.4885 889.58 -0.0027478 126.61 0.10629 10.161 0.098414 528.37 574.18 2.3731 1.4240 1.7331 221.36 0.31476 7.3956 0.015671
0.37500 69.606 0.69159 427.83 459.83 1.9499 528.09 0.0018936 200.03 200.94 1.0034 1.5731 2.4960 883.00 -0.0026675 125.32 0.10578 10.466 0.095552 529.42 575.28 2.3720 1.4295 1.7421 221.26 0.31242 7.4239 0.015785
1.3750 71.749 0.71259 436.21 469.19 1.9805 526.73 0.0018985 202.51 203.45 1.0124 1.5767 2.5035 876.42 -0.0025856 124.04 0.10527 10.777 0.092790 530.48 576.38 2.3709 1.4350 1.7512 221.14 0.31013 7.4523 0.015899
2.3750 73.941 0.73411 444.71 478.69 2.0113 525.37 0.0019034 204.99 205.96 1.0215 1.5802 2.5112 869.83 -0.0025022 122.78 0.10476 11.096 0.090123 531.53 577.47 2.3699 1.4406 1.7604 221.02 0.30789 7.4808 0.016015
3.3750 76.183 0.75616 453.31 488.33 2.0425 523.99 0.0019084 207.48 208.48 1.0305 1.5838 2.5190 863.24 -0.0024171 121.53 0.10425 11.422 0.087549 532.58 578.56 2.3688 1.4462 1.7697 220.89 0.30569 7.5095 0.016131
4.3750 78.475 0.77876 462.02 498.09 2.0740 522.62 0.0019134 209.98 211.01 1.0395 1.5874 2.5268 856.64 -0.0023303 120.29 0.10374 11.756 0.085062 533.63 579.65 2.3678 1.4518 1.7792 220.75 0.30354 7.5384 0.016249
5.3750 80.817 0.80191 470.85 508.00 2.1057 521.23 0.0019185 212.48 213.55 1.0486 1.5910 2.5348 850.04 -0.0022417 119.06 0.10324 12.098 0.082660 534.67 580.73 2.3669 1.4575 1.7888 220.60 0.30144 7.5674 0.016368
6.3750 83.211 0.82564 479.79 518.04 2.1378 519.84 0.0019237 215.00 216.10 1.0576 1.5946 2.5429 843.43 -0.0021514 117.85 0.10273 12.447 0.080340 535.72 581.81 2.3659 1.4632 1.7986 220.44 0.29938 7.5966 0.016487
7.3750 85.657 0.84994 488.85 528.23 2.1701 518.44 0.0019289 217.51 218.65 1.0666 1.5983 2.5511 836.82 -0.0020593 116.65 0.10223 12.805 0.078096 536.76 582.88 2.3650 1.4689 1.8085 220.27 0.29736 7.6259 0.016608
8.3750 88.156 0.87484 498.03 538.55 2.2028 517.03 0.0019341 220.04 221.22 1.0756 1.6020 2.5595 830.20 -0.0019652 115.46 0.10173 13.170 0.075928 537.80 583.95 2.3640 1.4746 1.8186 220.08 0.29538 7.6555 0.016730
9.3750 90.708 0.90035 507.32 549.02 2.2357 515.62 0.0019394 222.57 223.79 1.0846 1.6057 2.5679 823.58 -0.0018691 114.28 0.10124 13.545 0.073830 538.84 585.01 2.3631 1.4804 1.8288 219.89 0.29345 7.6852 0.016853
10.375 93.315 0.92649 516.73 559.63 2.2690 514.19 0.0019448 225.11 226.37 1.0936 1.6095 2.5765 816.96 -0.0017710 113.11 0.10074 13.927 0.071802 539.87 586.07 2.3622 1.4863 1.8392 219.69 0.29156 7.7151 0.016978
11.375 95.977 0.95326 526.26 570.38 2.3025 512.76 0.0019502 227.66 228.95 1.1025 1.6132 2.5852 810.32 -0.0016708 111.95 0.10025 14.319 0.069840 540.90 587.12 2.3614 1.4921 1.8498 219.48 0.28971 7.7452 0.017103
12.375 98.694 0.98069 535.92 581.28 2.3364 511.32 0.0019557 230.22 231.55 1.1115 1.6170 2.5940 803.68 -0.0015685 110.80 0.099756 14.719 0.067941 541.93 588.17 2.3605 1.4980 1.8605 219.26 0.28790 7.7756 0.017230
13.375 100.75 undefined 543.11 589.42 2.3616 15.000 0.066667 543.11 589.42 2.3616 1.5032 1.8685 219.27 0.28556 7.8057 0.017353 15.000 0.066667 543.11 589.42 2.3616 1.5032 1.8685 219.27 0.28556 7.8057 0.017353
14.375 101.23 undefined 544.61 591.15 2.3668 15.000 0.066667 544.61 591.15 2.3668 1.5067 1.8698 219.83 0.28204 7.8348 0.017465 15.000 0.066667 544.61 591.15 2.3668 1.5067 1.8698 219.83 0.28204 7.8348 0.017465
15.375 101.72 undefined 546.12 592.88 2.3720 15.000 0.066667 546.12 592.88 2.3720 1.5102 1.8711 220.38 0.27858 7.8638 0.017577 15.000 0.066667 546.12 592.88 2.3720 1.5102 1.8711 220.38 0.27858 7.8638 0.017577
16.375 102.20 undefined 547.63 594.61 2.3773 15.000 0.066667 547.63 594.61 2.3773 1.5137 1.8725 220.93 0.27518 7.8929 0.017689 15.000 0.066667 547.63 594.61 2.3773 1.5137 1.8725 220.93 0.27518 7.8929 0.017689
17.375 102.68 undefined 549.15 596.35 2.3825 15.000 0.066667 549.15 596.35 2.3825 1.5172 1.8740 221.47 0.27184 7.9219 0.017802 15.000 0.066667 549.15 596.35 2.3825 1.5172 1.8740 221.47 0.27184 7.9219 0.017802
18.375 103.16 undefined 550.67 598.09 2.3877 15.000 0.066667 550.67 598.09 2.3877 1.5208 1.8756 222.01 0.26855 7.9510 0.017915 15.000 0.066667 550.67 598.09 2.3877 1.5208 1.8756 222.01 0.26855 7.9510 0.017915
19.375 103.64 undefined 552.19 599.83 2.3929 15.000 0.066667 552.19 599.83 2.3929 1.5243 1.8772 222.56 0.26532 7.9799 0.018028 15.000 0.066667 552.19 599.83 2.3929 1.5243 1.8772 222.56 0.26532 7.9799 0.018028
20.375 104.12 undefined 553.72 601.57 2.3981 15.000 0.066667 553.72 601.57 2.3981 1.5279 1.8788 223.09 0.26215 8.0089 0.018141 15.000 0.066667 553.72 601.57 2.3981 1.5279 1.8788 223.09 0.26215 8.0089 0.018141
21.375 104.59 undefined 555.25 603.32 2.4033 15.000 0.066667 555.25 603.32 2.4033 1.5315 1.8805 223.63 0.25903 8.0379 0.018255 15.000 0.066667 555.25 603.32 2.4033 1.5315 1.8805 223.63 0.25903 8.0379 0.018255
22.375 105.07 undefined 556.78 605.08 2.4085 15.000 0.066667 556.78 605.08 2.4085 1.5351 1.8823 224.16 0.25596 8.0668 0.018369 15.000 0.066667 556.78 605.08 2.4085 1.5351 1.8823 224.16 0.25596 8.0668 0.018369
23.375 105.55 undefined 558.32 606.83 2.4137 15.000 0.066667 558.32 606.83 2.4137 1.5387 1.8841 224.70 0.25294 8.0957 0.018484 15.000 0.066667 558.32 606.83 2.4137 1.5387 1.8841 224.70 0.25294 8.0957 0.018484
24.375 106.03 undefined 559.86 608.59 2.4189 15.000 0.066667 559.86 608.59 2.4189 1.5424 1.8860 225.23 0.24998 8.1246 0.018599 15.000 0.066667 559.86 608.59 2.4189 1.5424 1.8860 225.23 0.24998 8.1246 0.018599
25.375 106.50 undefined 561.40 610.36 2.4241 15.000 0.066667 561.40 610.36 2.4241 1.5461 1.8879 225.75 0.24706 8.1535 0.018714 15.000 0.066667 561.40 610.36 2.4241 1.5461 1.8879 225.75 0.24706 8.1535 0.018714
26.375 106.98 undefined 562.95 612.12 2.4293 15.000 0.066667 562.95 612.12 2.4293 1.5497 1.8899 226.28 0.24419 8.1823 0.018829 15.000 0.066667 562.95 612.12 2.4293 1.5497 1.8899 226.28 0.24419 8.1823 0.018829
27.375 107.45 undefined 564.50 613.89 2.4344 15.000 0.066667 564.50 613.89 2.4344 1.5534 1.8919 226.80 0.24137 8.2112 0.018945 15.000 0.066667 564.50 613.89 2.4344 1.5534 1.8919 226.80 0.24137 8.2112 0.018945
28.375 107.93 undefined 566.06 615.67 2.4396 15.000 0.066667 566.06 615.67 2.4396 1.5571 1.8940 227.32 0.23860 8.2400 0.019061 15.000 0.066667 566.06 615.67 2.4396 1.5571 1.8940 227.32 0.23860 8.2400 0.019061
29.375 108.40 undefined 567.62 617.44 2.4448 15.000 0.066667 567.62 617.44 2.4448 1.5609 1.8961 227.84 0.23587 8.2688 0.019178 15.000 0.066667 567.62 617.44 2.4448 1.5609 1.8961 227.84 0.23587 8.2688 0.019178
30.375 108.87 undefined 569.18 619.22 2.4499 15.000 0.066667 569.18 619.22 2.4499 1.5646 1.8983 228.36 0.23319 8.2975 0.019294 15.000 0.066667 569.18 619.22 2.4499 1.5646 1.8983 228.36 0.23319 8.2975 0.019294
31.375 109.35 undefined 570.75 621.01 2.4551 15.000 0.066667 570.75 621.01 2.4551 1.5684 1.9005 228.87 0.23055 8.3263 0.019412 15.000 0.066667 570.75 621.01 2.4551 1.5684 1.9005 228.87 0.23055 8.3263 0.019412
32.375 109.82 undefined 572.32 622.79 2.4602 15.000 0.066667 572.32 622.79 2.4602 1.5721 1.9027 229.39 0.22795 8.3550 0.019529 15.000 0.066667 572.32 622.79 2.4602 1.5721 1.9027 229.39 0.22795 8.3550 0.019529
33.375 110.29 undefined 573.89 624.58 2.4654 15.000 0.066667 573.89 624.58 2.4654 1.5759 1.9050 229.90 0.22539 8.3837 0.019647 15.000 0.066667 573.89 624.58 2.4654 1.5759 1.9050 229.90 0.22539 8.3837 0.019647
34.375 110.76 undefined 575.47 626.38 2.4705 15.000 0.066667 575.47 626.38 2.4705 1.5797 1.9073 230.41 0.22288 8.4124 0.019765 15.000 0.066667 575.47 626.38 2.4705 1.5797 1.9073 230.41 0.22288 8.4124 0.019765
35.375 111.23 undefined 577.05 628.18 2.4756 15.000 0.066667 577.05 628.18 2.4756 1.5835 1.9097 230.92 0.22040 8.4411 0.019883 15.000 0.066667 577.05 628.18 2.4756 1.5835 1.9097 230.92 0.22040 8.4411 0.019883
36.375 111.70 undefined 578.63 629.98 2.4808 15.000 0.066667 578.63 629.98 2.4808 1.5873 1.9121 231.42 0.21797 8.4697 0.020001 15.000 0.066667 578.63 629.98 2.4808 1.5873 1.9121 231.42 0.21797 8.4697 0.020001
37.375 112.17 undefined 580.22 631.78 2.4859 15.000 0.066667 580.22 631.78 2.4859 1.5912 1.9146 231.93 0.21557 8.4983 0.020120 15.000 0.066667 580.22 631.78 2.4859 1.5912 1.9146 231.93 0.21557 8.4983 0.020120
38.375 112.64 undefined 581.82 633.59 2.4910 15.000 0.066667 581.82 633.59 2.4910 1.5950 1.9171 232.43 0.21321 8.5269 0.020240 15.000 0.066667 581.82 633.59 2.4910 1.5950 1.9171 232.43 0.21321 8.5269 0.020240
39.375 113.11 undefined 583.41 635.40 2.4961 15.000 0.066667 583.41 635.40 2.4961 1.5989 1.9196 232.93 0.21088 8.5555 0.020359 15.000 0.066667 583.41 635.40 2.4961 1.5989 1.9196 232.93 0.21088 8.5555 0.020359
40.375 113.58 undefined 585.01 637.22 2.5013 15.000 0.066667 585.01 637.22 2.5013 1.6027 1.9221 233.43 0.20860 8.5841 0.020479 15.000 0.066667 585.01 637.22 2.5013 1.6027 1.9221 233.43 0.20860 8.5841 0.020479
41.375 114.04 undefined 586.62 639.04 2.5064 15.000 0.066667 586.62 639.04 2.5064 1.6066 1.9247 233.92 0.20635 8.6126 0.020599 15.000 0.066667 586.62 639.04 2.5064 1.6066 1.9247 233.92 0.20635 8.6126 0.020599
42.375 114.51 undefined 588.23 640.86 2.5115 15.000 0.066667 588.23 640.86 2.5115 1.6105 1.9274 234.42 0.20413 8.6411 0.020720 15.000 0.066667 588.23 640.86 2.5115 1.6105 1.9274 234.42 0.20413 8.6411 0.020720
43.375 114.98 undefined 589.84 642.69 2.5166 15.000 0.066667 589.84 642.69 2.5166 1.6144 1.9300 234.91 0.20195 8.6696 0.020840 15.000 0.066667 589.84 642.69 2.5166 1.6144 1.9300 234.91 0.20195 8.6696 0.020840
44.375 115.45 undefined 591.46 644.52 2.5217 15.000 0.066667 591.46 644.52 2.5217 1.6183 1.9327 235.41 0.19980 8.6981 0.020961 15.000 0.066667 591.46 644.52 2.5217 1.6183 1.9327 235.41 0.19980 8.6981 0.020961
45.375 115.91 undefined 593.08 646.36 2.5268 15.000 0.066667 593.08 646.36 2.5268 1.6223 1.9354 235.90 0.19768 8.7266 0.021083 15.000 0.066667 593.08 646.36 2.5268 1.6223 1.9354 235.90 0.19768 8.7266 0.021083
46.375 116.38 undefined 594.70 648.19 2.5319 15.000 0.066667 594.70 648.19 2.5319 1.6262 1.9382 236.38 0.19560 8.7550 0.021204 15.000 0.066667 594.70 648.19 2.5319 1.6262 1.9382 236.38 0.19560 8.7550 0.021204
47.375 116.84 undefined 596.33 650.04 2.5369 15.000 0.066667 596.33 650.04 2.5369 1.6301 1.9410 236.87 0.19354 8.7834 0.021326 15.000 0.066667 596.33 650.04 2.5369 1.6301 1.9410 236.87 0.19354 8.7834 0.021326
48.375 117.31 undefined 597.96 651.88 2.5420 15.000 0.066667 597.96 651.88 2.5420 1.6341 1.9438 237.36 0.19152 8.8118 0.021449 15.000 0.066667 597.96 651.88 2.5420 1.6341 1.9438 237.36 0.19152 8.8118 0.021449
49.375 117.77 undefined 599.60 653.73 2.5471 15.000 0.066667 599.60 653.73 2.5471 1.6381 1.9466 237.84 0.18953 8.8402 0.021571 15.000 0.066667 599.60 653.73 2.5471 1.6381 1.9466 237.84 0.18953 8.8402 0.021571
50.375 118.24 undefined 601.24 655.59 2.5522 15.000 0.066667 601.24 655.59 2.5522 1.6420 1.9495 238.32 0.18756 8.8686 0.021694 15.000 0.066667 601.24 655.59 2.5522 1.6420 1.9495 238.32 0.18756 8.8686 0.021694
51.375 118.70 undefined 602.88 657.44 2.5573 15.000 0.066667 602.88 657.44 2.5573 1.6460 1.9524 238.80 0.18563 8.8969 0.021817 15.000 0.066667 602.88 657.44 2.5573 1.6460 1.9524 238.80 0.18563 8.8969 0.021817
52.375 119.16 undefined 604.53 659.30 2.5623 15.000 0.066667 604.53 659.30 2.5623 1.6500 1.9553 239.28 0.18373 8.9252 0.021941 15.000 0.066667 604.53 659.30 2.5623 1.6500 1.9553 239.28 0.18373 8.9252 0.021941
53.375 119.63 undefined 606.18 661.17 2.5674 15.000 0.066667 606.18 661.17 2.5674 1.6540 1.9583 239.76 0.18185 8.9535 0.022065 15.000 0.066667 606.18 661.17 2.5674 1.6540 1.9583 239.76 0.18185 8.9535 0.022065
54.375 120.09 undefined 607.84 663.04 2.5725 15.000 0.066667 607.84 663.04 2.5725 1.6580 1.9612 240.24 0.18000 8.9818 0.022189 15.000 0.066667 607.84 663.04 2.5725 1.6580 1.9612 240.24 0.18000 8.9818 0.022189
55.375 120.55 undefined 609.50 664.91 2.5775 15.000 0.066667 609.50 664.91 2.5775 1.6620 1.9642 240.71 0.17817 9.0100 0.022313 15.000 0.066667 609.50 664.91 2.5775 1.6620 1.9642 240.71 0.17817 9.0100 0.022313
56.375 121.01 undefined 611.16 666.79 2.5826 15.000 0.066667 611.16 666.79 2.5826 1.6661 1.9673 241.19 0.17638 9.0383 0.022438 15.000 0.066667 611.16 666.79 2.5826 1.6661 1.9673 241.19 0.17638 9.0383 0.022438
57.375 121.47 undefined 612.83 668.67 2.5876 15.000 0.066667 612.83 668.67 2.5876 1.6701 1.9703 241.66 0.17461 9.0665 0.022563 15.000 0.066667 612.83 668.67 2.5876 1.6701 1.9703 241.66 0.17461 9.0665 0.022563
58.375 121.94 undefined 614.50 670.55 2.5927 15.000 0.066667 614.50 670.55 2.5927 1.6741 1.9734 242.13 0.17286 9.0947 0.022688 15.000 0.066667 614.50 670.55 2.5927 1.6741 1.9734 242.13 0.17286 9.0947 0.022688
59.375 122.40 undefined 616.18 672.44 2.5977 15.000 0.066667 616.18 672.44 2.5977 1.6782 1.9765 242.60 0.17114 9.1229 0.022814 15.000 0.066667 616.18 672.44 2.5977 1.6782 1.9765 242.60 0.17114 9.1229 0.022814
60.375 122.86 undefined 617.86 674.33 2.6028 15.000 0.066667 617.86 674.33 2.6028 1.6822 1.9796 243.07 0.16945 9.1510 0.022940 15.000 0.066667 617.86 674.33 2.6028 1.6822 1.9796 243.07 0.16945 9.1510 0.022940
61.375 123.32 undefined 619.54 676.23 2.6078 15.000 0.066667 619.54 676.23 2.6078 1.6863 1.9827 243.54 0.16777 9.1792 0.023066 15.000 0.066667 619.54 676.23 2.6078 1.6863 1.9827 243.54 0.16777 9.1792 0.023066
62.375 123.78 undefined 621.23 678.13 2.6129 15.000 0.066667 621.23 678.13 2.6129 1.6904 1.9859 244.00 0.16613 9.2073 0.023192 15.000 0.066667 621.23 678.13 2.6129 1.6904 1.9859 244.00 0.16613 9.2073 0.023192
63.375 124.24 undefined 622.92 680.03 2.6179 15.000 0.066667 622.92 680.03 2.6179 1.6945 1.9891 244.47 0.16450 9.2354 0.023319 15.000 0.066667 622.92 680.03 2.6179 1.6945 1.9891 244.47 0.16450 9.2354 0.023319
64.375 124.70 undefined 624.62 681.94 2.6229 15.000 0.066667 624.62 681.94 2.6229 1.6985 1.9923 244.93 0.16290 9.2634 0.023446 15.000 0.066667 624.62 681.94 2.6229 1.6985 1.9923 244.93 0.16290 9.2634 0.023446
65.375 125.15 undefined 626.32 683.85 2.6280 15.000 0.066667 626.32 683.85 2.6280 1.7026 1.9955 245.39 0.16132 9.2915 0.023574 15.000 0.066667 626.32 683.85 2.6280 1.7026 1.9955 245.39 0.16132 9.2915 0.023574
66.375 125.61 undefined 628.03 685.76 2.6330 15.000 0.066667 628.03 685.76 2.6330 1.7067 1.9987 245.85 0.15976 9.3195 0.023701 15.000 0.066667 628.03 685.76 2.6330 1.7067 1.9987 245.85 0.15976 9.3195 0.023701
67.375 126.07 undefined 629.73 687.68 2.6380 15.000 0.066667 629.73 687.68 2.6380 1.7108 2.0020 246.31 0.15822 9.3475 0.023829 15.000 0.066667 629.73 687.68 2.6380 1.7108 2.0020 246.31 0.15822 9.3475 0.023829
68.375 126.53 undefined 631.45 689.61 2.6430 15.000 0.066667 631.45 689.61 2.6430 1.7149 2.0052 246.77 0.15671 9.3755 0.023958 15.000 0.066667 631.45 689.61 2.6430 1.7149 2.0052 246.77 0.15671 9.3755 0.023958
69.375 126.99 undefined 633.16 691.53 2.6481 15.000 0.066667 633.16 691.53 2.6481 1.7190 2.0085 247.23 0.15521 9.4035 0.024086 15.000 0.066667 633.16 691.53 2.6481 1.7190 2.0085 247.23 0.15521 9.4035 0.024086
70.375 127.44 undefined 634.88 693.46 2.6531 15.000 0.066667 634.88 693.46 2.6531 1.7231 2.0118 247.68 0.15374 9.4314 0.024215 15.000 0.066667 634.88 693.46 2.6531 1.7231 2.0118 247.68 0.15374 9.4314 0.024215
71.375 127.90 undefined 636.61 695.40 2.6581 15.000 0.066667 636.61 695.40 2.6581 1.7273 2.0152 248.14 0.15228 9.4594 0.024344 15.000 0.066667 636.61 695.40 2.6581 1.7273 2.0152 248.14 0.15228 9.4594 0.024344
72.375 128.36 undefined 638.34 697.34 2.6631 15.000 0.066667 638.34 697.34 2.6631 1.7314 2.0185 248.59 0.15085 9.4873 0.024474 15.000 0.066667 638.34 697.34 2.6631 1.7314 2.0185 248.59 0.15085 9.4873 0.024474
73.375 128.81 undefined 640.07 699.28 2.6681 15.000 0.066667 640.07 699.28 2.6681 1.7355 2.0219 249.04 0.14944 9.5152 0.024604 15.000 0.066667 640.07 699.28 2.6681 1.7355 2.0219 249.04 0.14944 9.5152 0.024604
74.375 129.27 undefined 641.81 701.23 2.6731 15.000 0.066667 641.81 701.23 2.6731 1.7397 2.0252 249.49 0.14804 9.5430 0.024734 15.000 0.066667 641.81 701.23 2.6731 1.7397 2.0252 249.49 0.14804 9.5430 0.024734
75.375 129.73 undefined 643.55 703.18 2.6781 15.000 0.066667 643.55 703.18 2.6781 1.7438 2.0286 249.94 0.14666 9.5709 0.024864 15.000 0.066667 643.55 703.18 2.6781 1.7438 2.0286 249.94 0.14666 9.5709 0.024864
76.375 130.18 undefined 645.30 705.14 2.6831 15.000 0.066667 645.30 705.14 2.6831 1.7479 2.0320 250.39 0.14530 9.5987 0.024995 15.000 0.066667 645.30 705.14 2.6831 1.7479 2.0320 250.39 0.14530 9.5987 0.024995
77.375 130.64 undefined 647.05 707.10 2.6881 15.000 0.066667 647.05 707.10 2.6881 1.7521 2.0354 250.84 0.14396 9.6265 0.025126 15.000 0.066667 647.05 707.10 2.6881 1.7521 2.0354 250.84 0.14396 9.6265 0.025126
78.375 131.09 undefined 648.80 709.06 2.6931 15.000 0.066667 648.80 709.06 2.6931 1.7562 2.0389 251.28 0.14264 9.6543 0.025257 15.000 0.066667 648.80 709.06 2.6931 1.7562 2.0389 251.28 0.14264 9.6543 0.025257
79.375 131.55 undefined 650.56 711.03 2.6981 15.000 0.066667 650.56 711.03 2.6981 1.7604 2.0423 251.73 0.14133 9.6821 0.025389 15.000 0.066667 650.56 711.03 2.6981 1.7604 2.0423 251.73 0.14133 9.6821 0.025389
80.375 132.00 undefined 652.32 713.00 2.7031 15.000 0.066667 652.32 713.00 2.7031 1.7645 2.0458 252.17 0.14004 9.7098 0.025521 15.000 0.066667 652.32 713.00 2.7031 1.7645 2.0458 252.17 0.14004 9.7098 0.025521
81.375 132.46 undefined 654.09 714.97 2.7081 15.000 0.066667 654.09 714.97 2.7081 1.7687 2.0492 252.61 0.13877 9.7376 0.025653 15.000 0.066667 654.09 714.97 2.7081 1.7687 2.0492 252.61 0.13877 9.7376 0.025653
82.375 132.91 undefined 655.86 716.95 2.7131 15.000 0.066667 655.86 716.95 2.7131 1.7729 2.0527 253.06 0.13752 9.7653 0.025785 15.000 0.066667 655.86 716.95 2.7131 1.7729 2.0527 253.06 0.13752 9.7653 0.025785
83.375 133.36 undefined 657.64 718.94 2.7181 15.000 0.066667 657.64 718.94 2.7181 1.7770 2.0562 253.50 0.13628 9.7930 0.025918 15.000 0.066667 657.64 718.94 2.7181 1.7770 2.0562 253.50 0.13628 9.7930 0.025918
84.375 133.82 undefined 659.41 720.92 2.7231 15.000 0.066667 659.41 720.92 2.7231 1.7812 2.0597 253.94 0.13506 9.8206 0.026051 15.000 0.066667 659.41 720.92 2.7231 1.7812 2.0597 253.94 0.13506 9.8206 0.026051
85.375 134.27 undefined 661.20 722.92 2.7280 15.000 0.066667 661.20 722.92 2.7280 1.7854 2.0632 254.38 0.13385 9.8483 0.026185 15.000 0.066667 661.20 722.92 2.7280 1.7854 2.0632 254.38 0.13385 9.8483 0.026185
86.375 134.72 undefined 662.99 724.91 2.7330 15.000 0.066667 662.99 724.91 2.7330 1.7896 2.0667 254.81 0.13266 9.8759 0.026318 15.000 0.066667 662.99 724.91 2.7330 1.7896 2.0667 254.81 0.13266 9.8759 0.026318
87.375 135.18 undefined 664.78 726.91 2.7380 15.000 0.066667 664.78 726.91 2.7380 1.7937 2.0703 255.25 0.13148 9.9035 0.026452 15.000 0.066667 664.78 726.91 2.7380 1.7937 2.0703 255.25 0.13148 9.9035 0.026452
88.375 135.63 undefined 666.57 728.91 2.7430 15.000 0.066667 666.57 728.91 2.7430 1.7979 2.0738 255.69 0.13032 9.9311 0.026587 15.000 0.066667 666.57 728.91 2.7430 1.7979 2.0738 255.69 0.13032 9.9311 0.026587
89.375 136.08 undefined 668.37 730.92 2.7479 15.000 0.066667 668.37 730.92 2.7479 1.8021 2.0774 256.12 0.12918 9.9587 0.026721 15.000 0.066667 668.37 730.92 2.7479 1.8021 2.0774 256.12 0.12918 9.9587 0.026721
90.375 136.53 undefined 670.18 732.93 2.7529 15.000 0.066667 670.18 732.93 2.7529 1.8063 2.0810 256.55 0.12805 9.9862 0.026856 15.000 0.066667 670.18 732.93 2.7529 1.8063 2.0810 256.55 0.12805 9.9862 0.026856
91.375 136.98 undefined 671.99 734.95 2.7579 15.000 0.066667 671.99 734.95 2.7579 1.8105 2.0846 256.99 0.12693 10.014 0.026991 15.000 0.066667 671.99 734.95 2.7579 1.8105 2.0846 256.99 0.12693 10.014 0.026991
92.375 137.44 undefined 673.80 736.97 2.7628 15.000 0.066667 673.80 736.97 2.7628 1.8147 2.0882 257.42 0.12583 10.041 0.027127 15.000 0.066667 673.80 736.97 2.7628 1.8147 2.0882 257.42 0.12583 10.041 0.027127
93.375 137.89 undefined 675.61 739.00 2.7678 15.000 0.066667 675.61 739.00 2.7678 1.8189 2.0918 257.85 0.12474 10.069 0.027262 15.000 0.066667 675.61 739.00 2.7678 1.8189 2.0918 257.85 0.12474 10.069 0.027262
94.375 138.34 undefined 677.44 741.02 2.7728 15.000 0.066667 677.44 741.02 2.7728 1.8230 2.0954 258.28 0.12366 10.096 0.027398 15.000 0.066667 677.44 741.02 2.7728 1.8230 2.0954 258.28 0.12366 10.096 0.027398
95.375 138.79 undefined 679.26 743.06 2.7777 15.000 0.066667 679.26 743.06 2.7777 1.8272 2.0990 258.71 0.12260 10.124 0.027535 15.000 0.066667 679.26 743.06 2.7777 1.8272 2.0990 258.71 0.12260 10.124 0.027535
96.375 139.24 undefined 681.09 745.09 2.7827 15.000 0.066667 681.09 745.09 2.7827 1.8314 2.1026 259.14 0.12155 10.151 0.027671 15.000 0.066667 681.09 745.09 2.7827 1.8314 2.1026 259.14 0.12155 10.151 0.027671
97.375 139.69 undefined 682.92 747.13 2.7876 15.000 0.066667 682.92 747.13 2.7876 1.8356 2.1063 259.56 0.12052 10.179 0.027808 15.000 0.066667 682.92 747.13 2.7876 1.8356 2.1063 259.56 0.12052 10.179 0.027808
98.375 140.14 undefined 684.76 749.18 2.7926 15.000 0.066667 684.76 749.18 2.7926 1.8398 2.1099 259.99 0.11949 10.206 0.027946 15.000 0.066667 684.76 749.18 2.7926 1.8398 2.1099 259.99 0.11949 10.206 0.027946
99.375 140.59 undefined 686.60 751.23 2.7975 15.000 0.066667 686.60 751.23 2.7975 1.8440 2.1136 260.41 0.11848 10.233 0.028083 15.000 0.066667 686.60 751.23 2.7975 1.8440 2.1136 260.41 0.11848 10.233 0.028083
100.38 141.04 undefined 688.45 753.28 2.8025 15.000 0.066667 688.45 753.28 2.8025 1.8482 2.1172 260.84 0.11749 10.261 0.028221 15.000 0.066667 688.45 753.28 2.8025 1.8482 2.1172 260.84 0.11749 10.261 0.028221
101.38 141.49 undefined 690.30 755.34 2.8074 15.000 0.066667 690.30 755.34 2.8074 1.8524 2.1209 261.26 0.11650 10.288 0.028359 15.000 0.066667 690.30 755.34 2.8074 1.8524 2.1209 261.26 0.11650 10.288 0.028359
102.38 141.94 undefined 692.15 757.40 2.8124 15.000 0.066667 692.15 757.40 2.8124 1.8567 2.1246 261.68 0.11553 10.315 0.028497 15.000 0.066667 692.15 757.40 2.8124 1.8567 2.1246 261.68 0.11553 10.315 0.028497
103.38 142.39 undefined 694.01 759.46 2.8173 15.000 0.066667 694.01 759.46 2.8173 1.8609 2.1283 262.10 0.11457 10.343 0.028636 15.000 0.066667 694.01 759.46 2.8173 1.8609 2.1283 262.10 0.11457 10.343 0.028636
104.38 142.84 undefined 695.88 761.53 2.8223 15.000 0.066667 695.88 761.53 2.8223 1.8651 2.1320 262.52 0.11362 10.370 0.028775 15.000 0.066667 695.88 761.53 2.8223 1.8651 2.1320 262.52 0.11362 10.370 0.028775
105.38 143.29 undefined 697.74 763.61 2.8272 15.000 0.066667 697.74 763.61 2.8272 1.8693 2.1357 262.94 0.11268 10.397 0.028914 15.000 0.066667 697.74 763.61 2.8272 1.8693 2.1357 262.94 0.11268 10.397 0.028914
106.38 143.74 undefined 699.61 765.68 2.8322 15.000 0.066667 699.61 765.68 2.8322 1.8735 2.1394 263.36 0.11175 10.424 0.029054 15.000 0.066667 699.61 765.68 2.8322 1.8735 2.1394 263.36 0.11175 10.424 0.029054
107.38 144.19 undefined 701.49 767.77 2.8371 15.000 0.066667 701.49 767.77 2.8371 1.8777 2.1431 263.78 0.11084 10.451 0.029194 15.000 0.066667 701.49 767.77 2.8371 1.8777 2.1431 263.78 0.11084 10.451 0.029194
108.38 144.64 undefined 703.37 769.85 2.8420 15.000 0.066667 703.37 769.85 2.8420 1.8819 2.1468 264.20 0.10993 10.479 0.029334 15.000 0.066667 703.37 769.85 2.8420 1.8819 2.1468 264.20 0.10993 10.479 0.029334
109.38 145.08 undefined 705.25 771.94 2.8470 15.000 0.066667 705.25 771.94 2.8470 1.8861 2.1505 264.61 0.10904 10.506 0.029474 15.000 0.066667 705.25 771.94 2.8470 1.8861 2.1505 264.61 0.10904 10.506 0.029474
110.38 145.53 undefined 707.14 774.04 2.8519 15.000 0.066667 707.14 774.04 2.8519 1.8903 2.1543 265.03 0.10815 10.533 0.029615 15.000 0.066667 707.14 774.04 2.8519 1.8903 2.1543 265.03 0.10815 10.533 0.029615
111.38 145.98 undefined 709.03 776.13 2.8568 15.000 0.066667 709.03 776.13 2.8568 1.8945 2.1580 265.44 0.10728 10.560 0.029756 15.000 0.066667 709.03 776.13 2.8568 1.8945 2.1580 265.44 0.10728 10.560 0.029756
112.38 146.43 undefined 710.93 778.24 2.8617 15.000 0.066667 710.93 778.24 2.8617 1.8987 2.1618 265.86 0.10642 10.587 0.029898 15.000 0.066667 710.93 778.24 2.8617 1.8987 2.1618 265.86 0.10642 10.587 0.029898
113.38 146.88 undefined 712.83 780.34 2.8667 15.000 0.066667 712.83 780.34 2.8667 1.9029 2.1655 266.27 0.10557 10.614 0.030039 15.000 0.066667 712.83 780.34 2.8667 1.9029 2.1655 266.27 0.10557 10.614 0.030039
114.38 147.32 undefined 714.74 782.45 2.8716 15.000 0.066667 714.74 782.45 2.8716 1.9072 2.1693 266.68 0.10472 10.641 0.030181 15.000 0.066667 714.74 782.45 2.8716 1.9072 2.1693 266.68 0.10472 10.641 0.030181
115.38 147.77 undefined 716.65 784.57 2.8765 15.000 0.066667 716.65 784.57 2.8765 1.9114 2.1730 267.09 0.10389 10.668 0.030323 15.000 0.066667 716.65 784.57 2.8765 1.9114 2.1730 267.09 0.10389 10.668 0.030323
116.38 148.22 undefined 718.56 786.69 2.8814 15.000 0.066667 718.56 786.69 2.8814 1.9156 2.1768 267.51 0.10307 10.695 0.030466 15.000 0.066667 718.56 786.69 2.8814 1.9156 2.1768 267.51 0.10307 10.695 0.030466
117.38 148.66 undefined 720.48 788.81 2.8863 15.000 0.066667 720.48 788.81 2.8863 1.9198 2.1806 267.91 0.10225 10.722 0.030609 15.000 0.066667 720.48 788.81 2.8863 1.9198 2.1806 267.91 0.10225 10.722 0.030609
118.38 149.11 undefined 722.40 790.94 2.8913 15.000 0.066667 722.40 790.94 2.8913 1.9240 2.1844 268.32 0.10145 10.749 0.030752 15.000 0.066667 722.40 790.94 2.8913 1.9240 2.1844 268.32 0.10145 10.749 0.030752
119.38 149.56 undefined 724.33 793.07 2.8962 15.000 0.066667 724.33 793.07 2.8962 1.9282 2.1881 268.73 0.10066 10.776 0.030895 15.000 0.066667 724.33 793.07 2.8962 1.9282 2.1881 268.73 0.10066 10.776 0.030895
120.38 150.00 undefined 726.26 795.21 2.9011 15.000 0.066667 726.26 795.21 2.9011 1.9324 2.1919 269.14 0.099870 10.803 0.031039 15.000 0.066667 726.26 795.21 2.9011 1.9324 2.1919 269.14 0.099870 10.803 0.031039
121.38 150.45 undefined 728.19 797.35 2.9060 15.000 0.066667 728.19 797.35 2.9060 1.9366 2.1957 269.55 0.099094 10.830 0.031183 15.000 0.066667 728.19 797.35 2.9060 1.9366 2.1957 269.55 0.099094 10.830 0.031183
122.38 150.90 undefined 730.13 799.49 2.9109 15.000 0.066667 730.13 799.49 2.9109 1.9408 2.1995 269.95 0.098326 10.857 0.031327 15.000 0.066667 730.13 799.49 2.9109 1.9408 2.1995 269.95 0.098326 10.857 0.031327
123.38 151.34 undefined 732.07 801.64 2.9158 15.000 0.066667 732.07 801.64 2.9158 1.9450 2.2033 270.36 0.097568 10.884 0.031472 15.000 0.066667 732.07 801.64 2.9158 1.9450 2.2033 270.36 0.097568 10.884 0.031472
124.38 151.79 undefined 734.02 803.79 2.9207 15.000 0.066667 734.02 803.79 2.9207 1.9492 2.2071 270.76 0.096818 10.911 0.031617 15.000 0.066667 734.02 803.79 2.9207 1.9492 2.2071 270.76 0.096818 10.911 0.031617
125.38 152.24 undefined 735.97 805.95 2.9256 15.000 0.066667 735.97 805.95 2.9256 1.9534 2.2109 271.16 0.096076 10.938 0.031762 15.000 0.066667 735.97 805.95 2.9256 1.9534 2.2109 271.16 0.096076 10.938 0.031762
126.38 152.68 undefined 737.93 808.11 2.9305 15.000 0.066667 737.93 808.11 2.9305 1.9576 2.2147 271.57 0.095343 10.965 0.031907 15.000 0.066667 737.93 808.11 2.9305 1.9576 2.2147 271.57 0.095343 10.965 0.031907
127.38 153.13 undefined 739.89 810.27 2.9354 15.000 0.066667 739.89 810.27 2.9354 1.9618 2.2185 271.97 0.094618 10.991 0.032053 15.000 0.066667 739.89 810.27 2.9354 1.9618 2.2185 271.97 0.094618 10.991 0.032053
128.38 153.57 undefined 741.85 812.44 2.9403 15.000 0.066667 741.85 812.44 2.9403 1.9661 2.2224 272.37 0.093901 11.018 0.032199 15.000 0.066667 741.85 812.44 2.9403 1.9661 2.2224 272.37 0.093901 11.018 0.032199
129.38 154.02 undefined 743.82 814.61 2.9452 15.000 0.066667 743.82 814.61 2.9452 1.9703 2.2262 272.77 0.093192 11.045 0.032346 15.000 0.066667 743.82 814.61 2.9452 1.9703 2.2262 272.77 0.093192 11.045 0.032346
130.38 154.46 undefined 745.79 816.79 2.9501 15.000 0.066667 745.79 816.79 2.9501 1.9745 2.2300 273.17 0.092491 11.072 0.032492 15.000 0.066667 745.79 816.79 2.9501 1.9745 2.2300 273.17 0.092491 11.072 0.032492
131.38 154.91 undefined 747.77 818.97 2.9550 15.000 0.066667 747.77 818.97 2.9550 1.9786 2.2338 273.57 0.091798 11.098 0.032639 15.000 0.066667 747.77 818.97 2.9550 1.9786 2.2338 273.57 0.091798 11.098 0.032639
132.38 155.35 undefined 749.75 821.16 2.9599 15.000 0.066667 749.75 821.16 2.9599 1.9828 2.2377 273.97 0.091113 11.125 0.032786 15.000 0.066667 749.75 821.16 2.9599 1.9828 2.2377 273.97 0.091113 11.125 0.032786
133.38 155.80 undefined 751.73 823.34 2.9648 15.000 0.066667 751.73 823.34 2.9648 1.9870 2.2415 274.37 0.090435 11.152 0.032934 15.000 0.066667 751.73 823.34 2.9648 1.9870 2.2415 274.37 0.090435 11.152 0.032934
134.38 156.24 undefined 753.72 825.54 2.9697 15.000 0.066667 753.72 825.54 2.9697 1.9912 2.2453 274.76 0.089765 11.178 0.033082 15.000 0.066667 753.72 825.54 2.9697 1.9912 2.2453 274.76 0.089765 11.178 0.033082
135.38 156.69 undefined 755.71 827.74 2.9745 15.000 0.066667 755.71 827.74 2.9745 1.9954 2.2492 275.16 0.089102 11.205 0.033230 15.000 0.066667 755.71 827.74 2.9745 1.9954 2.2492 275.16 0.089102 11.205 0.033230
136.38 157.13 undefined 757.71 829.94 2.9794 15.000 0.066667 757.71 829.94 2.9794 1.9996 2.2530 275.56 0.088446 11.232 0.033378 15.000 0.066667 757.71 829.94 2.9794 1.9996 2.2530 275.56 0.088446 11.232 0.033378
137.38 157.57 undefined 759.71 832.14 2.9843 15.000 0.066667 759.71 832.14 2.9843 2.0038 2.2568 275.95 0.087797 11.258 0.033527 15.000 0.066667 759.71 832.14 2.9843 2.0038 2.2568 275.95 0.087797 11.258 0.033527
138.38 158.02 undefined 761.72 834.35 2.9892 15.000 0.066667 761.72 834.35 2.9892 2.0080 2.2607 276.35 0.087156 11.285 0.033676 15.000 0.066667 761.72 834.35 2.9892 2.0080 2.2607 276.35 0.087156 11.285 0.033676
139.38 158.46 undefined 763.73 836.57 2.9941 15.000 0.066667 763.73 836.57 2.9941 2.0122 2.2645 276.74 0.086521 11.311 0.033825 15.000 0.066667 763.73 836.57 2.9941 2.0122 2.2645 276.74 0.086521 11.311 0.033825
140.38 158.91 undefined 765.74 838.79 2.9989 15.000 0.066667 765.74 838.79 2.9989 2.0164 2.2684 277.13 0.085893 11.338 0.033975 15.000 0.066667 765.74 838.79 2.9989 2.0164 2.2684 277.13 0.085893 11.338 0.033975
141.38 159.35 undefined 767.76 841.01 3.0038 15.000 0.066667 767.76 841.01 3.0038 2.0205 2.2722 277.52 0.085272 11.365 0.034125 15.000 0.066667 767.76 841.01 3.0038 2.0205 2.2722 277.52 0.085272 11.365 0.034125
142.38 159.79 undefined 769.79 843.23 3.0087 15.000 0.066667 769.79 843.23 3.0087 2.0247 2.2761 277.92 0.084658 11.391 0.034275 15.000 0.066667 769.79 843.23 3.0087 2.0247 2.2761 277.92 0.084658 11.391 0.034275
143.38 160.24 undefined 771.81 845.47 3.0136 15.000 0.066667 771.81 845.47 3.0136 2.0289 2.2799 278.31 0.084050 11.418 0.034425 15.000 0.066667 771.81 845.47 3.0136 2.0289 2.2799 278.31 0.084050 11.418 0.034425
144.38 160.68 undefined 773.84 847.70 3.0184 15.000 0.066667 773.84 847.70 3.0184 2.0331 2.2838 278.70 0.083449 11.444 0.034576 15.000 0.066667 773.84 847.70 3.0184 2.0331 2.2838 278.70 0.083449 11.444 0.034576
145.38 161.12 undefined 775.88 849.94 3.0233 15.000 0.066667 775.88 849.94 3.0233 2.0372 2.2876 279.09 0.082854 11.470 0.034727 15.000 0.066667 775.88 849.94 3.0233 2.0372 2.2876 279.09 0.082854 11.470 0.034727
146.38 161.57 undefined 777.92 852.18 3.0282 15.000 0.066667 777.92 852.18 3.0282 2.0414 2.2915 279.48 0.082265 11.497 0.034878 15.000 0.066667 777.92 852.18 3.0282 2.0414 2.2915 279.48 0.082265 11.497 0.034878
147.38 162.01 undefined 779.96 854.43 3.0330 15.000 0.066667 779.96 854.43 3.0330 2.0456 2.2953 279.86 0.081683 11.523 0.035030 15.000 0.066667 779.96 854.43 3.0330 2.0456 2.2953 279.86 0.081683 11.523 0.035030
148.38 162.45 undefined 782.01 856.68 3.0379 15.000 0.066667 782.01 856.68 3.0379 2.0498 2.2992 280.25 0.081106 11.550 0.035182 15.000 0.066667 782.01 856.68 3.0379 2.0498 2.2992 280.25 0.081106 11.550 0.035182
149.38 162.89 undefined 784.06 858.94 3.0428 15.000 0.066667 784.06 858.94 3.0428 2.0539 2.3030 280.64 0.080536 11.576 0.035334 15.000 0.066667 784.06 858.94 3.0428 2.0539 2.3030 280.64 0.080536 11.576 0.035334
150.38 163.34 undefined 786.12 861.20 3.0476 15.000 0.066667 786.12 861.20 3.0476 2.0581 2.3069 281.03 0.079972 11.602 0.035487 15.000 0.066667 786.12 861.20 3.0476 2.0581 2.3069 281.03 0.079972 11.602 0.035487
151.38 163.78 undefined 788.18 863.46 3.0525 15.000 0.066667 788.18 863.46 3.0525 2.0622 2.3108 281.41 0.079413 11.629 0.035640 15.000 0.066667 788.18 863.46 3.0525 2.0622 2.3108 281.41 0.079413 11.629 0.035640
152.38 164.22 undefined 790.24 865.73 3.0573 15.000 0.066667 790.24 865.73 3.0573 2.0664 2.3146 281.80 0.078861 11.655 0.035793 15.000 0.066667 790.24 865.73 3.0573 2.0664 2.3146 281.80 0.078861 11.655 0.035793
153.38 164.67 undefined 792.31 868.00 3.0622 15.000 0.066667 792.31 868.00 3.0622 2.0705 2.3185 282.18 0.078314 11.681 0.035946 15.000 0.066667 792.31 868.00 3.0622 2.0705 2.3185 282.18 0.078314 11.681 0.035946
154.38 165.11 undefined 794.38 870.27 3.0670 15.000 0.066667 794.38 870.27 3.0670 2.0747 2.3223 282.57 0.077773 11.707 0.036100 15.000 0.066667 794.38 870.27 3.0670 2.0747 2.3223 282.57 0.077773 11.707 0.036100
155.38 165.55 undefined 796.46 872.55 3.0719 15.000 0.066667 796.46 872.55 3.0719 2.0788 2.3262 282.95 0.077237 11.734 0.036254 15.000 0.066667 796.46 872.55 3.0719 2.0788 2.3262 282.95 0.077237 11.734 0.036254
156.38 165.99 undefined 798.54 874.84 3.0767 15.000 0.066667 798.54 874.84 3.0767 2.0830 2.3301 283.33 0.076707 11.760 0.036408 15.000 0.066667 798.54 874.84 3.0767 2.0830 2.3301 283.33 0.076707 11.760 0.036408
157.38 166.43 undefined 800.63 877.13 3.0816 15.000 0.066667 800.63 877.13 3.0816 2.0871 2.3339 283.71 0.076182 11.786 0.036562 15.000 0.066667 800.63 877.13 3.0816 2.0871 2.3339 283.71 0.076182 11.786 0.036562
158.38 166.88 undefined 802.71 879.42 3.0864 15.000 0.066667 802.71 879.42 3.0864 2.0913 2.3378 284.10 0.075662 11.812 0.036717 15.000 0.066667 802.71 879.42 3.0864 2.0913 2.3378 284.10 0.075662 11.812 0.036717
159.38 167.32 undefined 804.81 881.72 3.0913 15.000 0.066667 804.81 881.72 3.0913 2.0954 2.3416 284.48 0.075148 11.838 0.036872 15.000 0.066667 804.81 881.72 3.0913 2.0954 2.3416 284.48 0.075148 11.838 0.036872
160.38 167.76 undefined 806.91 884.02 3.0961 15.000 0.066667 806.91 884.02 3.0961 2.0996 2.3455 284.86 0.074639 11.865 0.037028 15.000 0.066667 806.91 884.02 3.0961 2.0996 2.3455 284.86 0.074639 11.865 0.037028
161.38 168.20 undefined 809.01 886.32 3.1010 15.000 0.066667 809.01 886.32 3.1010 2.1037 2.3494 285.24 0.074135 11.891 0.037184 15.000 0.066667 809.01 886.32 3.1010 2.1037 2.3494 285.24 0.074135 11.891 0.037184
162.38 168.64 undefined 811.11 888.63 3.1058 15.000 0.066667 811.11 888.63 3.1058 2.1078 2.3532 285.62 0.073637 11.917 0.037340 15.000 0.066667 811.11 888.63 3.1058 2.1078 2.3532 285.62 0.073637 11.917 0.037340
163.38 169.08 undefined 813.22 890.94 3.1106 15.000 0.066667 813.22 890.94 3.1106 2.1119 2.3571 285.99 0.073143 11.943 0.037496 15.000 0.066667 813.22 890.94 3.1106 2.1119 2.3571 285.99 0.073143 11.943 0.037496
164.38 169.52 undefined 815.34 893.26 3.1155 15.000 0.066667 815.34 893.26 3.1155 2.1161 2.3609 286.37 0.072654 11.969 0.037653 15.000 0.066667 815.34 893.26 3.1155 2.1161 2.3609 286.37 0.072654 11.969 0.037653
165.38 169.97 undefined 817.45 895.58 3.1203 15.000 0.066667 817.45 895.58 3.1203 2.1202 2.3648 286.75 0.072170 11.995 0.037809 15.000 0.066667 817.45 895.58 3.1203 2.1202 2.3648 286.75 0.072170 11.995 0.037809
166.38 170.41 undefined 819.58 897.90 3.1252 15.000 0.066667 819.58 897.90 3.1252 2.1243 2.3687 287.13 0.071691 12.021 0.037967 15.000 0.066667 819.58 897.90 3.1252 2.1243 2.3687 287.13 0.071691 12.021 0.037967
167.38 170.85 undefined 821.70 900.23 3.1300 15.000 0.066667 821.70 900.23 3.1300 2.1284 2.3725 287.50 0.071216 12.047 0.038124 15.000 0.066667 821.70 900.23 3.1300 2.1284 2.3725 287.50 0.071216 12.047 0.038124
168.38 171.29 undefined 823.83 902.57 3.1348 15.000 0.066667 823.83 902.57 3.1348 2.1325 2.3764 287.88 0.070746 12.073 0.038282 15.000 0.066667 823.83 902.57 3.1348 2.1325 2.3764 287.88 0.070746 12.073 0.038282
169.38 171.73 undefined 825.97 904.90 3.1396 15.000 0.066667 825.97 904.90 3.1396 2.1366 2.3802 288.25 0.070281 12.099 0.038440 15.000 0.066667 825.97 904.90 3.1396 2.1366 2.3802 288.25 0.070281 12.099 0.038440
170.38 172.17 undefined 828.11 907.25 3.1445 15.000 0.066667 828.11 907.25 3.1445 2.1407 2.3841 288.63 0.069821 12.125 0.038598 15.000 0.066667 828.11 907.25 3.1445 2.1407 2.3841 288.63 0.069821 12.125 0.038598
171.38 172.61 undefined 830.25 909.59 3.1493 15.000 0.066667 830.25 909.59 3.1493 2.1448 2.3879 289.00 0.069364 12.151 0.038757 15.000 0.066667 830.25 909.59 3.1493 2.1448 2.3879 289.00 0.069364 12.151 0.038757
172.38 173.05 undefined 832.40 911.94 3.1541 15.000 0.066667 832.40 911.94 3.1541 2.1489 2.3918 289.38 0.068913 12.177 0.038916 15.000 0.066667 832.40 911.94 3.1541 2.1489 2.3918 289.38 0.068913 12.177 0.038916
173.38 173.49 undefined 834.55 914.29 3.1589 15.000 0.066667 834.55 914.29 3.1589 2.1530 2.3956 289.75 0.068465 12.203 0.039075 15.000 0.066667 834.55 914.29 3.1589 2.1530 2.3956 289.75 0.068465 12.203 0.039075
174.38 173.93 undefined 836.70 916.65 3.1638 15.000 0.066667 836.70 916.65 3.1638 2.1571 2.3995 290.12 0.068022 12.228 0.039235 15.000 0.066667 836.70 916.65 3.1638 2.1571 2.3995 290.12 0.068022 12.228 0.039235
175.38 174.37 undefined 838.86 919.01 3.1686 15.000 0.066667 838.86 919.01 3.1686 2.1612 2.4033 290.49 0.067584 12.254 0.039394 15.000 0.066667 838.86 919.01 3.1686 2.1612 2.4033 290.49 0.067584 12.254 0.039394
176.38 174.81 undefined 841.02 921.38 3.1734 15.000 0.066667 841.02 921.38 3.1734 2.1653 2.4072 290.87 0.067149 12.280 0.039555 15.000 0.066667 841.02 921.38 3.1734 2.1653 2.4072 290.87 0.067149 12.280 0.039555
177.38 175.25 undefined 843.19 923.75 3.1782 15.000 0.066667 843.19 923.75 3.1782 2.1694 2.4110 291.24 0.066719 12.306 0.039715 15.000 0.066667 843.19 923.75 3.1782 2.1694 2.4110 291.24 0.066719 12.306 0.039715
178.38 175.69 undefined 845.36 926.12 3.1830 15.000 0.066667 845.36 926.12 3.1830 2.1734 2.4149 291.61 0.066292 12.332 0.039876 15.000 0.066667 845.36 926.12 3.1830 2.1734 2.4149 291.61 0.066292 12.332 0.039876
179.38 176.13 undefined 847.54 928.50 3.1878 15.000 0.066667 847.54 928.50 3.1878 2.1775 2.4187 291.98 0.065870 12.357 0.040037 15.000 0.066667 847.54 928.50 3.1878 2.1775 2.4187 291.98 0.065870 12.357 0.040037
180.38 176.57 undefined 849.72 930.88 3.1927 15.000 0.066667 849.72 930.88 3.1927 2.1816 2.4225 292.35 0.065452 12.383 0.040198 15.000 0.066667 849.72 930.88 3.1927 2.1816 2.4225 292.35 0.065452 12.383 0.040198
181.38 177.01 undefined 851.90 933.27 3.1975 15.000 0.066667 851.90 933.27 3.1975 2.1856 2.4264 292.71 0.065037 12.409 0.040360 15.000 0.066667 851.90 933.27 3.1975 2.1856 2.4264 292.71 0.065037 12.409 0.040360
182.38 177.45 undefined 854.09 935.66 3.2023 15.000 0.066667 854.09 935.66 3.2023 2.1897 2.4302 293.08 0.064627 12.434 0.040521 15.000 0.066667 854.09 935.66 3.2023 2.1897 2.4302 293.08 0.064627 12.434 0.040521
183.38 177.89 undefined 856.28 938.05 3.2071 15.000 0.066667 856.28 938.05 3.2071 2.1937 2.4341 293.45 0.064220 12.460 0.040684 15.000 0.066667 856.28 938.05 3.2071 2.1937 2.4341 293.45 0.064220 12.460 0.040684
184.38 178.33 undefined 858.48 940.45 3.2119 15.000 0.066667 858.48 940.45 3.2119 2.1978 2.4379 293.82 0.063818 12.486 0.040846 15.000 0.066667 858.48 940.45 3.2119 2.1978 2.4379 293.82 0.063818 12.486 0.040846
185.38 178.77 undefined 860.68 942.85 3.2167 15.000 0.066667 860.68 942.85 3.2167 2.2018 2.4417 294.18 0.063419 12.511 0.041009 15.000 0.066667 860.68 942.85 3.2167 2.2018 2.4417 294.18 0.063419 12.511 0.041009
186.38 179.21 undefined 862.88 945.26 3.2215 15.000 0.066667 862.88 945.26 3.2215 2.2059 2.4455 294.55 0.063023 12.537 0.041172 15.000 0.066667 862.88 945.26 3.2215 2.2059 2.4455 294.55 0.063023 12.537 0.041172
187.38 179.65 undefined 865.09 947.67 3.2263 15.000 0.066667 865.09 947.67 3.2263 2.2099 2.4494 294.92 0.062632 12.563 0.041335 15.000 0.066667 865.09 947.67 3.2263 2.2099 2.4494 294.92 0.062632 12.563 0.041335
188.38 180.09 undefined 867.30 950.08 3.2311 15.000 0.066667 867.30 950.08 3.2311 2.2140 2.4532 295.28 0.062244 12.588 0.041499 15.000 0.066667 867.30 950.08 3.2311 2.2140 2.4532 295.28 0.062244 12.588 0.041499
189.38 180.53 undefined 869.52 952.50 3.2359 15.000 0.066667 869.52 952.50 3.2359 2.2180 2.4570 295.65 0.061859 12.614 0.041663 15.000 0.066667 869.52 952.50 3.2359 2.2180 2.4570 295.65 0.061859 12.614 0.041663
190.38 180.97 undefined 871.74 954.92 3.2407 15.000 0.066667 871.74 954.92 3.2407 2.2220 2.4608 296.01 0.061478 12.639 0.041827 15.000 0.066667 871.74 954.92 3.2407 2.2220 2.4608 296.01 0.061478 12.639 0.041827
191.38 181.41 undefined 873.96 957.35 3.2455 15.000 0.066667 873.96 957.35 3.2455 2.2260 2.4647 296.37 0.061101 12.665 0.041991 15.000 0.066667 873.96 957.35 3.2455 2.2260 2.4647 296.37 0.061101 12.665 0.041991
192.38 181.85 undefined 876.19 959.78 3.2503 15.000 0.066667 876.19 959.78 3.2503 2.2301 2.4685 296.74 0.060727 12.690 0.042156 15.000 0.066667 876.19 959.78 3.2503 2.2301 2.4685 296.74 0.060727 12.690 0.042156
193.38 182.29 undefined 878.42 962.21 3.2551 15.000 0.066667 878.42 962.21 3.2551 2.2341 2.4723 297.10 0.060356 12.716 0.042321 15.000 0.066667 878.42 962.21 3.2551 2.2341 2.4723 297.10 0.060356 12.716 0.042321
194.38 182.73 undefined 880.66 964.65 3.2598 15.000 0.066667 880.66 964.65 3.2598 2.2381 2.4761 297.46 0.059989 12.741 0.042487 15.000 0.066667 880.66 964.65 3.2598 2.2381 2.4761 297.46 0.059989 12.741 0.042487
195.38 183.17 undefined 882.90 967.09 3.2646 15.000 0.066667 882.90 967.09 3.2646 2.2421 2.4799 297.82 0.059625 12.767 0.042652 15.000 0.066667 882.90 967.09 3.2646 2.2421 2.4799 297.82 0.059625 12.767 0.042652
196.38 183.60 undefined 885.14 969.54 3.2694 15.000 0.066667 885.14 969.54 3.2694 2.2461 2.4837 298.18 0.059264 12.792 0.042818 15.000 0.066667 885.14 969.54 3.2694 2.2461 2.4837 298.18 0.059264 12.792 0.042818
197.38 184.04 undefined 887.39 971.99 3.2742 15.000 0.066667 887.39 971.99 3.2742 2.2501 2.4875 298.55 0.058907 12.817 0.042984 15.000 0.066667 887.39 971.99 3.2742 2.2501 2.4875 298.55 0.058907 12.817 0.042984
198.38 184.48 undefined 889.64 974.44 3.2790 15.000 0.066667 889.64 974.44 3.2790 2.2541 2.4913 298.91 0.058552 12.843 0.043151 15.000 0.066667 889.64 974.44 3.2790 2.2541 2.4913 298.91 0.058552 12.843 0.043151
199.38 184.92 undefined 891.90 976.90 3.2838 15.000 0.066667 891.90 976.90 3.2838 2.2581 2.4951 299.27 0.058201 12.868 0.043318 15.000 0.066667 891.90 976.90 3.2838 2.2581 2.4951 299.27 0.058201 12.868 0.043318
200.38 185.36 undefined 894.16 979.36 3.2885 15.000 0.066667 894.16 979.36 3.2885 2.2621 2.4989 299.62 0.057853 12.893 0.043485 15.000 0.066667 894.16 979.36 3.2885 2.2621 2.4989 299.62 0.057853 12.893 0.043485
201.38 185.80 undefined 896.42 981.82 3.2933 15.000 0.066667 896.42 981.82 3.2933 2.2661 2.5027 299.98 0.057508 12.919 0.043652 15.000 0.066667 896.42 981.82 3.2933 2.2661 2.5027 299.98 0.057508 12.919 0.043652
202.38 186.24 undefined 898.69 984.29 3.2981 15.000 0.066667 898.69 984.29 3.2981 2.2700 2.5065 300.34 0.057166 12.944 0.043820 15.000 0.066667 898.69 984.29 3.2981 2.2700 2.5065 300.34 0.057166 12.944 0.043820
203.38 186.67 undefined 900.96 986.77 3.3029 15.000 0.066667 900.96 986.77 3.3029 2.2740 2.5103 300.70 0.056827 12.969 0.043988 15.000 0.066667 900.96 986.77 3.3029 2.2740 2.5103 300.70 0.056827 12.969 0.043988
204.38 187.11 undefined 903.24 989.24 3.3076 15.000 0.066667 903.24 989.24 3.3076 2.2780 2.5141 301.06 0.056492 12.994 0.044156 15.000 0.066667 903.24 989.24 3.3076 2.2780 2.5141 301.06 0.056492 12.994 0.044156
205.38 187.55 undefined 905.52 991.73 3.3124 15.000 0.066667 905.52 991.73 3.3124 2.2819 2.5179 301.41 0.056159 13.020 0.044325 15.000 0.066667 905.52 991.73 3.3124 2.2819 2.5179 301.41 0.056159 13.020 0.044325
206.38 187.99 undefined 907.80 994.21 3.3172 15.000 0.066667 907.80 994.21 3.3172 2.2859 2.5216 301.77 0.055828 13.045 0.044494 15.000 0.066667 907.80 994.21 3.3172 2.2859 2.5216 301.77 0.055828 13.045 0.044494
207.38 188.43 undefined 910.09 996.70 3.3219 15.000 0.066667 910.09 996.70 3.3219 2.2899 2.5254 302.13 0.055501 13.070 0.044663 15.000 0.066667 910.09 996.70 3.3219 2.2899 2.5254 302.13 0.055501 13.070 0.044663
208.38 188.87 undefined 912.38 999.19 3.3267 15.000 0.066667 912.38 999.19 3.3267 2.2938 2.5292 302.48 0.055177 13.095 0.044832 15.000 0.066667 912.38 999.19 3.3267 2.2938 2.5292 302.48 0.055177 13.095 0.044832
209.38 189.30 undefined 914.68 1001.7 3.3315 15.000 0.066667 914.68 1001.7 3.3315 2.2978 2.5330 302.84 0.054855 13.120 0.045002 15.000 0.066667 914.68 1001.7 3.3315 2.2978 2.5330 302.84 0.054855 13.120 0.045002
210.38 189.74 undefined 916.98 1004.2 3.3362 15.000 0.066667 916.98 1004.2 3.3362 2.3017 2.5367 303.19 0.054536 13.145 0.045172 15.000 0.066667 916.98 1004.2 3.3362 2.3017 2.5367 303.19 0.054536 13.145 0.045172
211.38 190.18 undefined 919.28 1006.7 3.3410 15.000 0.066667 919.28 1006.7 3.3410 2.3056 2.5405 303.55 0.054220 13.171 0.045342 15.000 0.066667 919.28 1006.7 3.3410 2.3056 2.5405 303.55 0.054220 13.171 0.045342
212.38 190.62 undefined 921.59 1009.2 3.3457 15.000 0.066667 921.59 1009.2 3.3457 2.3096 2.5442 303.90 0.053907 13.196 0.045513 15.000 0.066667 921.59 1009.2 3.3457 2.3096 2.5442 303.90 0.053907 13.196 0.045513
213.38 191.06 undefined 923.90 1011.7 3.3505 15.000 0.066667 923.90 1011.7 3.3505 2.3135 2.5480 304.25 0.053596 13.221 0.045684 15.000 0.066667 923.90 1011.7 3.3505 2.3135 2.5480 304.25 0.053596 13.221 0.045684
214.38 191.49 undefined 926.22 1014.2 3.3552 15.000 0.066667 926.22 1014.2 3.3552 2.3174 2.5518 304.61 0.053288 13.246 0.045855 15.000 0.066667 926.22 1014.2 3.3552 2.3174 2.5518 304.61 0.053288 13.246 0.045855
215.38 191.93 undefined 928.53 1016.8 3.3600 15.000 0.066667 928.53 1016.8 3.3600 2.3214 2.5555 304.96 0.052982 13.271 0.046027 15.000 0.066667 928.53 1016.8 3.3600 2.3214 2.5555 304.96 0.052982 13.271 0.046027
216.38 192.37 undefined 930.86 1019.3 3.3648 15.000 0.066667 930.86 1019.3 3.3648 2.3253 2.5593 305.31 0.052679 13.296 0.046199 15.000 0.066667 930.86 1019.3 3.3648 2.3253 2.5593 305.31 0.052679 13.296 0.046199
217.38 192.81 undefined 933.19 1021.8 3.3695 15.000 0.066667 933.19 1021.8 3.3695 2.3292 2.5630 305.66 0.052379 13.321 0.046371 15.000 0.066667 933.19 1021.8 3.3695 2.3292 2.5630 305.66 0.052379 13.321 0.046371
218.38 193.25 undefined 935.52 1024.3 3.3742 15.000 0.066667 935.52 1024.3 3.3742 2.3331 2.5667 306.01 0.052081 13.346 0.046543 15.000 0.066667 935.52 1024.3 3.3742 2.3331 2.5667 306.01 0.052081 13.346 0.046543
219.38 193.68 undefined 937.85 1026.9 3.3790 15.000 0.066667 937.85 1026.9 3.3790 2.3370 2.5705 306.36 0.051786 13.371 0.046716 15.000 0.066667 937.85 1026.9 3.3790 2.3370 2.5705 306.36 0.051786 13.371 0.046716
220.38 194.12 undefined 940.19 1029.4 3.3837 15.000 0.066667 940.19 1029.4 3.3837 2.3409 2.5742 306.71 0.051493 13.396 0.046889 15.000 0.066667 940.19 1029.4 3.3837 2.3409 2.5742 306.71 0.051493 13.396 0.046889
221.38 194.56 undefined 942.53 1032.0 3.3885 15.000 0.066667 942.53 1032.0 3.3885 2.3448 2.5779 307.06 0.051202 13.420 0.047062 15.000 0.066667 942.53 1032.0 3.3885 2.3448 2.5779 307.06 0.051202 13.420 0.047062
222.38 195.00 undefined 944.88 1034.5 3.3932 15.000 0.066667 944.88 1034.5 3.3932 2.3487 2.5817 307.41 0.050914 13.445 0.047235 15.000 0.066667 944.88 1034.5 3.3932 2.3487 2.5817 307.41 0.050914 13.445 0.047235
223.38 195.43 undefined 947.23 1037.1 3.3980 15.000 0.066667 947.23 1037.1 3.3980 2.3525 2.5854 307.76 0.050628 13.470 0.047409 15.000 0.066667 947.23 1037.1 3.3980 2.3525 2.5854 307.76 0.050628 13.470 0.047409
224.38 195.87 undefined 949.59 1039.6 3.4027 15.000 0.066667 949.59 1039.6 3.4027 2.3564 2.5891 308.11 0.050345 13.495 0.047583 15.000 0.066667 949.59 1039.6 3.4027 2.3564 2.5891 308.11 0.050345 13.495 0.047583
225.38 196.31 undefined 951.94 1042.2 3.4074 15.000 0.066667 951.94 1042.2 3.4074 2.3603 2.5928 308.46 0.050064 13.520 0.047758 15.000 0.066667 951.94 1042.2 3.4074 2.3603 2.5928 308.46 0.050064 13.520 0.047758
226.38 196.74 undefined 954.31 1044.7 3.4122 15.000 0.066667 954.31 1044.7 3.4122 2.3642 2.5965 308.81 0.049785 13.545 0.047932 15.000 0.066667 954.31 1044.7 3.4122 2.3642 2.5965 308.81 0.049785 13.545 0.047932
227.38 197.18 undefined 956.67 1047.3 3.4169 15.000 0.066667 956.67 1047.3 3.4169 2.3680 2.6002 309.15 0.049509 13.569 0.048107 15.000 0.066667 956.67 1047.3 3.4169 2.3680 2.6002 309.15 0.049509 13.569 0.048107
228.38 197.62 undefined 959.04 1049.9 3.4216 15.000 0.066667 959.04 1049.9 3.4216 2.3719 2.6040 309.50 0.049234 13.594 0.048283 15.000 0.066667 959.04 1049.9 3.4216 2.3719 2.6040 309.50 0.049234 13.594 0.048283
229.38 198.06 undefined 961.42 1052.5 3.4264 15.000 0.066667 961.42 1052.5 3.4264 2.3757 2.6077 309.85 0.048962 13.619 0.048458 15.000 0.066667 961.42 1052.5 3.4264 2.3757 2.6077 309.85 0.048962 13.619 0.048458
230.38 198.49 undefined 963.79 1055.0 3.4311 15.000 0.066667 963.79 1055.0 3.4311 2.3796 2.6114 310.19 0.048692 13.643 0.048634 15.000 0.066667 963.79 1055.0 3.4311 2.3796 2.6114 310.19 0.048692 13.643 0.048634
231.38 198.93 undefined 966.17 1057.6 3.4358 15.000 0.066667 966.17 1057.6 3.4358 2.3834 2.6150 310.54 0.048425 13.668 0.048810 15.000 0.066667 966.17 1057.6 3.4358 2.3834 2.6150 310.54 0.048425 13.668 0.048810
232.38 199.37 undefined 968.56 1060.2 3.4405 15.000 0.066667 968.56 1060.2 3.4405 2.3873 2.6187 310.88 0.048159 13.693 0.048987 15.000 0.066667 968.56 1060.2 3.4405 2.3873 2.6187 310.88 0.048159 13.693 0.048987
233.38 199.80 undefined 970.95 1062.8 3.4453 15.000 0.066667 970.95 1062.8 3.4453 2.3911 2.6224 311.23 0.047896 13.717 0.049163 15.000 0.066667 970.95 1062.8 3.4453 2.3911 2.6224 311.23 0.047896 13.717 0.049163
234.38 200.24 undefined 973.34 1065.4 3.4500 15.000 0.066667 973.34 1065.4 3.4500 2.3949 2.6261 311.57 0.047634 13.742 0.049341 15.000 0.066667 973.34 1065.4 3.4500 2.3949 2.6261 311.57 0.047634 13.742 0.049341
235.38 200.68 undefined 975.74 1068.0 3.4547 15.000 0.066667 975.74 1068.0 3.4547 2.3988 2.6298 311.92 0.047375 13.767 0.049518 15.000 0.066667 975.74 1068.0 3.4547 2.3988 2.6298 311.92 0.047375 13.767 0.049518
236.38 201.11 undefined 978.14 1070.6 3.4594 15.000 0.066667 978.14 1070.6 3.4594 2.4026 2.6335 312.26 0.047118 13.791 0.049695 15.000 0.066667 978.14 1070.6 3.4594 2.4026 2.6335 312.26 0.047118 13.791 0.049695
237.38 201.55 undefined 980.54 1073.2 3.4641 15.000 0.066667 980.54 1073.2 3.4641 2.4064 2.6371 312.60 0.046863 13.816 0.049873 15.000 0.066667 980.54 1073.2 3.4641 2.4064 2.6371 312.60 0.046863 13.816 0.049873
238.38 201.99 undefined 982.95 1075.8 3.4688 15.000 0.066667 982.95 1075.8 3.4688 2.4102 2.6408 312.94 0.046610 13.840 0.050052 15.000 0.066667 982.95 1075.8 3.4688 2.4102 2.6408 312.94 0.046610 13.840 0.050052
239.38 202.42 undefined 985.36 1078.4 3.4735 15.000 0.066667 985.36 1078.4 3.4735 2.4140 2.6445 313.29 0.046358 13.865 0.050230 15.000 0.066667 985.36 1078.4 3.4735 2.4140 2.6445 313.29 0.046358 13.865 0.050230
240.38 202.86 undefined 987.78 1081.0 3.4783 15.000 0.066667 987.78 1081.0 3.4783 2.4178 2.6481 313.63 0.046109 13.889 0.050409 15.000 0.066667 987.78 1081.0 3.4783 2.4178 2.6481 313.63 0.046109 13.889 0.050409
241.38 203.30 undefined 990.20 1083.6 3.4830 15.000 0.066667 990.20 1083.6 3.4830 2.4216 2.6518 313.97 0.045862 13.914 0.050588 15.000 0.066667 990.20 1083.6 3.4830 2.4216 2.6518 313.97 0.045862 13.914 0.050588
242.38 203.73 undefined 992.62 1086.3 3.4877 15.000 0.066667 992.62 1086.3 3.4877 2.4254 2.6554 314.31 0.045617 13.938 0.050767 15.000 0.066667 992.62 1086.3 3.4877 2.4254 2.6554 314.31 0.045617 13.938 0.050767
243.38 204.17 undefined 995.05 1088.9 3.4924 15.000 0.066667 995.05 1088.9 3.4924 2.4292 2.6591 314.65 0.045373 13.963 0.050947 15.000 0.066667 995.05 1088.9 3.4924 2.4292 2.6591 314.65 0.045373 13.963 0.050947
244.38 204.61 undefined 997.48 1091.5 3.4971 15.000 0.066667 997.48 1091.5 3.4971 2.4330 2.6627 314.99 0.045132 13.987 0.051127 15.000 0.066667 997.48 1091.5 3.4971 2.4330 2.6627 314.99 0.045132 13.987 0.051127
245.38 205.04 undefined 999.92 1094.2 3.5018 15.000 0.066667 999.92 1094.2 3.5018 2.4367 2.6664 315.33 0.044892 14.011 0.051307 15.000 0.066667 999.92 1094.2 3.5018 2.4367 2.6664 315.33 0.044892 14.011 0.051307
246.38 205.48 undefined 1002.4 1096.8 3.5065 15.000 0.066667 1002.4 1096.8 3.5065 2.4405 2.6700 315.67 0.044654 14.036 0.051488 15.000 0.066667 1002.4 1096.8 3.5065 2.4405 2.6700 315.67 0.044654 14.036 0.051488
247.38 205.92 undefined 1004.8 1099.4 3.5112 15.000 0.066667 1004.8 1099.4 3.5112 2.4443 2.6736 316.01 0.044418 14.060 0.051668 15.000 0.066667 1004.8 1099.4 3.5112 2.4443 2.6736 316.01 0.044418 14.060 0.051668
248.38 206.35 undefined 1007.2 1102.1 3.5159 15.000 0.066667 1007.2 1102.1 3.5159 2.4480 2.6773 316.35 0.044184 14.085 0.051849 15.000 0.066667 1007.2 1102.1 3.5159 2.4480 2.6773 316.35 0.044184 14.085 0.051849
249.38 206.79 undefined 1009.7 1104.7 3.5206 15.000 0.066667 1009.7 1104.7 3.5206 2.4518 2.6809 316.69 0.043951 14.109 0.052031 15.000 0.066667 1009.7 1104.7 3.5206 2.4518 2.6809 316.69 0.043951 14.109 0.052031
250.38 207.23 undefined 1012.1 1107.4 3.5252 15.000 0.066667 1012.1 1107.4 3.5252 2.4556 2.6845 317.03 0.043721 14.133 0.052213 15.000 0.066667 1012.1 1107.4 3.5252 2.4556 2.6845 317.03 0.043721 14.133 0.052213
251.38 207.66 undefined 1014.6 1110.1 3.5299 15.000 0.066667 1014.6 1110.1 3.5299 2.4593 2.6881 317.36 0.043492 14.157 0.052395 15.000 0.066667 1014.6 1110.1 3.5299 2.4593 2.6881 317.36 0.043492 14.157 0.052395
252.38 208.10 undefined 1017.1 1112.7 3.5346 15.000 0.066667 1017.1 1112.7 3.5346 2.4630 2.6917 317.70 0.043264 14.182 0.052577 15.000 0.066667 1017.1 1112.7 3.5346 2.4630 2.6917 317.70 0.043264 14.182 0.052577
253.38 208.53 undefined 1019.5 1115.4 3.5393 15.000 0.066667 1019.5 1115.4 3.5393 2.4668 2.6953 318.04 0.043039 14.206 0.052759 15.000 0.066667 1019.5 1115.4 3.5393 2.4668 2.6953 318.04 0.043039 14.206 0.052759
254.38 208.97 undefined 1022.0 1118.1 3.5440 15.000 0.066667 1022.0 1118.1 3.5440 2.4705 2.6990 318.37 0.042815 14.230 0.052942 15.000 0.066667 1022.0 1118.1 3.5440 2.4705 2.6990 318.37 0.042815 14.230 0.052942
255.38 209.41 undefined 1024.5 1120.7 3.5487 15.000 0.066667 1024.5 1120.7 3.5487 2.4742 2.7026 318.71 0.042593 14.254 0.053125 15.000 0.066667 1024.5 1120.7 3.5487 2.4742 2.7026 318.71 0.042593 14.254 0.053125
256.38 209.84 undefined 1026.9 1123.4 3.5534 15.000 0.066667 1026.9 1123.4 3.5534 2.4780 2.7061 319.05 0.042372 14.278 0.053309 15.000 0.066667 1026.9 1123.4 3.5534 2.4780 2.7061 319.05 0.042372 14.278 0.053309
257.38 210.28 undefined 1029.4 1126.1 3.5580 15.000 0.066667 1029.4 1126.1 3.5580 2.4817 2.7097 319.38 0.042154 14.303 0.053492 15.000 0.066667 1029.4 1126.1 3.5580 2.4817 2.7097 319.38 0.042154 14.303 0.053492
258.38 210.71 undefined 1031.9 1128.8 3.5627 15.000 0.066667 1031.9 1128.8 3.5627 2.4854 2.7133 319.72 0.041936 14.327 0.053676 15.000 0.066667 1031.9 1128.8 3.5627 2.4854 2.7133 319.72 0.041936 14.327 0.053676
259.38 211.15 undefined 1034.4 1131.5 3.5674 15.000 0.066667 1034.4 1131.5 3.5674 2.4891 2.7169 320.05 0.041721 14.351 0.053861 15.000 0.066667 1034.4 1131.5 3.5674 2.4891 2.7169 320.05 0.041721 14.351 0.053861
260.38 211.59 undefined 1036.9 1134.1 3.5721 15.000 0.066667 1036.9 1134.1 3.5721 2.4928 2.7205 320.38 0.041507 14.375 0.054045 15.000 0.066667 1036.9 1134.1 3.5721 2.4928 2.7205 320.38 0.041507 14.375 0.054045
261.38 212.02 undefined 1039.4 1136.8 3.5767 15.000 0.066667 1039.4 1136.8 3.5767 2.4965 2.7241 320.72 0.041294 14.399 0.054230 15.000 0.066667 1039.4 1136.8 3.5767 2.4965 2.7241 320.72 0.041294 14.399 0.054230
262.38 212.46 undefined 1041.9 1139.5 3.5814 15.000 0.066667 1041.9 1139.5 3.5814 2.5002 2.7276 321.05 0.041083 14.423 0.054415 15.000 0.066667 1041.9 1139.5 3.5814 2.5002 2.7276 321.05 0.041083 14.423 0.054415
263.38 212.89 undefined 1044.4 1142.2 3.5861 15.000 0.066667 1044.4 1142.2 3.5861 2.5039 2.7312 321.38 0.040874 14.447 0.054601 15.000 0.066667 1044.4 1142.2 3.5861 2.5039 2.7312 321.38 0.040874 14.447 0.054601
264.38 213.33 undefined 1046.9 1144.9 3.5907 15.000 0.066667 1046.9 1144.9 3.5907 2.5076 2.7348 321.72 0.040666 14.471 0.054787 15.000 0.066667 1046.9 1144.9 3.5907 2.5076 2.7348 321.72 0.040666 14.471 0.054787
265.38 213.77 undefined 1049.4 1147.7 3.5954 15.000 0.066667 1049.4 1147.7 3.5954 2.5112 2.7383 322.05 0.040460 14.495 0.054973 15.000 0.066667 1049.4 1147.7 3.5954 2.5112 2.7383 322.05 0.040460 14.495 0.054973
266.38 214.20 undefined 1051.9 1150.4 3.6001 15.000 0.066667 1051.9 1150.4 3.6001 2.5149 2.7419 322.38 0.040255 14.519 0.055159 15.000 0.066667 1051.9 1150.4 3.6001 2.5149 2.7419 322.38 0.040255 14.519 0.055159
267.38 214.64 undefined 1054.4 1153.1 3.6047 15.000 0.066667 1054.4 1153.1 3.6047 2.5186 2.7454 322.71 0.040052 14.543 0.055345 15.000 0.066667 1054.4 1153.1 3.6047 2.5186 2.7454 322.71 0.040052 14.543 0.055345
268.38 215.07 undefined 1057.0 1155.8 3.6094 15.000 0.066667 1057.0 1155.8 3.6094 2.5222 2.7490 323.04 0.039850 14.567 0.055532 15.000 0.066667 1057.0 1155.8 3.6094 2.5222 2.7490 323.04 0.039850 14.567 0.055532
269.38 215.51 undefined 1059.5 1158.5 3.6140 15.000 0.066667 1059.5 1158.5 3.6140 2.5259 2.7525 323.38 0.039649 14.591 0.055719 15.000 0.066667 1059.5 1158.5 3.6140 2.5259 2.7525 323.38 0.039649 14.591 0.055719
270.38 215.94 undefined 1062.0 1161.3 3.6187 15.000 0.066667 1062.0 1161.3 3.6187 2.5295 2.7560 323.71 0.039450 14.614 0.055907 15.000 0.066667 1062.0 1161.3 3.6187 2.5295 2.7560 323.71 0.039450 14.614 0.055907
271.38 216.38 undefined 1064.5 1164.0 3.6233 15.000 0.066667 1064.5 1164.0 3.6233 2.5332 2.7596 324.04 0.039253 14.638 0.056095 15.000 0.066667 1064.5 1164.0 3.6233 2.5332 2.7596 324.04 0.039253 14.638 0.056095
272.38 216.81 undefined 1067.1 1166.7 3.6280 15.000 0.066667 1067.1 1166.7 3.6280 2.5368 2.7631 324.37 0.039056 14.662 0.056283 15.000 0.066667 1067.1 1166.7 3.6280 2.5368 2.7631 324.37 0.039056 14.662 0.056283
273.38 217.25 undefined 1069.6 1169.5 3.6326 15.000 0.066667 1069.6 1169.5 3.6326 2.5405 2.7666 324.70 0.038862 14.686 0.056471 15.000 0.066667 1069.6 1169.5 3.6326 2.5405 2.7666 324.70 0.038862 14.686 0.056471
274.38 217.69 undefined 1072.1 1172.2 3.6373 15.000 0.066667 1072.1 1172.2 3.6373 2.5441 2.7702 325.02 0.038668 14.710 0.056660 15.000 0.066667 1072.1 1172.2 3.6373 2.5441 2.7702 325.02 0.038668 14.710 0.056660
275.38 218.12 undefined 1074.7 1175.0 3.6419 15.000 0.066667 1074.7 1175.0 3.6419 2.5477 2.7737 325.35 0.038476 14.733 0.056848 15.000 0.066667 1074.7 1175.0 3.6419 2.5477 2.7737 325.35 0.038476 14.733 0.056848
276.38 218.56 undefined 1077.2 1177.7 3.6466 15.000 0.066667 1077.2 1177.7 3.6466 2.5514 2.7772 325.68 0.038285 14.757 0.057037 15.000 0.066667 1077.2 1177.7 3.6466 2.5514 2.7772 325.68 0.038285 14.757 0.057037
277.38 218.99 undefined 1079.8 1180.5 3.6512 15.000 0.066667 1079.8 1180.5 3.6512 2.5550 2.7807 326.01 0.038096 14.781 0.057227 15.000 0.066667 1079.8 1180.5 3.6512 2.5550 2.7807 326.01 0.038096 14.781 0.057227
278.38 219.43 undefined 1082.4 1183.2 3.6559 15.000 0.066667 1082.4 1183.2 3.6559 2.5586 2.7842 326.34 0.037908 14.805 0.057417 15.000 0.066667 1082.4 1183.2 3.6559 2.5586 2.7842 326.34 0.037908 14.805 0.057417
279.38 219.86 undefined 1084.9 1186.0 3.6605 15.000 0.066667 1084.9 1186.0 3.6605 2.5622 2.7877 326.66 0.037721 14.828 0.057606 15.000 0.066667 1084.9 1186.0 3.6605 2.5622 2.7877 326.66 0.037721 14.828 0.057606
280.38 220.30 undefined 1087.5 1188.7 3.6651 15.000 0.066667 1087.5 1188.7 3.6651 2.5658 2.7912 326.99 0.037536 14.852 0.057796 15.000 0.066667 1087.5 1188.7 3.6651 2.5658 2.7912 326.99 0.037536 14.852 0.057796
281.38 220.73 undefined 1090.0 1191.5 3.6698 15.000 0.066667 1090.0 1191.5 3.6698 2.5694 2.7947 327.32 0.037352 14.876 0.057986 15.000 0.066667 1090.0 1191.5 3.6698 2.5694 2.7947 327.32 0.037352 14.876 0.057986
282.38 221.17 undefined 1092.6 1194.3 3.6744 15.000 0.066667 1092.6 1194.3 3.6744 2.5730 2.7982 327.64 0.037169 14.899 0.058177 15.000 0.066667 1092.6 1194.3 3.6744 2.5730 2.7982 327.64 0.037169 14.899 0.058177
283.38 221.60 undefined 1095.2 1197.1 3.6790 15.000 0.066667 1095.2 1197.1 3.6790 2.5766 2.8016 327.97 0.036987 14.923 0.058369 15.000 0.066667 1095.2 1197.1 3.6790 2.5766 2.8016 327.97 0.036987 14.923 0.058369
284.38 222.04 undefined 1097.8 1199.8 3.6837 15.000 0.066667 1097.8 1199.8 3.6837 2.5801 2.8051 328.30 0.036807 14.946 0.058560 15.000 0.066667 1097.8 1199.8 3.6837 2.5801 2.8051 328.30 0.036807 14.946 0.058560
285.38 222.47 undefined 1100.4 1202.6 3.6883 15.000 0.066667 1100.4 1202.6 3.6883 2.5837 2.8086 328.62 0.036628 14.970 0.058752 15.000 0.066667 1100.4 1202.6 3.6883 2.5837 2.8086 328.62 0.036628 14.970 0.058752
286.38 222.91 undefined 1102.9 1205.4 3.6929 15.000 0.066667 1102.9 1205.4 3.6929 2.5873 2.8120 328.95 0.036450 14.993 0.058945 15.000 0.066667 1102.9 1205.4 3.6929 2.5873 2.8120 328.95 0.036450 14.993 0.058945
287.38 223.34 undefined 1105.5 1208.2 3.6975 15.000 0.066667 1105.5 1208.2 3.6975 2.5909 2.8155 329.27 0.036273 15.017 0.059137 15.000 0.066667 1105.5 1208.2 3.6975 2.5909 2.8155 329.27 0.036273 15.017 0.059137
288.38 223.78 undefined 1108.1 1211.0 3.7022 15.000 0.066667 1108.1 1211.0 3.7022 2.5944 2.8190 329.60 0.036098 15.040 0.059330 15.000 0.066667 1108.1 1211.0 3.7022 2.5944 2.8190 329.60 0.036098 15.040 0.059330
289.38 224.21 undefined 1110.7 1213.8 3.7068 15.000 0.066667 1110.7 1213.8 3.7068 2.5980 2.8224 329.92 0.035923 15.064 0.059523 15.000 0.066667 1110.7 1213.8 3.7068 2.5980 2.8224 329.92 0.035923 15.064 0.059523
290.38 224.65 undefined 1113.3 1216.6 3.7114 15.000 0.066667 1113.3 1216.6 3.7114 2.6015 2.8259 330.24 0.035750 15.087 0.059717 15.000 0.066667 1113.3 1216.6 3.7114 2.6015 2.8259 330.24 0.035750 15.087 0.059717
291.38 225.08 undefined 1115.9 1219.4 3.7160 15.000 0.066667 1115.9 1219.4 3.7160 2.6051 2.8293 330.57 0.035578 15.111 0.059911 15.000 0.066667 1115.9 1219.4 3.7160 2.6051 2.8293 330.57 0.035578 15.111 0.059911
292.38 225.52 undefined 1118.5 1222.2 3.7206 15.000 0.066667 1118.5 1222.2 3.7206 2.6086 2.8328 330.89 0.035408 15.134 0.060105 15.000 0.066667 1118.5 1222.2 3.7206 2.6086 2.8328 330.89 0.035408 15.134 0.060105
293.38 225.95 undefined 1121.1 1225.0 3.7252 15.000 0.066667 1121.1 1225.0 3.7252 2.6122 2.8362 331.21 0.035238 15.158 0.060299 15.000 0.066667 1121.1 1225.0 3.7252 2.6122 2.8362 331.21 0.035238 15.158 0.060299
294.38 226.39 undefined 1123.8 1227.8 3.7299 15.000 0.066667 1123.8 1227.8 3.7299 2.6157 2.8396 331.53 0.035070 15.181 0.060494 15.000 0.066667 1123.8 1227.8 3.7299 2.6157 2.8396 331.53 0.035070 15.181 0.060494
295.38 226.82 undefined 1126.4 1230.6 3.7345 15.000 0.066667 1126.4 1230.6 3.7345 2.6192 2.8431 331.86 0.034902 15.204 0.060689 15.000 0.066667 1126.4 1230.6 3.7345 2.6192 2.8431 331.86 0.034902 15.204 0.060689
296.38 227.26 undefined 1129.0 1233.4 3.7391 15.000 0.066667 1129.0 1233.4 3.7391 2.6228 2.8465 332.18 0.034736 15.228 0.060884 15.000 0.066667 1129.0 1233.4 3.7391 2.6228 2.8465 332.18 0.034736 15.228 0.060884
297.38 227.69 undefined 1131.6 1236.3 3.7437 15.000 0.066667 1131.6 1236.3 3.7437 2.6263 2.8499 332.50 0.034571 15.251 0.061079 15.000 0.066667 1131.6 1236.3 3.7437 2.6263 2.8499 332.50 0.034571 15.251 0.061079
298.38 228.13 undefined 1134.2 1239.1 3.7483 15.000 0.066667 1134.2 1239.1 3.7483 2.6298 2.8533 332.82 0.034407 15.274 0.061275 15.000 0.066667 1134.2 1239.1 3.7483 2.6298 2.8533 332.82 0.034407 15.274 0.061275
299.38 228.56 undefined 1136.9 1241.9 3.7529 15.000 0.066667 1136.9 1241.9 3.7529 2.6333 2.8567 333.14 0.034244 15.297 0.061471 15.000 0.066667 1136.9 1241.9 3.7529 2.6333 2.8567 333.14 0.034244 15.297 0.061471
300.38 229.00 undefined 1139.5 1244.8 3.7575 15.000 0.066667 1139.5 1244.8 3.7575 2.6368 2.8601 333.46 0.034082 15.321 0.061668 15.000 0.066667 1139.5 1244.8 3.7575 2.6368 2.8601 333.46 0.034082 15.321 0.061668