Temperature (C) Pressure (psia) Quality (l+v) Internal Energy (l+v, kJ/kg) Enthalpy (l+v, kJ/kg) Entropy (l+v, J/g*K) Density (l, kg/m3) Volume (l, m3/kg) Internal Energy (l, kJ/kg) Enthalpy (l, kJ/kg) Entropy (l, J/g*K) Cv (l, J/g*K) Cp (l, J/g*K) Sound Spd. (l, m/s) Joule-Thomson (l, F/psia) Viscosity (l, uPa*s) Therm. Cond. (l, W/m*K) Density (v, kg/m3) Volume (v, m3/kg) Internal Energy (v, kJ/kg) Enthalpy (v, kJ/kg) Entropy (v, J/g*K) Cv (v, J/g*K) Cp (v, J/g*K) Sound Spd. (v, m/s) Joule-Thomson (v, F/psia) Viscosity (v, uPa*s) Therm. Cond. (v, W/m*K)
-187.62 2.4953e-08 2.2882e-11 -196.64 -196.64 -1.3959 733.13 0.0013640 -196.64 -196.64 -1.3959 1.3553 1.9158 2136.4 -0.0077592 10960. 0.20792 1.0669e-08 9.3732e+07 350.13 366.26 5.1858 0.69067 0.87923 143.28 6.1051 2.3259 0.0017061
-186.62 3.7339e-08 3.3813e-11 -194.73 -194.73 -1.3736 732.08 0.0013660 -194.73 -194.73 -1.3736 1.3539 1.9166 2129.6 -0.0077546 10073. 0.20765 1.5780e-08 6.3371e+07 350.82 367.14 5.1200 0.69462 0.88317 144.03 5.9178 2.3534 0.0017533
-185.62 5.5322e-08 4.9480e-11 -192.81 -192.81 -1.3516 731.04 0.0013679 -192.81 -192.81 -1.3516 1.3525 1.9174 2122.9 -0.0077498 9276.1 0.20737 2.3112e-08 4.3267e+07 351.52 368.02 5.0561 0.69857 0.88713 144.77 5.7383 2.3808 0.0018007
-184.62 8.1182e-08 7.1725e-11 -190.89 -190.89 -1.3298 730.00 0.0013699 -190.89 -190.89 -1.3298 1.3513 1.9182 2116.1 -0.0077448 8557.8 0.20708 3.3533e-08 2.9821e+07 352.22 368.91 4.9939 0.70253 0.89108 145.51 5.5662 2.4083 0.0018485
-183.62 1.1803e-07 1.0302e-10 -188.97 -188.97 -1.3083 728.96 0.0013718 -188.97 -188.97 -1.3083 1.3501 1.9191 2109.3 -0.0077395 7909.8 0.20678 4.8211e-08 2.0742e+07 352.92 369.81 4.9333 0.70648 0.89504 146.24 5.4011 2.4357 0.0018965
-182.62 1.7009e-07 1.4668e-10 -187.05 -187.05 -1.2869 727.92 0.0013738 -187.05 -187.05 -1.2869 1.3490 1.9201 2102.5 -0.0077340 7324.3 0.20647 6.8704e-08 1.4555e+07 353.63 370.70 4.8744 0.71043 0.89899 146.97 5.2426 2.4632 0.0019448
-181.62 2.4299e-07 2.0707e-10 -185.13 -185.13 -1.2658 726.88 0.0013757 -185.13 -185.13 -1.2658 1.3480 1.9210 2095.7 -0.0077283 6794.5 0.20616 9.7079e-08 1.0301e+07 354.35 371.60 4.8170 0.71438 0.90294 147.69 5.0904 2.4906 0.0019934
-180.62 3.4425e-07 2.8993e-10 -183.21 -183.21 -1.2450 725.85 0.0013777 -183.21 -183.21 -1.2450 1.3470 1.9220 2088.9 -0.0077225 6314.4 0.20584 1.3605e-07 7.3504e+06 355.06 372.51 4.7612 0.71833 0.90688 148.41 4.9442 2.5181 0.0020423
-179.62 4.8378e-07 4.0272e-10 -181.29 -181.29 -1.2243 724.81 0.0013797 -181.29 -181.29 -1.2243 1.3461 1.9231 2082.0 -0.0077164 5878.8 0.20551 1.8915e-07 5.2868e+06 355.78 373.42 4.7068 0.72227 0.91082 149.13 4.8038 2.5456 0.0020915
-178.62 6.7459e-07 5.5510e-10 -179.37 -179.37 -1.2038 723.78 0.0013816 -179.37 -179.37 -1.2038 1.3453 1.9241 2075.2 -0.0077102 5482.9 0.20517 2.6096e-07 3.8320e+06 356.51 374.33 4.6538 0.72620 0.91475 149.84 4.6688 2.5731 0.0021410
-177.62 9.3358e-07 7.5947e-10 -177.44 -177.44 -1.1836 722.75 0.0013836 -177.44 -177.44 -1.1836 1.3445 1.9252 2068.4 -0.0077039 5122.6 0.20483 3.5737e-07 2.7982e+06 357.23 375.25 4.6022 0.73012 0.91867 150.54 4.5390 2.6005 0.0021907
-176.62 1.2826e-06 1.0316e-09 -175.52 -175.52 -1.1635 721.72 0.0013856 -175.52 -175.52 -1.1635 1.3437 1.9263 2061.5 -0.0076973 4794.1 0.20447 4.8588e-07 2.0581e+06 357.97 376.17 4.5519 0.73403 0.92258 151.25 4.4142 2.6280 0.0022408
-175.62 1.7496e-06 1.3915e-09 -173.59 -173.59 -1.1437 720.69 0.0013876 -173.59 -173.59 -1.1437 1.3430 1.9274 2054.7 -0.0076907 4494.3 0.20411 6.5601e-07 1.5244e+06 358.70 377.09 4.5029 0.73792 0.92648 151.95 4.2941 2.6555 0.0022912
-174.62 2.3705e-06 1.8644e-09 -171.66 -171.66 -1.1240 719.66 0.0013895 -171.66 -171.66 -1.1240 1.3423 1.9286 2047.9 -0.0076838 4220.2 0.20375 8.7976e-07 1.1367e+06 359.44 378.02 4.4551 0.74181 0.93036 152.64 4.1784 2.6830 0.0023418
-173.62 3.1903e-06 2.4817e-09 -169.73 -169.73 -1.1045 718.64 0.0013915 -169.73 -169.73 -1.1045 1.3417 1.9298 2041.0 -0.0076769 3969.3 0.20338 1.1721e-06 8.5314e+05 360.19 378.95 4.4085 0.74568 0.93423 153.33 4.0671 2.7105 0.0023928
-172.62 4.2661e-06 3.2825e-09 -167.80 -167.80 -1.0852 717.61 0.0013935 -167.80 -167.80 -1.0852 1.3411 1.9310 2034.2 -0.0076698 3739.3 0.20300 1.5518e-06 6.4441e+05 360.93 379.89 4.3631 0.74953 0.93809 154.02 3.9599 2.7379 0.0024440
-171.62 5.6692e-06 4.3151e-09 -165.87 -165.87 -1.0661 716.58 0.0013955 -165.87 -165.87 -1.0661 1.3405 1.9322 2027.3 -0.0076625 3528.0 0.20261 2.0419e-06 4.8974e+05 361.69 380.83 4.3188 0.75337 0.94193 154.71 3.8566 2.7654 0.0024955
-170.62 7.4884e-06 5.6388e-09 -163.94 -163.94 -1.0472 715.56 0.0013975 -163.94 -163.94 -1.0472 1.3400 1.9334 2020.5 -0.0076552 3333.8 0.20222 2.6708e-06 3.7442e+05 362.44 381.77 4.2755 0.75720 0.94575 155.39 3.7570 2.7929 0.0025473
-169.62 9.8334e-06 7.3261e-09 -162.00 -162.00 -1.0284 714.54 0.0013995 -162.00 -162.00 -1.0284 1.3395 1.9347 2013.6 -0.0076477 3154.9 0.20182 3.4733e-06 2.8791e+05 363.20 382.72 4.2334 0.76100 0.94956 156.07 3.6609 2.8204 0.0025994
-168.62 1.2839e-05 9.4651e-09 -160.07 -160.07 -1.0098 713.52 0.0014015 -160.07 -160.07 -1.0098 1.3390 1.9359 2006.8 -0.0076401 2989.9 0.20141 4.4917e-06 2.2263e+05 363.96 383.67 4.1922 0.76479 0.95335 156.74 3.5683 2.8479 0.0026518
-167.62 1.6672e-05 1.2162e-08 -158.13 -158.13 -0.99134 712.49 0.0014035 -158.13 -158.13 -0.99134 1.3386 1.9372 2000.0 -0.0076323 2837.5 0.20100 5.7771e-06 1.7310e+05 364.73 384.63 4.1521 0.76856 0.95712 157.41 3.4790 2.8754 0.0027045
-166.62 2.1533e-05 1.5546e-08 -156.19 -156.19 -0.97306 711.47 0.0014055 -156.19 -156.19 -0.97306 1.3382 1.9385 1993.1 -0.0076245 2696.5 0.20058 7.3914e-06 1.3529e+05 365.50 385.59 4.1129 0.77232 0.96087 158.08 3.3927 2.9029 0.0027575
-165.62 2.7666e-05 1.9769e-08 -154.25 -154.25 -0.95494 710.45 0.0014075 -154.25 -154.25 -0.95494 1.3378 1.9398 1986.3 -0.0076165 2566.0 0.20016 9.4084e-06 1.0629e+05 366.27 386.55 4.0746 0.77605 0.96460 158.75 3.3095 2.9304 0.0028108
-164.62 3.5367e-05 2.5015e-08 -152.31 -152.31 -0.93698 709.44 0.0014096 -152.31 -152.31 -0.93698 1.3375 1.9411 1979.4 -0.0076084 2444.9 0.19973 1.1916e-05 83918. 367.05 387.52 4.0372 0.77976 0.96832 159.41 3.2291 2.9579 0.0028643
-163.62 4.4989e-05 3.1500e-08 -150.37 -150.37 -0.91917 708.42 0.0014116 -150.37 -150.37 -0.91917 1.3371 1.9424 1972.6 -0.0076002 2332.3 0.19930 1.5020e-05 66577. 367.83 388.49 4.0008 0.78346 0.97201 160.07 3.1514 2.9854 0.0029182
-162.62 5.6956e-05 3.9480e-08 -148.43 -148.43 -0.90151 707.40 0.0014136 -148.43 -148.43 -0.90151 1.3368 1.9437 1965.8 -0.0075919 2227.7 0.19886 1.8844e-05 53068. 368.62 389.46 3.9651 0.78713 0.97569 160.72 3.0764 3.0129 0.0029723
-161.62 7.1773e-05 4.9256e-08 -146.48 -146.48 -0.88400 706.38 0.0014157 -146.48 -146.48 -0.88400 1.3365 1.9451 1959.0 -0.0075834 2130.2 0.19841 2.3533e-05 42494. 369.41 390.44 3.9304 0.79079 0.97935 161.38 3.0038 3.0404 0.0030268
-160.62 9.0036e-05 6.1181e-08 -144.54 -144.54 -0.86663 705.37 0.0014177 -144.54 -144.54 -0.86663 1.3363 1.9465 1952.1 -0.0075748 2039.2 0.19796 2.9258e-05 34178. 370.20 391.42 3.8964 0.79443 0.98298 162.03 2.9337 3.0679 0.0030815
-159.62 0.00011245 7.5666e-08 -142.59 -142.59 -0.84940 704.35 0.0014197 -142.59 -142.59 -0.84940 1.3360 1.9478 1945.3 -0.0075661 1954.2 0.19751 3.6221e-05 27609. 371.00 392.40 3.8632 0.79805 0.98660 162.68 2.8658 3.0955 0.0031365
-158.62 0.00013985 9.3188e-08 -140.64 -140.64 -0.83231 703.34 0.0014218 -140.64 -140.64 -0.83231 1.3358 1.9492 1938.5 -0.0075573 1874.8 0.19705 4.4652e-05 22395. 371.80 393.39 3.8307 0.80164 0.99020 163.32 2.8002 3.1230 0.0031918
-157.62 0.00017320 1.1430e-07 -138.69 -138.69 -0.81536 702.32 0.0014238 -138.69 -138.69 -0.81536 1.3356 1.9506 1931.7 -0.0075484 1800.3 0.19658 5.4822e-05 18241. 372.60 394.38 3.7990 0.80522 0.99378 163.96 2.7367 3.1505 0.0032474
-156.62 0.00021364 1.3964e-07 -136.74 -136.74 -0.79854 701.31 0.0014259 -136.74 -136.74 -0.79854 1.3354 1.9520 1924.9 -0.0075393 1730.5 0.19611 6.7040e-05 14916. 373.41 395.38 3.7680 0.80878 0.99734 164.60 2.6752 3.1780 0.0033033
-155.62 0.00026248 1.6993e-07 -134.79 -134.79 -0.78185 700.30 0.0014280 -134.79 -134.79 -0.78185 1.3352 1.9534 1918.1 -0.0075302 1664.9 0.19564 8.1666e-05 12245. 374.22 396.38 3.7377 0.81232 1.0009 165.24 2.6157 3.2055 0.0033595
-154.62 0.00032125 2.0602e-07 -132.83 -132.83 -0.76530 699.29 0.0014300 -132.83 -132.83 -0.76530 1.3350 1.9548 1911.3 -0.0075209 1603.3 0.19516 9.9109e-05 10090. 375.03 397.38 3.7081 0.81585 1.0044 165.87 2.5580 3.2330 0.0034160
-153.62 0.00039171 2.4886e-07 -130.88 -130.88 -0.74887 698.27 0.0014321 -130.88 -130.88 -0.74887 1.3349 1.9563 1904.5 -0.0075114 1545.3 0.19468 0.00011984 8344.6 375.85 398.39 3.6792 0.81935 1.0079 166.50 2.5022 3.2606 0.0034727
-152.62 0.00047590 2.9954e-07 -128.92 -128.92 -0.73256 697.26 0.0014342 -128.92 -128.92 -0.73256 1.3348 1.9577 1897.8 -0.0075019 1490.6 0.19419 0.00014439 6925.9 376.67 399.40 3.6509 0.82284 1.0114 167.13 2.4481 3.2881 0.0035298
-151.62 0.00057613 3.5928e-07 -126.96 -126.96 -0.71638 696.25 0.0014363 -126.96 -126.96 -0.71638 1.3346 1.9592 1891.0 -0.0074922 1438.9 0.19370 0.00017336 5768.4 377.49 400.41 3.6232 0.82631 1.0149 167.76 2.3957 3.3156 0.0035872
-150.62 0.00069507 4.2949e-07 -125.00 -125.00 -0.70032 695.24 0.0014384 -125.00 -125.00 -0.70032 1.3345 1.9606 1884.2 -0.0074824 1390.2 0.19320 0.00020744 4820.7 378.32 401.42 3.5962 0.82976 1.0183 168.38 2.3448 3.3431 0.0036448
-149.62 0.00083574 5.1171e-07 -123.04 -123.04 -0.68437 694.23 0.0014404 -123.04 -123.04 -0.68438 1.3345 1.9621 1877.4 -0.0074724 1344.0 0.19270 0.00024740 4042.0 379.15 402.44 3.5697 0.83319 1.0218 169.00 2.2956 3.3706 0.0037027
-148.62 0.0010016 6.0771e-07 -121.08 -121.08 -0.66855 693.22 0.0014425 -121.08 -121.08 -0.66855 1.3344 1.9636 1870.7 -0.0074623 1300.3 0.19220 0.00029412 3400.0 379.99 403.47 3.5438 0.83661 1.0252 169.62 2.2478 3.3982 0.0037610
-147.62 0.0011965 7.1946e-07 -119.11 -119.11 -0.65283 692.21 0.0014447 -119.11 -119.11 -0.65284 1.3343 1.9651 1863.9 -0.0074521 1258.9 0.19169 0.00034856 2869.0 380.83 404.49 3.5185 0.84001 1.0286 170.24 2.2014 3.4257 0.0038195
-146.62 0.0014249 8.4916e-07 -117.15 -117.15 -0.63723 691.20 0.0014468 -117.15 -117.15 -0.63724 1.3343 1.9666 1857.2 -0.0074417 1219.6 0.19117 0.00041181 2428.3 381.67 405.52 3.4938 0.84340 1.0320 170.85 2.1565 3.4532 0.0038783
-145.62 0.0016917 9.9925e-07 -115.18 -115.18 -0.62175 690.19 0.0014489 -115.18 -115.18 -0.62175 1.3343 1.9682 1850.4 -0.0074312 1182.3 0.19066 0.00048510 2061.4 382.51 406.56 3.4695 0.84677 1.0353 171.46 2.1128 3.4807 0.0039374
-144.62 0.0020026 1.1724e-06 -113.21 -113.21 -0.60637 689.18 0.0014510 -113.21 -113.21 -0.60637 1.3343 1.9697 1843.7 -0.0074206 1146.8 0.19014 0.00056976 1755.1 383.36 407.59 3.4458 0.85012 1.0387 172.07 2.0705 3.5082 0.0039967
-143.62 0.0023637 1.3717e-06 -111.24 -111.24 -0.59109 688.17 0.0014531 -111.24 -111.24 -0.59110 1.3343 1.9713 1836.9 -0.0074098 1113.0 0.18962 0.00066731 1498.6 384.21 408.63 3.4226 0.85346 1.0420 172.68 2.0294 3.5358 0.0040564
-142.62 0.0027820 1.6005e-06 -109.27 -109.27 -0.57593 687.16 0.0014553 -109.27 -109.27 -0.57593 1.3343 1.9728 1830.2 -0.0073988 1080.8 0.18909 0.00077939 1283.1 385.07 409.68 3.3999 0.85679 1.0454 173.28 1.9896 3.5633 0.0041164
-141.62 0.0032653 1.8623e-06 -107.30 -107.30 -0.56086 686.15 0.0014574 -107.30 -107.30 -0.56087 1.3343 1.9744 1823.5 -0.0073878 1050.1 0.18856 0.00090784 1101.5 385.93 410.72 3.3777 0.86011 1.0487 173.88 1.9508 3.5908 0.0041766
-140.62 0.0038222 2.1613e-06 -105.32 -105.32 -0.54590 685.14 0.0014596 -105.32 -105.32 -0.54591 1.3344 1.9760 1816.7 -0.0073765 1020.7 0.18803 0.0010547 948.16 386.79 411.77 3.3560 0.86341 1.0520 174.48 1.9133 3.6183 0.0042372
-139.62 0.0044623 2.5017e-06 -103.34 -103.34 -0.53104 684.13 0.0014617 -103.34 -103.34 -0.53105 1.3344 1.9776 1810.0 -0.0073651 992.74 0.18749 0.0012221 818.26 387.65 412.83 3.3347 0.86670 1.0553 175.08 1.8768 3.6459 0.0042980
-138.62 0.0051963 2.8885e-06 -101.36 -101.36 -0.51627 683.12 0.0014639 -101.37 -101.37 -0.51629 1.3345 1.9792 1803.3 -0.0073536 965.97 0.18695 0.0014125 707.94 388.52 413.88 3.3139 0.86998 1.0586 175.67 1.8413 3.6734 0.0043592
-137.62 0.0060358 3.3269e-06 -99.384 -99.384 -0.50161 682.11 0.0014660 -99.386 -99.386 -0.50162 1.3346 1.9808 1796.6 -0.0073419 940.35 0.18641 0.0016287 614.00 389.39 414.94 3.2935 0.87325 1.0619 176.26 1.8069 3.7009 0.0044206
-136.62 0.0069938 3.8227e-06 -97.403 -97.402 -0.48704 681.10 0.0014682 -97.404 -97.404 -0.48705 1.3347 1.9825 1789.9 -0.0073301 915.81 0.18586 0.0018733 533.80 390.26 416.00 3.2735 0.87650 1.0651 176.85 1.7734 3.7284 0.0044823
-135.62 0.0080843 4.3820e-06 -95.419 -95.419 -0.47256 680.09 0.0014704 -95.421 -95.421 -0.47258 1.3348 1.9841 1783.2 -0.0073180 892.30 0.18531 0.0021497 465.17 391.14 417.07 3.2540 0.87975 1.0684 177.44 1.7409 3.7559 0.0045443
-134.62 0.0093230 5.0116e-06 -93.434 -93.434 -0.45818 679.08 0.0014726 -93.436 -93.436 -0.45820 1.3350 1.9858 1776.5 -0.0073059 869.75 0.18476 0.0024613 406.30 392.02 418.14 3.2348 0.88299 1.0716 178.02 1.7093 3.7834 0.0046066
-133.62 0.010727 5.7189e-06 -91.447 -91.447 -0.44389 678.07 0.0014748 -91.450 -91.449 -0.44391 1.3351 1.9875 1769.8 -0.0072935 848.11 0.18421 0.0028116 355.67 392.91 419.21 3.2161 0.88622 1.0749 178.61 1.6786 3.8109 0.0046691
-132.62 0.012315 6.5116e-06 -89.458 -89.458 -0.42968 677.06 0.0014770 -89.461 -89.461 -0.42971 1.3353 1.9892 1763.1 -0.0072810 827.32 0.18365 0.0032049 312.03 393.79 420.29 3.1977 0.88944 1.0781 179.19 1.6488 3.8385 0.0047320
-131.62 0.014106 7.3984e-06 -87.468 -87.467 -0.41557 676.04 0.0014792 -87.471 -87.471 -0.41560 1.3354 1.9909 1756.4 -0.0072684 807.34 0.18309 0.0036453 274.33 394.68 421.36 3.1798 0.89266 1.0813 179.76 1.6197 3.8660 0.0047951
-130.62 0.016124 8.3883e-06 -85.475 -85.475 -0.40154 675.03 0.0014814 -85.479 -85.479 -0.40157 1.3356 1.9926 1749.7 -0.0072555 788.12 0.18253 0.0041375 241.69 395.58 422.44 3.1622 0.89586 1.0846 180.34 1.5915 3.8935 0.0048586
-129.62 0.018392 9.4912e-06 -83.481 -83.481 -0.38760 674.02 0.0014836 -83.486 -83.486 -0.38763 1.3358 1.9944 1743.0 -0.0072425 769.63 0.18196 0.0046867 213.37 396.47 423.53 3.1450 0.89906 1.0878 180.91 1.5641 3.9210 0.0049223
-128.62 0.020935 1.0718e-05 -81.486 -81.485 -0.37374 673.01 0.0014859 -81.491 -81.490 -0.37378 1.3360 1.9961 1736.3 -0.0072294 751.83 0.18140 0.0052981 188.75 397.37 424.62 3.1281 0.90226 1.0910 181.48 1.5374 3.9485 0.0049863
-127.62 0.023783 1.2079e-05 -79.488 -79.487 -0.35997 672.00 0.0014881 -79.494 -79.493 -0.36001 1.3363 1.9979 1729.6 -0.0072160 734.67 0.18083 0.0059776 167.29 398.27 425.71 3.1116 0.90545 1.0942 182.05 1.5114 3.9760 0.0050506
-126.62 0.026966 1.3587e-05 -77.488 -77.488 -0.34628 670.98 0.0014904 -77.495 -77.495 -0.34632 1.3365 1.9997 1722.9 -0.0072025 718.14 0.18025 0.0067313 148.56 399.18 426.80 3.0954 0.90863 1.0974 182.62 1.4861 4.0035 0.0051152
-125.62 0.030515 1.5254e-05 -75.487 -75.486 -0.33266 669.97 0.0014926 -75.494 -75.494 -0.33272 1.3368 2.0015 1716.2 -0.0071888 702.18 0.17968 0.0075660 132.17 400.09 427.89 3.0795 0.91181 1.1006 183.18 1.4615 4.0310 0.0051800
-124.62 0.034467 1.7095e-05 -73.484 -73.483 -0.31913 668.95 0.0014949 -73.492 -73.492 -0.31919 1.3371 2.0033 1709.5 -0.0071749 686.79 0.17910 0.0084885 117.81 401.00 428.99 3.0640 0.91499 1.1038 183.74 1.4375 4.0584 0.0052452
-123.62 0.038859 1.9124e-05 -71.479 -71.478 -0.30568 667.94 0.0014971 -71.488 -71.487 -0.30574 1.3374 2.0051 1702.8 -0.0071609 671.93 0.17852 0.0095065 105.19 401.91 430.10 3.0488 0.91816 1.1070 184.30 1.4141 4.0859 0.0053106
-122.62 0.043731 2.1355e-05 -69.472 -69.470 -0.29230 666.92 0.0014994 -69.482 -69.481 -0.29237 1.3377 2.0070 1696.2 -0.0071466 657.57 0.17794 0.010628 94.092 402.83 431.20 3.0339 0.92134 1.1102 184.86 1.3913 4.1134 0.0053764
-121.62 0.049128 2.3807e-05 -67.462 -67.461 -0.27899 665.91 0.0015017 -67.474 -67.473 -0.27907 1.3380 2.0089 1689.5 -0.0071322 643.70 0.17736 0.011861 84.309 403.75 432.31 3.0193 0.92451 1.1134 185.41 1.3691 4.1409 0.0054424
-120.62 0.055096 2.6494e-05 -65.451 -65.450 -0.26577 664.89 0.0015040 -65.464 -65.463 -0.26585 1.3384 2.0107 1682.8 -0.0071176 630.28 0.17678 0.013215 75.669 404.67 433.42 3.0050 0.92767 1.1166 185.96 1.3475 4.1683 0.0055087
-119.62 0.061684 2.9437e-05 -63.438 -63.437 -0.25261 663.87 0.0015063 -63.452 -63.452 -0.25271 1.3387 2.0126 1676.1 -0.0071028 617.30 0.17619 0.014700 68.027 405.60 434.53 2.9909 0.93084 1.1198 186.51 1.3264 4.1958 0.0055752
-118.62 0.068946 3.2653e-05 -61.423 -61.422 -0.23953 662.86 0.0015086 -61.439 -61.438 -0.23963 1.3391 2.0146 1669.4 -0.0070878 604.74 0.17560 0.016325 61.255 406.53 435.64 2.9772 0.93401 1.1231 187.06 1.3058 4.2233 0.0056421
-117.62 0.076937 3.6164e-05 -59.406 -59.404 -0.22652 661.84 0.0015109 -59.423 -59.422 -0.22663 1.3395 2.0165 1662.8 -0.0070726 592.58 0.17501 0.018101 55.245 407.46 436.76 2.9638 0.93718 1.1263 187.60 1.2857 4.2507 0.0057092
-116.62 0.085718 3.9990e-05 -57.387 -57.385 -0.21358 660.82 0.0015133 -57.406 -57.405 -0.21370 1.3400 2.0184 1656.1 -0.0070573 580.80 0.17442 0.020040 49.901 408.39 437.88 2.9506 0.94035 1.1295 188.14 1.2660 4.2782 0.0057767
-115.62 0.095353 4.4154e-05 -55.366 -55.363 -0.20070 659.80 0.0015156 -55.386 -55.385 -0.20084 1.3404 2.0204 1649.4 -0.0070417 569.38 0.17383 0.022152 45.142 409.33 439.01 2.9377 0.94352 1.1327 188.68 1.2468 4.3056 0.0058444
-114.62 0.10591 4.8679e-05 -53.342 -53.340 -0.18790 658.78 0.0015180 -53.365 -53.364 -0.18805 1.3409 2.0224 1642.7 -0.0070260 558.32 0.17323 0.024451 40.898 410.27 440.13 2.9250 0.94669 1.1360 189.22 1.2281 4.3330 0.0059123
-113.62 0.11746 5.3590e-05 -51.317 -51.314 -0.17516 657.76 0.0015203 -51.342 -51.340 -0.17533 1.3413 2.0244 1636.0 -0.0070100 547.59 0.17264 0.026949 37.107 411.21 441.26 2.9126 0.94987 1.1392 189.75 1.2097 4.3604 0.0059806
-112.62 0.13008 5.8912e-05 -49.289 -49.286 -0.16249 656.73 0.0015227 -49.316 -49.315 -0.16267 1.3418 2.0264 1629.3 -0.0069938 537.18 0.17204 0.029661 33.715 412.16 442.39 2.9005 0.95305 1.1424 190.28 1.1918 4.3879 0.0060491
-111.62 0.14384 6.4671e-05 -47.259 -47.255 -0.14988 655.71 0.0015251 -47.289 -47.287 -0.15008 1.3424 2.0285 1622.7 -0.0069774 527.08 0.17144 0.032600 30.675 413.10 443.53 2.8885 0.95623 1.1457 190.81 1.1742 4.4153 0.0061180
-110.62 0.15884 7.0897e-05 -45.227 -45.223 -0.13734 654.69 0.0015274 -45.259 -45.258 -0.13755 1.3429 2.0305 1616.0 -0.0069609 517.28 0.17084 0.035781 27.948 414.06 444.66 2.8769 0.95942 1.1490 191.34 1.1570 4.4427 0.0061871
-109.62 0.17516 7.7617e-05 -43.192 -43.188 -0.12486 653.66 0.0015298 -43.228 -43.226 -0.12509 1.3435 2.0326 1609.3 -0.0069441 507.76 0.17024 0.039220 25.497 415.01 445.80 2.8654 0.96261 1.1522 191.86 1.1402 4.4701 0.0062564
-108.62 0.19290 8.4863e-05 -41.155 -41.151 -0.11244 652.64 0.0015322 -41.194 -41.192 -0.11269 1.3441 2.0347 1602.6 -0.0069271 498.51 0.16964 0.042933 23.292 415.96 446.94 2.8542 0.96581 1.1555 192.38 1.1236 4.4974 0.0063261
-107.62 0.21215 9.2666e-05 -39.116 -39.111 -0.10008 651.61 0.0015347 -39.158 -39.156 -0.10036 1.3447 2.0369 1595.9 -0.0069098 489.52 0.16903 0.046937 21.305 416.92 448.09 2.8433 0.96901 1.1588 192.90 1.1075 4.5248 0.0063960
-106.62 0.23301 0.00010106 -37.075 -37.069 -0.087787 650.58 0.0015371 -37.120 -37.118 -0.088082 1.3453 2.0390 1589.2 -0.0068924 480.79 0.16843 0.051250 19.512 417.88 449.23 2.8325 0.97222 1.1621 193.41 1.0916 4.5522 0.0064662
-105.62 0.25561 0.00011007 -35.030 -35.024 -0.075550 649.55 0.0015395 -35.080 -35.078 -0.075868 1.3460 2.0412 1582.6 -0.0068747 472.30 0.16782 0.055891 17.892 418.85 450.38 2.8220 0.97544 1.1655 193.93 1.0760 4.5795 0.0065367
-104.62 0.28004 0.00011975 -32.984 -32.977 -0.063370 648.52 0.0015420 -33.038 -33.035 -0.063714 1.3467 2.0434 1575.9 -0.0068569 464.04 0.16721 0.060878 16.426 419.81 451.53 2.8116 0.97867 1.1688 194.44 1.0608 4.6069 0.0066074
-103.62 0.30643 0.00013011 -30.935 -30.928 -0.051248 647.49 0.0015444 -30.994 -30.991 -0.051619 1.3474 2.0456 1569.2 -0.0068387 456.00 0.16660 0.066231 15.099 420.78 452.68 2.8015 0.98191 1.1722 194.94 1.0458 4.6342 0.0066785
-102.62 0.33490 0.00014121 -28.884 -28.875 -0.039182 646.46 0.0015469 -28.947 -28.944 -0.039582 1.3481 2.0478 1562.5 -0.0068204 448.18 0.16600 0.071971 13.894 421.75 453.84 2.7916 0.98516 1.1755 195.44 1.0310 4.6615 0.0067498
-101.62 0.36558 0.00015309 -26.830 -26.821 -0.027172 645.43 0.0015494 -26.898 -26.894 -0.027602 1.3489 2.0501 1555.8 -0.0068018 440.57 0.16539 0.078120 12.801 422.73 454.99 2.7818 0.98841 1.1789 195.95 1.0166 4.6888 0.0068213
-100.62 0.39862 0.00016577 -24.773 -24.763 -0.015216 644.39 0.0015519 -24.847 -24.843 -0.015678 1.3497 2.0524 1549.1 -0.0067830 433.16 0.16478 0.084699 11.807 423.70 456.15 2.7723 0.99168 1.1823 196.44 1.0024 4.7161 0.0068932
-99.625 0.43414 0.00017931 -22.714 -22.703 -0.0033142 643.36 0.0015544 -22.794 -22.789 -0.0038103 1.3505 2.0547 1542.4 -0.0067639 425.95 0.16416 0.091731 10.901 424.68 457.31 2.7630 0.99496 1.1858 196.94 0.98838 4.7434 0.0069653
-98.625 0.47230 0.00019374 -20.652 -20.640 0.0085347 642.32 0.0015569 -20.738 -20.733 0.0080027 1.3514 2.0570 1535.7 -0.0067447 418.92 0.16355 0.099240 10.077 425.66 458.48 2.7538 0.99825 1.1892 197.43 0.97464 4.7707 0.0070377
-97.625 0.51325 0.00020911 -18.587 -18.574 0.020331 641.28 0.0015594 -18.680 -18.674 0.019762 1.3522 2.0594 1529.0 -0.0067251 412.07 0.16294 0.10725 9.3239 426.65 459.64 2.7448 1.0016 1.1927 197.92 0.96112 4.7979 0.0071103
-96.625 0.55714 0.00022546 -16.519 -16.506 0.032077 640.24 0.0015619 -16.620 -16.614 0.031467 1.3531 2.0618 1522.3 -0.0067053 405.39 0.16233 0.11579 8.6365 427.63 460.81 2.7360 1.0049 1.1962 198.40 0.94783 4.8251 0.0071832
-95.625 0.60416 0.00024285 -14.449 -14.434 0.043772 639.20 0.0015645 -14.557 -14.550 0.043120 1.3540 2.0642 1515.7 -0.0066853 398.88 0.16171 0.12488 8.0078 428.62 461.98 2.7274 1.0082 1.1997 198.88 0.93475 4.8524 0.0072564
-94.625 0.65446 0.00026131 -12.376 -12.360 0.055417 638.16 0.0015670 -12.491 -12.484 0.054721 1.3550 2.0667 1509.0 -0.0066650 392.53 0.16110 0.13455 7.4323 429.61 463.15 2.7189 1.0116 1.2032 199.36 0.92188 4.8796 0.0073299
-93.625 0.70822 0.00028090 -10.300 -10.283 0.067014 637.12 0.0015696 -10.424 -10.416 0.066271 1.3560 2.0691 1502.3 -0.0066444 386.34 0.16048 0.14482 6.9050 430.60 464.32 2.7107 1.0149 1.2068 199.83 0.90921 4.9068 0.0074036
-92.625 0.76564 0.00030167 -8.2208 -8.2023 0.078562 636.07 0.0015722 -8.3535 -8.3452 0.077771 1.3570 2.0716 1495.6 -0.0066236 380.31 0.15987 0.15573 6.4212 431.60 465.49 2.7025 1.0183 1.2104 200.30 0.89673 4.9340 0.0074776
-91.625 0.82689 0.00032367 -6.1388 -6.1188 0.090064 635.02 0.0015747 -6.2808 -6.2719 0.089220 1.3580 2.0742 1488.9 -0.0066025 374.41 0.15925 0.16731 5.9769 432.59 466.67 2.6946 1.0217 1.2140 200.77 0.88445 4.9611 0.0075518
-90.625 0.89218 0.00034695 -4.0537 -4.0322 0.10152 633.98 0.0015773 -4.2056 -4.1959 0.10062 1.3591 2.0767 1482.2 -0.0065811 368.66 0.15864 0.17958 5.5685 433.59 467.84 2.6868 1.0251 1.2177 201.24 0.87236 4.9883 0.0076263
-89.625 0.96172 0.00037156 -1.9656 -1.9423 0.11293 632.93 0.0015800 -2.1279 -2.1174 0.11197 1.3602 2.0793 1475.5 -0.0065595 363.05 0.15802 0.19258 5.1928 434.59 469.02 2.6791 1.0285 1.2213 201.70 0.86045 5.0154 0.0077011
-88.625 1.0357 0.00039756 0.12568 0.15073 0.12429 631.88 0.0015826 -0.047516 -0.036215 0.12328 1.3613 2.0819 1468.8 -0.0065375 357.56 0.15740 0.20633 4.8466 435.59 470.20 2.6717 1.0320 1.2250 202.15 0.84873 5.0425 0.0077761
-87.625 1.1144 0.00042500 2.2201 2.2471 0.13561 630.83 0.0015852 2.0355 2.0476 0.13454 1.3625 2.0846 1462.1 -0.0065153 352.21 0.15679 0.22087 4.5276 436.60 471.39 2.6643 1.0354 1.2288 202.61 0.83718 5.0696 0.0078514
-86.625 1.1979 0.00045395 4.3178 4.3468 0.14689 629.77 0.0015879 4.1211 4.1342 0.14575 1.3637 2.0873 1455.4 -0.0064928 346.98 0.15617 0.23623 4.2331 437.61 472.57 2.6571 1.0389 1.2325 203.06 0.82580 5.0967 0.0079270
-85.625 1.2866 0.00048445 6.4188 6.4500 0.15812 628.72 0.0015905 6.2094 6.2235 0.15691 1.3649 2.0900 1448.8 -0.0064701 341.87 0.15555 0.25245 3.9612 438.61 473.75 2.6501 1.0424 1.2363 203.50 0.81460 5.1237 0.0080028
-84.625 1.3806 0.00051658 8.5232 8.5566 0.16931 627.66 0.0015932 8.3004 8.3155 0.16803 1.3661 2.0927 1442.1 -0.0064470 336.87 0.15494 0.26956 3.7097 439.63 474.94 2.6432 1.0460 1.2402 203.95 0.80356 5.1508 0.0080789
-83.625 1.4803 0.00055039 10.631 10.667 0.18046 626.60 0.0015959 10.394 10.410 0.17911 1.3674 2.0955 1435.4 -0.0064236 331.99 0.15432 0.28760 3.4771 440.64 476.13 2.6364 1.0495 1.2440 204.38 0.79269 5.1778 0.0081553
-82.625 1.5858 0.00058593 12.742 12.780 0.19157 625.54 0.0015986 12.491 12.508 0.19014 1.3687 2.0983 1428.7 -0.0063999 327.22 0.15370 0.30659 3.2616 441.65 477.31 2.6298 1.0531 1.2479 204.82 0.78199 5.2048 0.0082319
-81.625 1.6975 0.00062328 14.857 14.898 0.20264 624.48 0.0016013 14.590 14.609 0.20113 1.3700 2.1012 1422.0 -0.0063759 322.55 0.15309 0.32659 3.0619 442.67 478.50 2.6233 1.0567 1.2519 205.25 0.77144 5.2318 0.0083088
-80.625 1.8155 0.00066250 16.975 17.019 0.21368 623.42 0.0016041 16.692 16.712 0.21208 1.3714 2.1041 1415.4 -0.0063516 317.99 0.15247 0.34763 2.8766 443.69 479.70 2.6169 1.0603 1.2558 205.67 0.76106 5.2587 0.0083860
-79.625 1.9402 0.00070365 19.097 19.144 0.22467 622.36 0.0016068 18.797 18.819 0.22299 1.3728 2.1070 1408.7 -0.0063270 313.52 0.15186 0.36974 2.7046 444.71 480.89 2.6106 1.0639 1.2598 206.10 0.75083 5.2857 0.0084634
-78.625 2.0718 0.00074680 21.222 21.272 0.23562 621.29 0.0016096 20.905 20.928 0.23385 1.3742 2.1099 1402.0 -0.0063021 309.15 0.15124 0.39296 2.5448 445.73 482.08 2.6045 1.0676 1.2639 206.51 0.74076 5.3126 0.0085411
-77.625 2.2107 0.00079201 23.351 23.405 0.24654 620.22 0.0016123 23.016 23.040 0.24468 1.3757 2.1129 1395.3 -0.0062768 304.88 0.15062 0.41735 2.3961 446.75 483.27 2.5985 1.0712 1.2680 206.93 0.73084 5.3395 0.0086190
-76.625 2.3571 0.00083935 25.484 25.541 0.25742 619.15 0.0016151 25.130 25.156 0.25546 1.3772 2.1159 1388.7 -0.0062512 300.69 0.15001 0.44292 2.2577 447.78 484.47 2.5926 1.0749 1.2721 207.34 0.72107 5.3664 0.0086972
-75.625 2.5113 0.00088889 27.621 27.682 0.26827 618.08 0.0016179 27.247 27.275 0.26620 1.3787 2.1190 1382.0 -0.0062253 296.59 0.14939 0.46974 2.1288 448.81 485.67 2.5869 1.0787 1.2762 207.74 0.71146 5.3933 0.0087757
-74.625 2.6736 0.00094069 29.762 29.827 0.27908 617.01 0.0016207 29.366 29.396 0.27691 1.3802 2.1221 1375.4 -0.0061990 292.58 0.14878 0.49783 2.0087 449.83 486.86 2.5812 1.0824 1.2804 208.14 0.70200 5.4201 0.0088544
-73.625 2.8444 0.00099484 31.907 31.975 0.28985 615.93 0.0016236 31.489 31.521 0.28758 1.3818 2.1252 1368.7 -0.0061724 288.65 0.14816 0.52725 1.8966 450.86 488.06 2.5757 1.0862 1.2847 208.54 0.69268 5.4469 0.0089334
-72.625 3.0240 0.0010514 34.055 34.128 0.30059 614.85 0.0016264 33.615 33.649 0.29821 1.3834 2.1284 1362.0 -0.0061454 284.81 0.14755 0.55804 1.7920 451.90 489.26 2.5703 1.0900 1.2889 208.93 0.68351 5.4737 0.0090126
-71.625 3.2127 0.0011104 36.208 36.286 0.31130 613.78 0.0016293 35.745 35.781 0.30880 1.3851 2.1316 1355.4 -0.0061181 281.03 0.14694 0.59024 1.6942 452.93 490.46 2.5650 1.0938 1.2932 209.32 0.67448 5.5005 0.0090922
-70.625 3.4108 0.0011720 38.365 38.447 0.32198 612.69 0.0016321 37.877 37.915 0.31935 1.3867 2.1349 1348.7 -0.0060904 277.34 0.14632 0.62390 1.6028 453.96 491.66 2.5598 1.0976 1.2976 209.70 0.66560 5.5273 0.0091720
-69.625 3.6187 0.0012362 40.526 40.613 0.33262 611.61 0.0016350 40.013 40.053 0.32987 1.3884 2.1382 1342.1 -0.0060624 273.72 0.14571 0.65906 1.5173 455.00 492.86 2.5547 1.1015 1.3020 210.08 0.65687 5.5540 0.0092520
-68.625 3.8367 0.0013032 42.691 42.784 0.34324 610.53 0.0016379 42.152 42.195 0.34036 1.3902 2.1415 1335.5 -0.0060339 270.17 0.14510 0.69577 1.4372 456.04 494.06 2.5497 1.1054 1.3064 210.45 0.64827 5.5807 0.0093324
-67.625 4.0652 0.0013729 44.860 44.959 0.35382 609.44 0.0016409 44.294 44.340 0.35080 1.3919 2.1449 1328.8 -0.0060051 266.69 0.14449 0.73408 1.3622 457.08 495.26 2.5448 1.1093 1.3109 210.82 0.63981 5.6074 0.0094130
-66.625 4.3046 0.0014454 47.034 47.138 0.36437 608.35 0.0016438 46.439 46.488 0.36122 1.3937 2.1483 1322.2 -0.0059760 263.28 0.14388 0.77404 1.2919 458.12 496.46 2.5400 1.1133 1.3154 211.18 0.63150 5.6341 0.0094939
-65.625 4.5551 0.0015209 49.213 49.323 0.37489 607.26 0.0016467 48.588 48.640 0.37160 1.3955 2.1518 1315.6 -0.0059464 259.93 0.14327 0.81570 1.2259 459.16 497.67 2.5353 1.1172 1.3200 211.54 0.62332 5.6608 0.0095750
-64.625 4.8173 0.0015994 51.395 51.512 0.38538 606.16 0.0016497 50.740 50.795 0.38195 1.3974 2.1553 1308.9 -0.0059164 256.65 0.14266 0.85910 1.1640 460.21 498.87 2.5307 1.1212 1.3246 211.89 0.61527 5.6874 0.0096564
-63.625 5.0915 0.0016809 53.583 53.706 0.39585 605.07 0.0016527 52.896 52.954 0.39226 1.3993 2.1588 1302.3 -0.0058861 253.42 0.14205 0.90429 1.1058 461.25 500.07 2.5262 1.1252 1.3293 212.24 0.60736 5.7140 0.0097382
-62.625 5.3781 0.0017657 55.774 55.905 0.40628 603.97 0.0016557 55.055 55.117 0.40254 1.4012 2.1624 1295.7 -0.0058553 250.26 0.14144 0.95134 1.0511 462.30 501.28 2.5218 1.1293 1.3340 212.58 0.59958 5.7406 0.0098201
-61.625 5.6774 0.0018536 57.971 58.108 0.41669 602.87 0.0016587 57.218 57.283 0.41279 1.4031 2.1660 1289.1 -0.0058241 247.16 0.14084 1.0003 0.99972 463.35 502.48 2.5175 1.1333 1.3387 212.92 0.59194 5.7672 0.0099024
-60.625 5.9899 0.0019449 60.172 60.317 0.42707 601.77 0.0016618 59.385 59.453 0.42301 1.4051 2.1697 1282.5 -0.0057925 244.12 0.14023 1.0512 0.95131 464.40 503.68 2.5133 1.1374 1.3435 213.26 0.58442 5.7938 0.0099850
-59.625 6.3160 0.0020396 62.378 62.531 0.43743 600.66 0.0016648 61.554 61.627 0.43320 1.4071 2.1734 1275.9 -0.0057605 241.13 0.13962 1.1041 0.90573 465.45 504.89 2.5091 1.1415 1.3483 213.58 0.57704 5.8203 0.010068
-58.625 6.6561 0.0021378 64.589 64.750 0.44776 599.55 0.0016679 63.728 63.805 0.44335 1.4091 2.1772 1269.3 -0.0057280 238.19 0.13902 1.1591 0.86277 466.50 506.09 2.5051 1.1457 1.3532 213.90 0.56978 5.8468 0.010151
-57.625 7.0107 0.0022395 66.805 66.975 0.45806 598.44 0.0016710 65.905 65.986 0.45348 1.4111 2.1810 1262.7 -0.0056951 235.31 0.13842 1.2161 0.82228 467.55 507.30 2.5011 1.1498 1.3581 214.22 0.56265 5.8733 0.010234
-56.625 7.3801 0.0023449 69.026 69.204 0.46834 597.33 0.0016741 68.086 68.172 0.46358 1.4132 2.1848 1256.1 -0.0056617 232.48 0.13781 1.2754 0.78408 468.60 508.50 2.4972 1.1540 1.3631 214.53 0.55564 5.8998 0.010318
-55.625 7.7648 0.0024540 71.251 71.439 0.47860 596.22 0.0016772 70.271 70.361 0.47364 1.4153 2.1887 1249.5 -0.0056279 229.69 0.13721 1.3369 0.74802 469.66 509.71 2.4934 1.1582 1.3681 214.84 0.54875 5.9263 0.010402
-54.625 8.1652 0.0025669 73.482 73.680 0.48883 595.10 0.0016804 72.460 72.554 0.48368 1.4174 2.1927 1242.9 -0.0055937 226.96 0.13661 1.4006 0.71396 470.72 510.91 2.4897 1.1624 1.3731 215.14 0.54199 5.9527 0.010486
-53.625 8.5819 0.0026837 75.718 75.926 0.49904 593.98 0.0016836 74.652 74.752 0.49369 1.4196 2.1967 1236.3 -0.0055589 224.27 0.13601 1.4667 0.68178 471.77 512.11 2.4860 1.1667 1.3782 215.43 0.53535 5.9792 0.010571
-52.625 9.0151 0.0028045 77.959 78.177 0.50923 592.86 0.0016867 76.849 76.954 0.50368 1.4218 2.2007 1229.8 -0.0055237 221.63 0.13541 1.5353 0.65136 472.83 513.32 2.4824 1.1710 1.3834 215.72 0.52882 6.0056 0.010656
-51.625 9.4655 0.0029294 80.206 80.435 0.51939 591.73 0.0016900 79.049 79.159 0.51363 1.4240 2.2048 1223.2 -0.0054880 219.04 0.13482 1.6062 0.62258 473.89 514.52 2.4789 1.1752 1.3886 216.00 0.52241 6.0320 0.010741
-50.625 9.9335 0.0030584 82.457 82.698 0.52953 590.60 0.0016932 81.253 81.369 0.52356 1.4262 2.2089 1216.6 -0.0054519 216.48 0.13422 1.6797 0.59534 474.95 515.73 2.4755 1.1796 1.3938 216.28 0.51612 6.0584 0.010827
-49.625 10.419 0.0031916 84.715 84.967 0.53965 589.47 0.0016964 83.462 83.584 0.53347 1.4285 2.2131 1210.1 -0.0054152 213.98 0.13363 1.7558 0.56954 476.01 516.93 2.4722 1.1839 1.3991 216.55 0.50994 6.0848 0.010913
-48.625 10.924 0.0033291 86.977 87.241 0.54975 588.34 0.0016997 85.674 85.802 0.54334 1.4308 2.2173 1203.5 -0.0053780 211.51 0.13303 1.8345 0.54510 477.07 518.13 2.4689 1.1883 1.4044 216.82 0.50387 6.1112 0.010999
-47.625 11.448 0.0034711 89.245 89.522 0.55983 587.20 0.0017030 87.891 88.025 0.55319 1.4331 2.2216 1196.9 -0.0053403 209.08 0.13244 1.9159 0.52194 478.14 519.33 2.4657 1.1927 1.4098 217.08 0.49792 6.1375 0.011085
-46.625 11.991 0.0036175 91.519 91.809 0.56989 586.06 0.0017063 90.111 90.252 0.56302 1.4354 2.2259 1190.4 -0.0053020 206.69 0.13185 2.0001 0.49997 479.20 520.53 2.4625 1.1971 1.4153 217.33 0.49207 6.1639 0.011172
-45.625 12.554 0.0037685 93.798 94.102 0.57993 584.92 0.0017096 92.336 92.484 0.57282 1.4378 2.2303 1183.8 -0.0052633 204.34 0.13126 2.0872 0.47912 480.27 521.74 2.4594 1.2015 1.4207 217.58 0.48633 6.1902 0.011259
-44.625 13.137 0.0039242 96.083 96.401 0.58995 583.77 0.0017130 94.565 94.720 0.58260 1.4402 2.2347 1177.3 -0.0052240 202.03 0.13067 2.1771 0.45933 481.33 522.94 2.4564 1.2060 1.4263 217.82 0.48069 6.2165 0.011347
-43.625 13.741 0.0040846 98.374 98.706 0.59995 582.62 0.0017164 96.799 96.961 0.59235 1.4426 2.2392 1170.7 -0.0051841 199.75 0.13008 2.2700 0.44053 482.40 524.14 2.4535 1.2104 1.4319 218.05 0.47516 6.2429 0.011435
-42.625 14.367 0.0042499 100.67 101.02 0.60994 581.47 0.0017198 99.036 99.207 0.60208 1.4450 2.2437 1164.2 -0.0051437 197.51 0.12949 2.3659 0.42267 483.46 525.33 2.4506 1.2149 1.4375 218.28 0.46973 6.2692 0.011523
-41.625 15.015 0.0044201 102.97 103.34 0.61990 580.32 0.0017232 101.28 101.46 0.61179 1.4475 2.2483 1157.7 -0.0051027 195.30 0.12891 2.4649 0.40569 484.53 526.53 2.4478 1.2195 1.4432 218.50 0.46440 6.2955 0.011612
-40.625 15.686 0.0045953 105.28 105.66 0.62985 579.16 0.0017266 103.52 103.71 0.62147 1.4500 2.2529 1151.1 -0.0050611 193.13 0.12832 2.5671 0.38954 485.60 527.73 2.4450 1.2240 1.4489 218.72 0.45917 6.3218 0.011701
-39.625 16.380 0.0047756 107.59 107.99 0.63978 578.00 0.0017301 105.78 105.97 0.63113 1.4525 2.2576 1144.6 -0.0050189 190.99 0.12774 2.6725 0.37418 486.67 528.93 2.4423 1.2286 1.4547 218.93 0.45403 6.3481 0.011790
-38.625 17.097 0.0049611 109.92 110.33 0.64970 576.83 0.0017336 108.03 108.24 0.64077 1.4550 2.2623 1138.0 -0.0049761 188.88 0.12716 2.7813 0.35955 487.74 530.12 2.4397 1.2332 1.4606 219.13 0.44900 6.3744 0.011880
-37.625 17.838 0.0051519 112.24 112.67 0.65959 575.66 0.0017371 110.29 110.51 0.65039 1.4576 2.2671 1131.5 -0.0049327 186.81 0.12658 2.8934 0.34562 488.81 531.32 2.4371 1.2378 1.4665 219.33 0.44405 6.4007 0.011970
-36.625 18.604 0.0053481 114.57 115.02 0.66948 574.49 0.0017407 112.56 112.78 0.65999 1.4602 2.2719 1125.0 -0.0048887 184.76 0.12600 3.0089 0.33235 489.88 532.51 2.4346 1.2424 1.4724 219.52 0.43920 6.4270 0.012060
-35.625 19.395 0.0055497 116.91 117.38 0.67934 573.32 0.0017442 114.83 115.06 0.66956 1.4628 2.2768 1118.5 -0.0048440 182.75 0.12542 3.1280 0.31969 490.95 533.70 2.4321 1.2471 1.4784 219.70 0.43444 6.4533 0.012151
-34.625 20.212 0.0057569 119.26 119.75 0.68920 572.14 0.0017478 117.10 117.34 0.67912 1.4654 2.2818 1111.9 -0.0047987 180.76 0.12485 3.2506 0.30763 492.02 534.89 2.4297 1.2517 1.4845 219.88 0.42977 6.4797 0.012243
-33.625 21.056 0.0059698 121.61 122.12 0.69903 570.96 0.0017514 119.38 119.63 0.68865 1.4681 2.2868 1105.4 -0.0047527 178.80 0.12427 3.3770 0.29612 493.09 536.08 2.4273 1.2564 1.4906 220.05 0.42519 6.5060 0.012334
-32.625 21.926 0.0061883 123.97 124.50 0.70886 569.77 0.0017551 121.66 121.93 0.69817 1.4708 2.2918 1098.9 -0.0047061 176.87 0.12370 3.5071 0.28514 494.17 537.27 2.4250 1.2611 1.4968 220.21 0.42070 6.5323 0.012426
-31.625 22.823 0.0064128 126.33 126.88 0.71866 568.58 0.0017588 123.95 124.23 0.70767 1.4735 2.2970 1092.3 -0.0046587 174.97 0.12313 3.6410 0.27465 495.24 538.46 2.4227 1.2659 1.5031 220.36 0.41629 6.5587 0.012519
-30.625 23.749 0.0066431 128.70 129.28 0.72846 567.39 0.0017625 126.24 126.53 0.71714 1.4762 2.3021 1085.8 -0.0046107 173.09 0.12256 3.7787 0.26464 496.31 539.64 2.4205 1.2706 1.5094 220.51 0.41196 6.5850 0.012612
-29.625 24.703 0.0068794 131.08 131.68 0.73824 566.19 0.0017662 128.54 128.84 0.72660 1.4790 2.3074 1079.3 -0.0045619 171.24 0.12200 3.9205 0.25507 497.38 540.83 2.4184 1.2754 1.5157 220.65 0.40772 6.6114 0.012706
-28.625 25.687 0.0071219 133.46 134.08 0.74801 564.99 0.0017699 130.84 131.16 0.73604 1.4818 2.3126 1072.8 -0.0045124 169.42 0.12143 4.0663 0.24592 498.46 542.01 2.4162 1.2802 1.5222 220.79 0.40356 6.6378 0.012800
-27.625 26.700 0.0073706 135.85 136.50 0.75776 563.78 0.0017737 133.15 133.48 0.74547 1.4846 2.3180 1066.2 -0.0044621 167.62 0.12087 4.2163 0.23717 499.53 543.19 2.4142 1.2850 1.5286 220.91 0.39947 6.6642 0.012894
-26.625 27.743 0.0076255 138.25 138.92 0.76751 562.57 0.0017775 135.47 135.81 0.75487 1.4874 2.3234 1059.7 -0.0044111 165.84 0.12031 4.3705 0.22881 500.60 544.37 2.4122 1.2899 1.5352 221.03 0.39547 6.6906 0.012989
-25.625 28.817 0.0078869 140.65 141.35 0.77724 561.36 0.0017814 137.78 138.14 0.76426 1.4902 2.3289 1053.2 -0.0043593 164.09 0.11975 4.5290 0.22080 501.68 545.55 2.4102 1.2947 1.5418 221.14 0.39154 6.7171 0.013084
-24.625 29.923 0.0081547 143.06 143.79 0.78696 560.14 0.0017853 140.11 140.48 0.77363 1.4931 2.3344 1046.7 -0.0043067 162.36 0.11919 4.6918 0.21314 502.75 546.72 2.4083 1.2996 1.5485 221.25 0.38768 6.7436 0.013180
-23.625 31.061 0.0084291 145.48 146.23 0.79667 558.92 0.0017892 142.44 142.82 0.78298 1.4960 2.3400 1040.1 -0.0042533 160.65 0.11863 4.8592 0.20580 503.82 547.90 2.4064 1.3045 1.5552 221.35 0.38391 6.7701 0.013277
-22.625 32.232 0.0087102 147.91 148.69 0.80636 557.69 0.0017931 144.77 145.17 0.79232 1.4990 2.3457 1033.6 -0.0041990 158.97 0.11807 5.0311 0.19877 504.90 549.07 2.4045 1.3095 1.5621 221.44 0.38020 6.7967 0.013374
-21.625 33.435 0.0089981 150.34 151.15 0.81605 556.46 0.0017971 147.11 147.52 0.80164 1.5019 2.3514 1027.1 -0.0041439 157.30 0.11752 5.2076 0.19203 505.97 550.24 2.4027 1.3144 1.5690 221.52 0.37656 6.8232 0.013471
-20.625 34.673 0.0092928 152.78 153.62 0.82573 555.23 0.0018011 149.45 149.88 0.81095 1.5049 2.3572 1020.6 -0.0040879 155.66 0.11697 5.3889 0.18557 507.04 551.40 2.4010 1.3194 1.5759 221.59 0.37300 6.8499 0.013569
-19.625 35.946 0.0095945 155.22 156.09 0.83539 553.99 0.0018051 151.80 152.25 0.82024 1.5079 2.3630 1014.0 -0.0040311 154.04 0.11642 5.5750 0.17937 508.11 552.57 2.3992 1.3244 1.5829 221.66 0.36950 6.8765 0.013668
-18.625 37.253 0.0099033 157.68 158.58 0.84505 552.74 0.0018092 154.16 154.62 0.82952 1.5109 2.3689 1007.5 -0.0039733 152.44 0.11587 5.7660 0.17343 509.19 553.73 2.3976 1.3294 1.5901 221.72 0.36608 6.9032 0.013767
-17.625 38.596 0.010219 160.14 161.07 0.85470 551.49 0.0018133 156.52 157.00 0.83878 1.5140 2.3749 1001.0 -0.0039145 150.86 0.11532 5.9621 0.16773 510.26 554.89 2.3959 1.3345 1.5972 221.77 0.36272 6.9300 0.013867
-16.625 39.976 0.010542 162.60 163.57 0.86433 550.24 0.0018174 158.89 159.39 0.84803 1.5171 2.3810 994.44 -0.0038549 149.29 0.11478 6.1632 0.16225 511.33 556.05 2.3943 1.3395 1.6045 221.81 0.35942 6.9568 0.013968
-15.625 41.392 0.010873 165.08 166.08 0.87396 548.98 0.0018216 161.26 161.78 0.85726 1.5202 2.3871 987.91 -0.0037942 147.75 0.11423 6.3696 0.15700 512.40 557.20 2.3927 1.3446 1.6119 221.85 0.35619 6.9836 0.014069
-14.625 42.846 0.011211 167.56 168.60 0.88358 547.71 0.0018258 163.64 164.18 0.86649 1.5233 2.3933 981.37 -0.0037325 146.22 0.11369 6.5812 0.15195 513.47 558.36 2.3912 1.3497 1.6193 221.87 0.35302 7.0105 0.014170
-13.625 44.338 0.011556 170.05 171.12 0.89319 546.44 0.0018300 166.02 166.58 0.87569 1.5264 2.3996 974.83 -0.0036698 144.72 0.11315 6.7983 0.14710 514.54 559.51 2.3897 1.3549 1.6268 221.89 0.34992 7.0375 0.014273
-12.625 45.870 0.011910 172.55 173.66 0.90279 545.17 0.0018343 168.41 168.99 0.88489 1.5296 2.4059 968.29 -0.0036061 143.23 0.11261 7.0208 0.14243 515.61 560.65 2.3883 1.3600 1.6344 221.90 0.34688 7.0646 0.014376
-11.625 47.440 0.012271 175.05 176.20 0.91239 543.89 0.0018386 170.81 171.41 0.89407 1.5328 2.4124 961.75 -0.0035413 141.76 0.11208 7.2490 0.13795 516.68 561.80 2.3868 1.3652 1.6421 221.91 0.34389 7.0917 0.014479
-10.625 49.051 0.012639 177.56 178.75 0.92197 542.60 0.0018430 173.21 173.83 0.90324 1.5360 2.4189 955.20 -0.0034753 140.30 0.11154 7.4829 0.13364 517.75 562.94 2.3854 1.3704 1.6498 221.90 0.34097 7.1188 0.014584
-9.6250 50.703 0.013016 180.08 181.31 0.93155 541.31 0.0018474 175.61 176.26 0.91240 1.5393 2.4255 948.65 -0.0034082 138.86 0.11101 7.7226 0.12949 518.81 564.08 2.3841 1.3757 1.6577 221.88 0.33810 7.1461 0.014689
-8.6250 52.396 0.013401 182.61 183.88 0.94113 540.02 0.0018518 178.03 178.70 0.92154 1.5426 2.4321 942.10 -0.0033400 137.44 0.11048 7.9683 0.12550 519.88 565.21 2.3827 1.3809 1.6657 221.86 0.33529 7.1734 0.014795
-7.6250 54.131 0.013794 185.14 186.45 0.95069 538.72 0.0018563 180.45 181.14 0.93068 1.5459 2.4389 935.55 -0.0032705 136.03 0.10995 8.2200 0.12165 520.94 566.35 2.3814 1.3862 1.6737 221.83 0.33254 7.2008 0.014902
-6.6250 55.909 0.014195 187.69 189.04 0.96025 537.41 0.0018608 182.87 183.59 0.93980 1.5492 2.4457 928.99 -0.0031998 134.64 0.10942 8.4779 0.11795 522.01 567.48 2.3801 1.3915 1.6819 221.79 0.32984 7.2284 0.015009
-5.6250 57.730 0.014605 190.24 191.63 0.96980 536.10 0.0018653 185.30 186.05 0.94892 1.5525 2.4526 922.43 -0.0031279 133.27 0.10889 8.7420 0.11439 523.07 568.60 2.3789 1.3969 1.6902 221.74 0.32720 7.2560 0.015117
-4.6250 59.595 0.015023 192.80 194.24 0.97935 534.78 0.0018699 187.74 188.51 0.95802 1.5559 2.4596 915.87 -0.0030546 131.91 0.10837 9.0126 0.11096 524.13 569.72 2.3777 1.4022 1.6985 221.68 0.32461 7.2837 0.015226
-3.6250 61.505 0.015450 195.36 196.85 0.98889 533.45 0.0018746 190.19 190.98 0.96711 1.5593 2.4667 909.30 -0.0029800 130.56 0.10785 9.2896 0.10765 525.19 570.84 2.3765 1.4076 1.7070 221.62 0.32207 7.3115 0.015336
-2.6250 63.461 0.015885 197.94 199.47 0.99842 532.12 0.0018793 192.64 193.46 0.97620 1.5627 2.4739 902.73 -0.0029041 129.23 0.10733 9.5733 0.10446 526.25 571.96 2.3753 1.4131 1.7156 221.54 0.31958 7.3394 0.015447
-1.6250 65.462 0.016330 200.52 202.10 1.0080 530.78 0.0018840 195.10 195.95 0.98527 1.5662 2.4811 896.16 -0.0028267 127.91 0.10681 9.8638 0.10138 527.31 573.07 2.3742 1.4185 1.7243 221.45 0.31715 7.3674 0.015559
-0.62500 67.510 0.016783 203.11 204.74 1.0175 529.44 0.0018888 197.56 198.44 0.99434 1.5696 2.4885 889.58 -0.0027478 126.61 0.10629 10.161 0.098414 528.37 574.18 2.3731 1.4240 1.7331 221.36 0.31476 7.3956 0.015671
0.37500 69.606 0.017245 205.71 207.39 1.0270 528.09 0.0018936 200.03 200.94 1.0034 1.5731 2.4960 883.00 -0.0026675 125.32 0.10578 10.466 0.095552 529.42 575.28 2.3720 1.4295 1.7421 221.26 0.31242 7.4239 0.015785
1.3750 71.749 0.017716 208.32 210.05 1.0365 526.73 0.0018985 202.51 203.45 1.0124 1.5767 2.5035 876.42 -0.0025856 124.04 0.10527 10.777 0.092790 530.48 576.38 2.3709 1.4350 1.7512 221.14 0.31013 7.4523 0.015899
2.3750 73.941 0.018197 210.93 212.72 1.0460 525.37 0.0019034 204.99 205.96 1.0215 1.5802 2.5112 869.83 -0.0025022 122.78 0.10476 11.096 0.090123 531.53 577.47 2.3699 1.4406 1.7604 221.02 0.30789 7.4808 0.016015
3.3750 76.183 0.018687 213.56 215.40 1.0555 523.99 0.0019084 207.48 208.48 1.0305 1.5838 2.5190 863.24 -0.0024171 121.53 0.10425 11.422 0.087549 532.58 578.56 2.3688 1.4462 1.7697 220.89 0.30569 7.5095 0.016131
4.3750 78.475 0.019186 216.19 218.09 1.0650 522.62 0.0019134 209.98 211.01 1.0395 1.5874 2.5268 856.64 -0.0023303 120.29 0.10374 11.756 0.085062 533.63 579.65 2.3678 1.4518 1.7792 220.75 0.30354 7.5384 0.016249
5.3750 80.817 0.019695 218.83 220.78 1.0745 521.23 0.0019185 212.48 213.55 1.0486 1.5910 2.5348 850.04 -0.0022417 119.06 0.10324 12.098 0.082660 534.67 580.73 2.3669 1.4575 1.7888 220.60 0.30144 7.5674 0.016368
6.3750 83.211 0.020214 221.48 223.49 1.0840 519.84 0.0019237 215.00 216.10 1.0576 1.5946 2.5429 843.43 -0.0021514 117.85 0.10273 12.447 0.080340 535.72 581.81 2.3659 1.4632 1.7986 220.44 0.29938 7.5966 0.016487
7.3750 85.657 0.020743 224.14 226.21 1.0935 518.44 0.0019289 217.51 218.65 1.0666 1.5983 2.5511 836.82 -0.0020593 116.65 0.10223 12.805 0.078096 536.76 582.88 2.3650 1.4689 1.8085 220.27 0.29736 7.6259 0.016608
8.3750 88.156 0.021281 226.80 228.94 1.1030 517.03 0.0019341 220.04 221.22 1.0756 1.6020 2.5595 830.20 -0.0019652 115.46 0.10173 13.170 0.075928 537.80 583.95 2.3640 1.4746 1.8186 220.08 0.29538 7.6555 0.016730
9.3750 90.708 0.021829 229.48 231.67 1.1125 515.62 0.0019394 222.57 223.79 1.0846 1.6057 2.5679 823.58 -0.0018691 114.28 0.10124 13.545 0.073830 538.84 585.01 2.3631 1.4804 1.8288 219.89 0.29345 7.6852 0.016853
10.375 93.315 0.022388 232.16 234.42 1.1220 514.19 0.0019448 225.11 226.37 1.0936 1.6095 2.5765 816.96 -0.0017710 113.11 0.10074 13.927 0.071802 539.87 586.07 2.3622 1.4863 1.8392 219.69 0.29156 7.7151 0.016978
11.375 95.977 0.022957 234.85 237.18 1.1314 512.76 0.0019502 227.66 228.95 1.1025 1.6132 2.5852 810.32 -0.0016708 111.95 0.10025 14.319 0.069840 540.90 587.12 2.3614 1.4921 1.8498 219.48 0.28971 7.7452 0.017103
12.375 98.694 0.023537 237.55 239.94 1.1409 511.32 0.0019557 230.22 231.55 1.1115 1.6170 2.5940 803.68 -0.0015685 110.80 0.099756 14.719 0.067941 541.93 588.17 2.3605 1.4980 1.8605 219.26 0.28790 7.7756 0.017230
13.375 101.47 0.024126 240.26 242.72 1.1504 509.87 0.0019613 232.78 234.15 1.1205 1.6208 2.6030 797.04 -0.0014639 109.67 0.099267 15.128 0.066103 542.96 589.21 2.3597 1.5040 1.8715 219.03 0.28612 7.8061 0.017359
14.375 104.30 0.024727 242.98 245.51 1.1599 508.42 0.0019669 235.35 236.77 1.1295 1.6247 2.6121 790.39 -0.0013569 108.54 0.098779 15.547 0.064323 543.99 590.24 2.3588 1.5099 1.8826 218.79 0.28439 7.8369 0.017488
15.375 107.19 0.025338 245.71 248.30 1.1693 506.95 0.0019726 237.93 239.39 1.1384 1.6286 2.6214 783.73 -0.0012476 107.43 0.098294 15.974 0.062600 545.01 591.27 2.3580 1.5159 1.8940 218.53 0.28270 7.8680 0.017619
16.375 110.13 0.025961 248.45 251.11 1.1788 505.48 0.0019783 240.52 242.02 1.1474 1.6324 2.6308 777.07 -0.0011357 106.32 0.097810 16.412 0.060931 546.03 592.29 2.3572 1.5220 1.9055 218.27 0.28104 7.8993 0.017752
17.375 113.14 0.026594 251.20 253.93 1.1883 504.00 0.0019841 243.11 244.66 1.1564 1.6364 2.6403 770.40 -0.0010213 105.22 0.097328 16.859 0.059314 547.04 593.31 2.3564 1.5281 1.9172 217.99 0.27942 7.9308 0.017886
18.375 116.21 0.027239 253.95 256.76 1.1977 502.50 0.0019900 245.72 247.31 1.1653 1.6403 2.6501 763.72 -0.00090422 104.14 0.096848 17.317 0.057747 548.05 594.32 2.3557 1.5342 1.9292 217.71 0.27783 7.9626 0.018021
19.375 119.33 0.027894 256.72 259.60 1.2072 501.00 0.0019960 248.33 249.97 1.1743 1.6443 2.6599 757.04 -0.00078435 103.06 0.096371 17.785 0.056228 549.06 595.33 2.3549 1.5404 1.9414 217.41 0.27628 7.9947 0.018159
20.375 122.52 0.028561 259.49 262.45 1.2167 499.49 0.0020020 250.95 252.64 1.1832 1.6483 2.6700 750.35 -0.00066161 101.99 0.095895 18.263 0.054756 550.07 596.32 2.3541 1.5466 1.9538 217.10 0.27477 8.0272 0.018297
21.375 125.77 0.029240 262.27 265.32 1.2261 497.97 0.0020082 253.57 255.32 1.1922 1.6523 2.6802 743.64 -0.00053589 100.93 0.095420 18.752 0.053328 551.07 597.31 2.3534 1.5528 1.9665 216.78 0.27329 8.0599 0.018438
22.375 129.08 0.029931 265.07 268.19 1.2356 496.43 0.0020144 256.21 258.00 1.2012 1.6563 2.6906 736.94 -0.00040708 99.877 0.094948 19.252 0.051943 552.07 598.30 2.3526 1.5591 1.9795 216.45 0.27184 8.0929 0.018580
23.375 132.46 0.030633 267.87 271.07 1.2451 494.89 0.0020206 258.86 260.70 1.2101 1.6604 2.7012 730.22 -0.00027505 98.834 0.094478 19.763 0.050600 553.06 599.27 2.3519 1.5655 1.9927 216.11 0.27043 8.1263 0.018724
24.375 135.90 0.031347 270.68 273.97 1.2545 493.34 0.0020270 261.51 263.41 1.2191 1.6645 2.7120 723.49 -0.00013968 97.800 0.094009 20.285 0.049297 554.05 600.24 2.3512 1.5718 2.0061 215.75 0.26906 8.1600 0.018870
25.375 139.41 0.032073 273.50 276.87 1.2640 491.77 0.0020335 264.17 266.13 1.2280 1.6686 2.7230 716.76 -8.3775e-07 96.773 0.093543 20.820 0.048032 555.03 601.20 2.3504 1.5783 2.0199 215.39 0.26771 8.1941 0.019017
26.375 142.98 0.032812 276.33 279.79 1.2735 490.20 0.0020400 266.84 268.85 1.2370 1.6728 2.7342 710.01 0.00014161 95.755 0.093078 21.366 0.046804 556.01 602.15 2.3497 1.5847 2.0340 215.01 0.26640 8.2286 0.019167
27.375 146.62 0.033563 279.17 282.72 1.2829 488.61 0.0020466 269.52 271.59 1.2459 1.6770 2.7456 703.26 0.00028782 94.745 0.092615 21.924 0.045612 556.99 603.10 2.3490 1.5913 2.0484 214.62 0.26512 8.2634 0.019319
28.375 150.33 0.034326 282.02 285.66 1.2924 487.01 0.0020533 272.21 274.34 1.2549 1.6812 2.7573 696.49 0.00043793 93.742 0.092154 22.495 0.044454 557.96 604.03 2.3483 1.5978 2.0631 214.21 0.26387 8.2987 0.019472
29.375 154.10 0.035102 284.88 288.61 1.3019 485.40 0.0020601 274.91 277.10 1.2638 1.6854 2.7691 689.72 0.00059212 92.747 0.091695 23.079 0.043329 558.92 604.96 2.3476 1.6044 2.0781 213.80 0.26265 8.3344 0.019628
30.375 157.94 0.035891 287.75 291.57 1.3114 483.78 0.0020671 277.62 279.87 1.2728 1.6897 2.7813 682.93 0.00075055 91.760 0.091238 23.676 0.042237 559.88 605.88 2.3469 1.6111 2.0935 213.37 0.26147 8.3705 0.019786
31.375 161.86 0.036693 290.63 294.55 1.3208 482.15 0.0020741 280.34 282.66 1.2818 1.6939 2.7936 676.13 0.00091340 90.779 0.090782 24.287 0.041175 560.84 606.79 2.3462 1.6178 2.1092 212.93 0.26031 8.4071 0.019947
32.375 165.84 0.037507 293.52 297.54 1.3303 480.50 0.0020812 283.07 285.45 1.2908 1.6983 2.8063 669.32 0.0010809 89.806 0.090328 24.911 0.040143 561.79 607.69 2.3455 1.6246 2.1254 212.48 0.25919 8.4442 0.020110
33.375 169.90 0.038335 296.42 300.53 1.3398 478.83 0.0020884 285.81 288.26 1.2997 1.7026 2.8192 662.50 0.0012532 88.840 0.089876 25.549 0.039140 562.73 608.58 2.3448 1.6314 2.1419 212.01 0.25809 8.4818 0.020275
34.375 174.02 0.039176 299.34 303.55 1.3493 477.16 0.0020957 288.56 291.07 1.3087 1.7070 2.8324 655.67 0.0014305 87.880 0.089426 26.202 0.038164 563.67 609.46 2.3440 1.6383 2.1589 211.53 0.25702 8.5199 0.020443
35.375 178.22 0.040031 302.26 306.57 1.3588 475.47 0.0021032 291.32 293.90 1.3177 1.7114 2.8459 648.82 0.0016131 86.927 0.088977 26.870 0.037216 564.60 610.33 2.3433 1.6452 2.1763 211.04 0.25599 8.5586 0.020613
36.375 182.50 0.040899 305.19 309.60 1.3682 473.77 0.0021107 294.09 296.74 1.3267 1.7158 2.8597 641.96 0.0018012 85.980 0.088531 27.553 0.036293 565.52 611.19 2.3426 1.6522 2.1942 210.53 0.25498 8.5978 0.020786
37.375 186.84 0.041781 308.13 312.65 1.3777 472.05 0.0021184 296.87 299.60 1.3357 1.7203 2.8739 635.08 0.0019950 85.040 0.088085 28.252 0.035395 566.44 612.04 2.3419 1.6592 2.2125 210.01 0.25400 8.6376 0.020962
38.375 191.27 0.042677 311.08 315.71 1.3872 470.31 0.0021262 299.66 302.46 1.3447 1.7248 2.8884 628.19 0.0021949 84.105 0.087642 28.967 0.034522 567.35 612.88 2.3411 1.6663 2.2314 209.47 0.25305 8.6780 0.021141
39.375 195.77 0.043586 314.05 318.78 1.3967 468.56 0.0021342 302.46 305.34 1.3537 1.7293 2.9033 621.29 0.0024011 83.177 0.087200 29.699 0.033671 568.26 613.70 2.3404 1.6734 2.2508 208.92 0.25213 8.7190 0.021323
40.375 200.34 0.044510 317.02 321.87 1.4062 466.80 0.0021423 305.27 308.23 1.3627 1.7339 2.9185 614.37 0.0026140 82.254 0.086760 30.447 0.032844 569.15 614.52 2.3396 1.6806 2.2708 208.36 0.25123 8.7608 0.021508
41.375 205.00 0.045448 320.00 324.96 1.4157 465.01 0.0021505 308.10 311.14 1.3718 1.7385 2.9342 607.43 0.0028338 81.338 0.086322 31.214 0.032037 570.04 615.32 2.3389 1.6879 2.2913 207.78 0.25037 8.8032 0.021696
42.375 209.73 0.046400 323.00 328.07 1.4252 463.21 0.0021588 310.94 314.06 1.3808 1.7432 2.9502 600.47 0.0030609 80.426 0.085885 31.998 0.031252 570.92 616.11 2.3381 1.6952 2.3125 207.19 0.24953 8.8463 0.021888
43.375 214.54 0.047367 326.01 331.20 1.4347 461.40 0.0021673 313.79 316.99 1.3899 1.7478 2.9667 593.50 0.0032957 79.520 0.085449 32.800 0.030488 571.79 616.88 2.3373 1.7027 2.3344 206.58 0.24871 8.8902 0.022084
44.375 219.43 0.048348 329.02 334.33 1.4443 459.56 0.0021760 316.65 319.94 1.3989 1.7525 2.9837 586.51 0.0035386 78.619 0.085015 33.622 0.029742 572.65 617.65 2.3365 1.7101 2.3569 205.96 0.24793 8.9349 0.022283
45.375 224.41 0.049344 332.05 337.48 1.4538 457.71 0.0021848 319.52 322.90 1.4080 1.7573 3.0012 579.50 0.0037900 77.723 0.084583 34.463 0.029016 573.50 618.40 2.3357 1.7177 2.3802 205.32 0.24717 8.9805 0.022485
46.375 229.46 0.050355 335.09 340.65 1.4633 455.83 0.0021938 322.41 325.88 1.4171 1.7621 3.0192 572.46 0.0040504 76.832 0.084152 35.325 0.028308 574.34 619.13 2.3349 1.7253 2.4042 204.67 0.24644 9.0269 0.022692
47.375 234.60 0.051380 338.15 343.82 1.4729 453.94 0.0022029 325.31 328.87 1.4262 1.7669 3.0377 565.41 0.0043202 75.946 0.083723 36.208 0.027618 575.17 619.85 2.3340 1.7329 2.4291 204.00 0.24573 9.0742 0.022903
48.375 239.83 0.052420 341.21 347.01 1.4824 452.03 0.0022123 328.22 331.88 1.4353 1.7718 3.0569 558.34 0.0046000 75.064 0.083295 37.112 0.026945 576.00 620.55 2.3332 1.7407 2.4548 203.31 0.24505 9.1224 0.023119
49.375 245.13 0.053475 344.28 350.21 1.4920 450.09 0.0022218 331.15 334.90 1.4445 1.7767 3.0766 551.24 0.0048904 74.186 0.082868 38.039 0.026289 576.81 621.24 2.3323 1.7485 2.4815 202.61 0.24440 9.1716 0.023339
50.375 250.53 0.054545 347.37 353.43 1.5015 448.13 0.0022315 334.09 337.94 1.4536 1.7817 3.0970 544.13 0.0051920 73.313 0.082442 38.989 0.025648 577.61 621.91 2.3314 1.7564 2.5092 201.89 0.24377 9.2219 0.023564
51.375 256.01 0.055630 350.47 356.66 1.5111 446.15 0.0022414 337.04 341.00 1.4628 1.7867 3.1181 536.98 0.0055054 72.443 0.082018 39.962 0.025024 578.39 622.56 2.3304 1.7644 2.5379 201.16 0.24317 9.2733 0.023794
52.375 261.57 0.056730 353.58 359.91 1.5206 444.15 0.0022515 340.01 344.07 1.4720 1.7918 3.1400 529.82 0.0058313 71.577 0.081595 40.961 0.024414 579.17 623.20 2.3295 1.7724 2.5677 200.41 0.24260 9.3258 0.024029
53.375 267.23 0.057845 356.70 363.17 1.5302 442.12 0.0022618 343.00 347.17 1.4812 1.7969 3.1627 522.62 0.0061705 70.715 0.081174 41.985 0.023818 579.93 623.81 2.3285 1.7805 2.5987 199.63 0.24205 9.3795 0.024270
54.375 272.97 0.058975 359.84 366.44 1.5398 440.06 0.0022724 346.00 350.28 1.4904 1.8021 3.1862 515.40 0.0065239 69.856 0.080753 43.036 0.023237 580.68 624.41 2.3274 1.7887 2.6310 198.85 0.24154 9.4344 0.024516
55.375 278.81 0.060120 362.99 369.73 1.5494 437.98 0.0022832 349.02 353.40 1.4997 1.8073 3.2106 508.15 0.0068923 69.001 0.080334 44.114 0.022669 581.41 624.99 2.3264 1.7969 2.6646 198.04 0.24105 9.4907 0.024769
56.375 284.74 0.061279 366.15 373.04 1.5590 435.87 0.0022943 352.05 356.55 1.5090 1.8126 3.2360 500.87 0.0072767 68.148 0.079915 45.221 0.022114 582.13 625.54 2.3253 1.8052 2.6998 197.22 0.24059 9.5484 0.025028
57.375 290.76 0.062453 369.32 376.36 1.5686 433.73 0.0023056 355.10 359.72 1.5183 1.8179 3.2624 493.56 0.0076782 67.299 0.079498 46.358 0.021571 582.83 626.07 2.3241 1.8136 2.7365 196.37 0.24016 9.6075 0.025294
58.375 296.87 0.063641 372.51 379.69 1.5783 431.56 0.0023172 358.17 362.91 1.5276 1.8233 3.2900 486.22 0.0080980 66.451 0.079082 47.525 0.021041 583.52 626.58 2.3230 1.8220 2.7749 195.51 0.23976 9.6682 0.025568
59.375 303.08 0.064843 375.71 383.04 1.5879 429.36 0.0023290 361.25 366.12 1.5370 1.8288 3.3188 478.84 0.0085373 65.606 0.078666 48.726 0.020523 584.18 627.07 2.3218 1.8305 2.8152 194.63 0.23939 9.7305 0.025849
60.375 309.38 0.066058 378.92 386.40 1.5975 427.13 0.0023412 364.36 369.35 1.5464 1.8343 3.3489 471.43 0.0089976 64.763 0.078251 49.960 0.020016 584.83 627.53 2.3205 1.8391 2.8576 193.73 0.23905 9.7945 0.026138
61.375 315.78 0.067287 382.15 389.79 1.6072 424.87 0.0023537 367.48 372.60 1.5558 1.8400 3.3805 463.99 0.0094803 63.922 0.077838 51.229 0.019520 585.46 627.96 2.3192 1.8479 2.9022 192.82 0.23873 9.8603 0.026436
62.375 322.28 0.068528 385.39 393.18 1.6169 422.56 0.0023665 370.62 375.88 1.5653 1.8457 3.4136 456.50 0.0099871 63.083 0.077425 52.535 0.019035 586.07 628.37 2.3178 1.8567 2.9492 191.88 0.23845 9.9281 0.026744
63.375 328.88 0.069782 388.64 396.60 1.6266 420.22 0.0023797 373.79 379.18 1.5748 1.8514 3.4483 448.97 0.010520 62.244 0.077012 53.879 0.018560 586.66 628.74 2.3164 1.8656 2.9989 190.92 0.23819 9.9979 0.027061
64.375 335.58 0.071047 391.91 400.03 1.6363 417.85 0.0023932 376.97 382.51 1.5844 1.8573 3.4850 441.40 0.011081 61.407 0.076600 55.265 0.018095 587.22 629.09 2.3149 1.8747 3.0517 189.95 0.23796 10.070 0.027389
65.375 342.38 0.072322 395.19 403.48 1.6460 415.42 0.0024072 380.18 385.86 1.5939 1.8633 3.5236 433.79 0.011672 60.570 0.076189 56.692 0.017639 587.76 629.40 2.3133 1.8839 3.1077 188.95 0.23775 10.144 0.027729
66.375 349.28 0.073606 398.49 406.94 1.6557 412.96 0.0024215 383.41 389.25 1.6036 1.8693 3.5645 426.12 0.012296 59.733 0.075779 58.165 0.017193 588.28 629.68 2.3117 1.8933 3.1674 187.93 0.23757 10.221 0.028080
67.375 356.28 0.074898 401.81 410.43 1.6654 410.45 0.0024363 386.67 392.65 1.6133 1.8755 3.6078 418.41 0.012956 58.897 0.075368 59.684 0.016755 588.76 629.92 2.3100 1.9030 3.2311 186.89 0.23740 10.300 0.028446
68.375 363.40 0.076195 405.14 413.93 1.6752 407.89 0.0024516 389.95 396.09 1.6230 1.8818 3.6537 410.64 0.013655 58.059 0.074959 61.253 0.016326 589.22 630.13 2.3082 1.9129 3.2994 185.83 0.23724 10.382 0.028825
69.375 370.61 0.077497 408.48 417.45 1.6850 405.28 0.0024674 393.26 399.57 1.6328 1.8882 3.7027 402.81 0.014396 57.221 0.074549 62.875 0.015905 589.65 630.29 2.3064 1.9231 3.3727 184.74 0.23710 10.467 0.029221
70.375 377.94 0.078801 411.84 420.98 1.6948 402.62 0.0024838 396.60 403.07 1.6426 1.8947 3.7550 394.92 0.015183 56.381 0.074141 64.552 0.015491 590.04 630.41 2.3044 1.9336 3.4518 183.63 0.23697 10.555 0.029633
71.375 385.37 0.080104 415.22 424.54 1.7046 399.89 0.0025007 399.96 406.61 1.6525 1.9014 3.8109 386.97 0.016021 55.540 0.073732 66.288 0.015086 590.40 630.49 2.3024 1.9444 3.5371 182.50 0.23684 10.647 0.030064
72.375 392.92 0.081402 418.61 428.12 1.7144 397.11 0.0025182 403.36 410.18 1.6625 1.9083 3.8711 378.95 0.016915 54.696 0.073324 68.087 0.014687 590.73 630.51 2.3002 1.9556 3.6297 181.34 0.23671 10.743 0.030515
73.375 400.57 0.082691 422.03 431.72 1.7243 394.26 0.0025364 406.79 413.80 1.6726 1.9153 3.9359 370.85 0.017871 53.848 0.072917 69.953 0.014295 591.01 630.49 2.2979 1.9673 3.7303 180.16 0.23658 10.842 0.030989
74.375 408.34 0.083967 425.46 435.34 1.7342 391.34 0.0025553 410.26 417.45 1.6827 1.9226 4.0060 362.67 0.018894 52.997 0.072510 71.890 0.013910 591.25 630.41 2.2955 1.9793 3.8401 178.95 0.23643 10.946 0.031488
75.375 416.23 0.085223 428.91 438.98 1.7441 388.34 0.0025751 413.76 421.15 1.6930 1.9301 4.0822 354.41 0.019993 52.142 0.072104 73.904 0.013531 591.44 630.27 2.2930 1.9919 3.9604 177.71 0.23627 11.054 0.032014
76.375 424.23 0.086452 432.37 442.64 1.7540 385.26 0.0025957 417.31 424.90 1.7033 1.9378 4.1654 346.06 0.021177 51.281 0.071699 76.001 0.013158 591.59 630.07 2.2903 2.0050 4.0927 176.44 0.23609 11.168 0.032570
77.375 432.35 0.087645 435.86 446.32 1.7640 382.09 0.0026172 420.89 428.70 1.7137 1.9459 4.2565 337.60 0.022455 50.414 0.071295 78.187 0.012790 591.68 629.80 2.2874 2.0186 4.2389 175.15 0.23588 11.287 0.033161
78.375 440.59 0.088791 439.37 450.03 1.7740 378.83 0.0026397 424.53 432.54 1.7243 1.9543 4.3570 329.05 0.023838 49.539 0.070893 80.469 0.012427 591.71 629.46 2.2844 2.0328 4.4012 173.82 0.23563 11.412 0.033789
79.375 448.95 0.089876 442.90 453.76 1.7840 375.46 0.0026634 428.21 436.45 1.7349 1.9631 4.4684 320.38 0.025341 48.657 0.070494 82.856 0.012069 591.68 629.04 2.2812 2.0475 4.5824 172.46 0.23535 11.544 0.034461
80.375 457.44 0.090883 446.45 457.52 1.7941 371.97 0.0026884 431.94 440.42 1.7457 1.9723 4.5928 311.58 0.026980 47.764 0.070099 85.359 0.011715 591.58 628.53 2.2778 2.0630 4.7859 171.07 0.23501 11.684 0.035181
81.375 466.05 0.091791 450.03 461.30 1.8042 368.36 0.0027147 435.74 444.46 1.7567 1.9820 4.7327 302.66 0.028773 46.860 0.069708 87.988 0.011365 591.40 627.92 2.2742 2.0791 5.0161 169.64 0.23461 11.832 0.035957
82.375 474.79 0.092571 453.63 465.11 1.8143 364.61 0.0027427 439.60 448.58 1.7678 1.9924 4.8914 293.60 0.030744 45.942 0.069323 90.757 0.011018 591.14 627.21 2.2703 2.0959 5.2786 168.17 0.23413 11.989 0.036797
83.375 483.66 0.093188 457.25 468.96 1.8245 360.70 0.0027724 443.53 452.78 1.7791 2.0034 5.0731 284.38 0.032920 45.010 0.068948 93.681 0.010674 590.79 626.38 2.2661 2.1136 5.5807 166.67 0.23357 12.157 0.037711
84.375 492.67 0.093595 460.91 472.83 1.8347 356.61 0.0028041 447.54 457.07 1.7907 2.0153 5.2834 275.00 0.035335 44.059 0.068586 96.781 0.010333 590.33 625.42 2.2616 2.1321 5.9321 165.13 0.23290 12.338 0.038713
85.375 501.81 0.093731 464.59 476.73 1.8450 352.33 0.0028382 451.65 461.47 1.8025 2.0281 5.5302 265.44 0.038030 43.088 0.068241 100.08 0.0099920 589.74 624.31 2.2567 2.1517 6.3459 163.54 0.23209 12.532 0.039819
86.375 511.09 0.093509 468.31 480.67 1.8554 347.82 0.0028751 455.85 465.98 1.8145 2.0420 5.8240 255.69 0.041058 42.092 0.067923 103.61 0.0096520 589.03 623.04 2.2514 2.1723 6.8405 161.91 0.23112 12.743 0.041051
87.375 520.51 0.092812 472.05 484.65 1.8658 343.04 0.0029151 460.18 470.64 1.8269 2.0574 6.1803 245.72 0.044485 41.066 0.067640 107.40 0.0093114 588.15 621.56 2.2456 2.1943 7.4422 160.23 0.22995 12.973 0.042436
88.375 530.07 0.091471 475.84 488.66 1.8763 337.95 0.0029590 464.64 475.45 1.8397 2.0745 6.6221 235.52 0.048397 40.005 0.067412 111.50 0.0089689 587.08 619.86 2.2392 2.2178 8.1900 158.49 0.22854 13.226 0.044014
89.375 539.79 0.089235 479.67 492.72 1.8868 332.48 0.0030077 469.27 480.46 1.8530 2.0936 7.1851 225.04 0.052906 38.901 0.067265 115.97 0.0086228 585.79 617.88 2.2321 2.2433 9.1445 156.69 0.22681 13.508 0.045839
90.375 549.66 0.085713 483.54 496.84 1.8975 326.55 0.0030623 474.10 485.71 1.8669 2.1156 7.9284 214.26 0.058166 37.742 0.067243 120.91 0.0082708 584.22 615.56 2.2241 2.2711 10.405 154.82 0.22467 13.825 0.047992
91.375 559.68 0.080264 487.46 501.00 1.9083 320.03 0.0031247 479.19 491.25 1.8815 2.1412 8.9568 203.11 0.064389 36.514 0.067421 126.43 0.0079097 582.29 612.82 2.2150 2.3019 12.146 152.85 0.22200 14.189 0.050600
92.375 569.87 0.071748 491.45 505.24 1.9192 312.73 0.0031976 484.62 497.18 1.8972 2.1718 10.475 191.54 0.071885 35.195 0.067931 132.72 0.0075346 579.91 609.51 2.2045 2.3370 14.705 150.75 0.21862 14.618 0.053877
93.375 580.24 0.057900 495.52 509.56 1.9303 304.34 0.0032858 490.52 503.67 1.9143 2.2100 12.945 179.43 0.081133 33.755 0.069025 140.11 0.0071373 576.87 605.42 2.1919 2.3779 18.828 148.48 0.21421 15.146 0.058225
94.375 590.79 0.033379 499.70 513.99 1.9417 294.25 0.0033985 497.17 511.01 1.9336 2.2603 17.657 166.61 0.092934 32.154 0.071243 149.20 0.0067025 572.82 600.12 2.1761 2.4283 26.557 145.93 0.20825 15.847 0.064529
95.375 602.78 undefined 503.47 518.05 1.9520 285.00 0.0035088 503.47 518.05 1.9520 2.3030 23.255 158.18 0.10266 30.919 0.073502 285.00 0.0035088 503.47 518.05 1.9520 2.3030 23.255 158.18 0.10266 30.919 0.073502
96.375 618.41 undefined 505.76 520.72 1.9582 285.00 0.0035088 505.76 520.72 1.9582 2.2759 18.494 163.84 0.097935 31.241 0.070921 285.00 0.0035088 505.76 520.72 1.9582 2.2759 18.494 163.84 0.097935 31.241 0.070921
97.375 634.24 undefined 508.02 523.37 1.9643 285.00 0.0035088 508.02 523.37 1.9643 2.2530 15.624 168.98 0.093889 31.174 0.069297 285.00 0.0035088 508.02 523.37 1.9643 2.2530 15.624 168.98 0.093889 31.174 0.069297
98.375 650.26 undefined 510.26 526.00 1.9703 285.00 0.0035088 510.26 526.00 1.9703 2.2338 13.687 173.69 0.090352 30.961 0.068154 285.00 0.0035088 510.26 526.00 1.9703 2.2338 13.687 173.69 0.090352 30.961 0.068154
99.375 666.44 undefined 512.49 528.61 1.9763 285.00 0.0035088 512.49 528.61 1.9763 2.2176 12.280 178.02 0.087207 30.868 0.067233 285.00 0.0035088 512.49 528.61 1.9763 2.2176 12.280 178.02 0.087207 30.868 0.067233
100.38 682.76 undefined 514.70 531.22 1.9822 285.00 0.0035088 514.70 531.22 1.9822 2.2041 11.205 182.05 0.084370 30.835 0.066481 285.00 0.0035088 514.70 531.22 1.9822 2.2041 11.205 182.05 0.084370 30.835 0.066481
101.38 699.21 undefined 516.90 533.81 1.9881 285.00 0.0035088 516.90 533.81 1.9881 2.1929 10.354 185.81 0.081780 30.833 0.065863 285.00 0.0035088 516.90 533.81 1.9881 2.1929 10.354 185.81 0.081780 30.833 0.065863
102.38 715.76 undefined 519.09 536.40 1.9939 285.00 0.0035088 519.09 536.40 1.9939 2.1836 9.6608 189.35 0.079393 30.847 0.065349 285.00 0.0035088 519.09 536.40 1.9939 2.1836 9.6608 189.35 0.079393 30.847 0.065349
103.38 732.41 undefined 521.27 538.99 1.9997 285.00 0.0035088 521.27 538.99 1.9997 2.1759 9.0839 192.71 0.077175 30.868 0.064920 285.00 0.0035088 521.27 538.99 1.9997 2.1759 9.0839 192.71 0.077175 30.868 0.064920
104.38 749.16 undefined 523.44 541.56 2.0055 285.00 0.0035088 523.44 541.56 2.0055 2.1696 8.5956 195.92 0.075101 30.894 0.064559 285.00 0.0035088 523.44 541.56 2.0055 2.1696 8.5956 195.92 0.075101 30.894 0.064559
105.38 765.98 undefined 525.61 544.14 2.0112 285.00 0.0035088 525.61 544.14 2.0112 2.1643 8.1764 198.99 0.073152 30.922 0.064253 285.00 0.0035088 525.61 544.14 2.0112 2.1643 8.1764 198.99 0.073152 30.922 0.064253
106.38 782.88 undefined 527.77 546.71 2.0169 285.00 0.0035088 527.77 546.71 2.0169 2.1599 7.8123 201.94 0.071312 30.951 0.063994 285.00 0.0035088 527.77 546.71 2.0169 2.1599 7.8123 201.94 0.071312 30.951 0.063994
107.38 799.86 undefined 529.93 549.28 2.0226 285.00 0.0035088 529.93 549.28 2.0226 2.1563 7.4930 204.80 0.069569 30.980 0.063774 285.00 0.0035088 529.93 549.28 2.0226 2.1563 7.4930 204.80 0.069569 30.980 0.063774
108.38 816.90 undefined 532.08 551.84 2.0283 285.00 0.0035088 532.08 551.84 2.0283 2.1534 7.2104 207.57 0.067912 31.010 0.063587 285.00 0.0035088 532.08 551.84 2.0283 2.1534 7.2104 207.57 0.067912 31.010 0.063587
109.38 834.00 undefined 534.23 554.41 2.0339 285.00 0.0035088 534.23 554.41 2.0339 2.1510 6.9586 210.26 0.066335 31.040 0.063428 285.00 0.0035088 534.23 554.41 2.0339 2.1510 6.9586 210.26 0.066335 31.040 0.063428
110.38 851.16 undefined 536.38 556.97 2.0395 285.00 0.0035088 536.38 556.97 2.0395 2.1491 6.7327 212.89 0.064828 31.070 0.063294 285.00 0.0035088 536.38 556.97 2.0395 2.1491 6.7327 212.89 0.064828 31.070 0.063294
111.38 868.37 undefined 538.53 559.54 2.0451 285.00 0.0035088 538.53 559.54 2.0451 2.1476 6.5288 215.46 0.063388 31.099 0.063180 285.00 0.0035088 538.53 559.54 2.0451 2.1476 6.5288 215.46 0.063388 31.099 0.063180
112.38 885.64 undefined 540.68 562.10 2.0507 285.00 0.0035088 540.68 562.10 2.0507 2.1464 6.3439 217.96 0.062008 31.129 0.063085 285.00 0.0035088 540.68 562.10 2.0507 2.1464 6.3439 217.96 0.062008 31.129 0.063085
113.38 902.96 undefined 542.82 564.67 2.0563 285.00 0.0035088 542.82 564.67 2.0563 2.1456 6.1754 220.42 0.060684 31.159 0.063006 285.00 0.0035088 542.82 564.67 2.0563 2.1456 6.1754 220.42 0.060684 31.159 0.063006
114.38 920.32 undefined 544.97 567.23 2.0618 285.00 0.0035088 544.97 567.23 2.0618 2.1450 6.0212 222.83 0.059413 31.189 0.062941 285.00 0.0035088 544.97 567.23 2.0618 2.1450 6.0212 222.83 0.059413 31.189 0.062941
115.38 937.73 undefined 547.11 569.80 2.0673 285.00 0.0035088 547.11 569.80 2.0673 2.1447 5.8796 225.20 0.058189 31.219 0.062889 285.00 0.0035088 547.11 569.80 2.0673 2.1447 5.8796 225.20 0.058189 31.219 0.062889
116.38 955.18 undefined 549.26 572.37 2.0728 285.00 0.0035088 549.26 572.37 2.0728 2.1445 5.7491 227.53 0.057011 31.248 0.062848 285.00 0.0035088 549.26 572.37 2.0728 2.1445 5.7491 227.53 0.057011 31.248 0.062848
117.38 972.68 undefined 551.40 574.93 2.0783 285.00 0.0035088 551.40 574.93 2.0783 2.1446 5.6283 229.81 0.055876 31.278 0.062818 285.00 0.0035088 551.40 574.93 2.0783 2.1446 5.6283 229.81 0.055876 31.278 0.062818
118.38 990.21 undefined 553.55 577.50 2.0838 285.00 0.0035088 553.55 577.50 2.0838 2.1449 5.5164 232.07 0.054780 31.308 0.062796 285.00 0.0035088 553.55 577.50 2.0838 2.1449 5.5164 232.07 0.054780 31.308 0.062796
119.38 1007.8 undefined 555.69 580.07 2.0893 285.00 0.0035088 555.69 580.07 2.0893 2.1454 5.4122 234.28 0.053722 31.337 0.062783 285.00 0.0035088 555.69 580.07 2.0893 2.1454 5.4122 234.28 0.053722 31.337 0.062783
120.38 1025.4 undefined 557.84 582.65 2.0948 285.00 0.0035088 557.84 582.65 2.0948 2.1460 5.3151 236.47 0.052699 31.367 0.062778 285.00 0.0035088 557.84 582.65 2.0948 2.1460 5.3151 236.47 0.052699 31.367 0.062778
121.38 1043.0 undefined 559.99 585.22 2.1002 285.00 0.0035088 559.99 585.22 2.1002 2.1468 5.2244 238.62 0.051710 31.397 0.062779 285.00 0.0035088 559.99 585.22 2.1002 2.1468 5.2244 238.62 0.051710 31.397 0.062779
122.38 1060.7 undefined 562.13 587.79 2.1056 285.00 0.0035088 562.13 587.79 2.1056 2.1477 5.1395 240.74 0.050752 31.426 0.062787 285.00 0.0035088 562.13 587.79 2.1056 2.1477 5.1395 240.74 0.050752 31.426 0.062787
123.38 1078.4 undefined 564.28 590.37 2.1111 285.00 0.0035088 564.28 590.37 2.1111 2.1487 5.0598 242.84 0.049824 31.456 0.062801 285.00 0.0035088 564.28 590.37 2.1111 2.1487 5.0598 242.84 0.049824 31.456 0.062801
124.38 1096.2 undefined 566.43 592.95 2.1165 285.00 0.0035088 566.43 592.95 2.1165 2.1499 4.9849 244.91 0.048924 31.485 0.062820 285.00 0.0035088 566.43 592.95 2.1165 2.1499 4.9849 244.91 0.048924 31.485 0.062820
125.38 1113.9 undefined 568.58 595.53 2.1219 285.00 0.0035088 568.58 595.53 2.1219 2.1512 4.9143 246.95 0.048051 31.515 0.062843 285.00 0.0035088 568.58 595.53 2.1219 2.1512 4.9143 246.95 0.048051 31.515 0.062843
126.38 1131.7 undefined 570.73 598.11 2.1273 285.00 0.0035088 570.73 598.11 2.1273 2.1526 4.8478 248.97 0.047203 31.544 0.062872 285.00 0.0035088 570.73 598.11 2.1273 2.1526 4.8478 248.97 0.047203 31.544 0.062872
127.38 1149.5 undefined 572.89 600.70 2.1327 285.00 0.0035088 572.89 600.70 2.1327 2.1541 4.7849 250.96 0.046380 31.573 0.062904 285.00 0.0035088 572.89 600.70 2.1327 2.1541 4.7849 250.96 0.046380 31.573 0.062904
128.38 1167.4 undefined 575.04 603.28 2.1380 285.00 0.0035088 575.04 603.28 2.1380 2.1557 4.7255 252.93 0.045580 31.603 0.062941 285.00 0.0035088 575.04 603.28 2.1380 2.1557 4.7255 252.93 0.045580 31.603 0.062941
129.38 1185.3 undefined 577.20 605.87 2.1434 285.00 0.0035088 577.20 605.87 2.1434 2.1573 4.6692 254.88 0.044802 31.632 0.062981 285.00 0.0035088 577.20 605.87 2.1434 2.1573 4.6692 254.88 0.044802 31.632 0.062981
130.38 1203.2 undefined 579.36 608.46 2.1487 285.00 0.0035088 579.36 608.46 2.1487 2.1591 4.6158 256.81 0.044046 31.662 0.063025 285.00 0.0035088 579.36 608.46 2.1487 2.1591 4.6158 256.81 0.044046 31.662 0.063025
131.38 1221.1 undefined 581.52 611.06 2.1541 285.00 0.0035088 581.52 611.06 2.1541 2.1610 4.5651 258.71 0.043309 31.691 0.063072 285.00 0.0035088 581.52 611.06 2.1541 2.1610 4.5651 258.71 0.043309 31.691 0.063072
132.38 1239.1 undefined 583.68 613.65 2.1594 285.00 0.0035088 583.68 613.65 2.1594 2.1629 4.5169 260.60 0.042592 31.720 0.063122 285.00 0.0035088 583.68 613.65 2.1594 2.1629 4.5169 260.60 0.042592 31.720 0.063122
133.38 1257.0 undefined 585.84 616.25 2.1648 285.00 0.0035088 585.84 616.25 2.1648 2.1649 4.4711 262.47 0.041893 31.749 0.063174 285.00 0.0035088 585.84 616.25 2.1648 2.1649 4.4711 262.47 0.041893 31.749 0.063174
134.38 1275.0 undefined 588.01 618.85 2.1701 285.00 0.0035088 588.01 618.85 2.1701 2.1670 4.4274 264.32 0.041213 31.779 0.063230 285.00 0.0035088 588.01 618.85 2.1701 2.1670 4.4274 264.32 0.041213 31.779 0.063230
135.38 1293.0 undefined 590.18 621.46 2.1754 285.00 0.0035088 590.18 621.46 2.1754 2.1691 4.3858 266.16 0.040549 31.808 0.063288 285.00 0.0035088 590.18 621.46 2.1754 2.1691 4.3858 266.16 0.040549 31.808 0.063288
136.38 1311.1 undefined 592.35 624.06 2.1807 285.00 0.0035088 592.35 624.06 2.1807 2.1713 4.3461 267.97 0.039902 31.837 0.063348 285.00 0.0035088 592.35 624.06 2.1807 2.1713 4.3461 267.97 0.039902 31.837 0.063348
137.38 1329.1 undefined 594.52 626.67 2.1860 285.00 0.0035088 594.52 626.67 2.1860 2.1736 4.3081 269.77 0.039270 31.866 0.063411 285.00 0.0035088 594.52 626.67 2.1860 2.1736 4.3081 269.77 0.039270 31.866 0.063411
138.38 1347.2 undefined 596.69 629.28 2.1913 285.00 0.0035088 596.69 629.28 2.1913 2.1759 4.2719 271.56 0.038654 31.895 0.063476 285.00 0.0035088 596.69 629.28 2.1913 2.1759 4.2719 271.56 0.038654 31.895 0.063476
139.38 1365.3 undefined 598.87 631.90 2.1966 285.00 0.0035088 598.87 631.90 2.1966 2.1783 4.2372 273.33 0.038052 31.924 0.063542 285.00 0.0035088 598.87 631.90 2.1966 2.1783 4.2372 273.33 0.038052 31.924 0.063542
140.38 1383.4 undefined 601.05 634.52 2.2018 285.00 0.0035088 601.05 634.52 2.2018 2.1807 4.2040 275.08 0.037465 31.953 0.063611 285.00 0.0035088 601.05 634.52 2.2018 2.1807 4.2040 275.08 0.037465 31.953 0.063611
141.38 1401.5 undefined 603.23 637.14 2.2071 285.00 0.0035088 603.23 637.14 2.2071 2.1832 4.1722 276.82 0.036891 31.982 0.063682 285.00 0.0035088 603.23 637.14 2.2071 2.1832 4.1722 276.82 0.036891 31.982 0.063682
142.38 1419.6 undefined 605.42 639.76 2.2124 285.00 0.0035088 605.42 639.76 2.2124 2.1857 4.1418 278.55 0.036330 32.011 0.063754 285.00 0.0035088 605.42 639.76 2.2124 2.1857 4.1418 278.55 0.036330 32.011 0.063754
143.38 1437.8 undefined 607.60 642.39 2.2176 285.00 0.0035088 607.60 642.39 2.2176 2.1882 4.1125 280.26 0.035782 32.040 0.063828 285.00 0.0035088 607.60 642.39 2.2176 2.1882 4.1125 280.26 0.035782 32.040 0.063828
144.38 1456.0 undefined 609.79 645.02 2.2229 285.00 0.0035088 609.79 645.02 2.2229 2.1908 4.0845 281.96 0.035246 32.069 0.063903 285.00 0.0035088 609.79 645.02 2.2229 2.1908 4.0845 281.96 0.035246 32.069 0.063903
145.38 1474.2 undefined 611.98 647.65 2.2281 285.00 0.0035088 611.98 647.65 2.2281 2.1934 4.0576 283.65 0.034722 32.098 0.063980 285.00 0.0035088 611.98 647.65 2.2281 2.1934 4.0576 283.65 0.034722 32.098 0.063980
146.38 1492.4 undefined 614.18 650.28 2.2334 285.00 0.0035088 614.18 650.28 2.2334 2.1961 4.0317 285.32 0.034209 32.127 0.064059 285.00 0.0035088 614.18 650.28 2.2334 2.1961 4.0317 285.32 0.034209 32.127 0.064059
147.38 1510.6 undefined 616.38 652.92 2.2386 285.00 0.0035088 616.38 652.92 2.2386 2.1988 4.0069 286.99 0.033707 32.156 0.064139 285.00 0.0035088 616.38 652.92 2.2386 2.1988 4.0069 286.99 0.033707 32.156 0.064139
148.38 1528.8 undefined 618.58 655.56 2.2438 285.00 0.0035088 618.58 655.56 2.2438 2.2015 3.9830 288.64 0.033216 32.185 0.064220 285.00 0.0035088 618.58 655.56 2.2438 2.2015 3.9830 288.64 0.033216 32.185 0.064220
149.38 1547.0 undefined 620.78 658.21 2.2490 285.00 0.0035088 620.78 658.21 2.2490 2.2043 3.9600 290.28 0.032736 32.213 0.064303 285.00 0.0035088 620.78 658.21 2.2490 2.2043 3.9600 290.28 0.032736 32.213 0.064303
150.38 1565.3 undefined 622.99 660.85 2.2543 285.00 0.0035088 622.99 660.85 2.2543 2.2071 3.9378 291.90 0.032265 32.242 0.064387 285.00 0.0035088 622.99 660.85 2.2543 2.2071 3.9378 291.90 0.032265 32.242 0.064387
151.38 1583.6 undefined 625.19 663.50 2.2595 285.00 0.0035088 625.19 663.50 2.2595 2.2099 3.9165 293.52 0.031804 32.271 0.064472 285.00 0.0035088 625.19 663.50 2.2595 2.2099 3.9165 293.52 0.031804 32.271 0.064472
152.38 1601.8 undefined 627.41 666.16 2.2647 285.00 0.0035088 627.41 666.16 2.2647 2.2128 3.8960 295.13 0.031353 32.300 0.064558 285.00 0.0035088 627.41 666.16 2.2647 2.2128 3.8960 295.13 0.031353 32.300 0.064558
153.38 1620.1 undefined 629.62 668.81 2.2699 285.00 0.0035088 629.62 668.81 2.2699 2.2156 3.8762 296.72 0.030910 32.328 0.064646 285.00 0.0035088 629.62 668.81 2.2699 2.2156 3.8762 296.72 0.030910 32.328 0.064646
154.38 1638.4 undefined 631.84 671.47 2.2751 285.00 0.0035088 631.84 671.47 2.2751 2.2185 3.8571 298.31 0.030477 32.357 0.064734 285.00 0.0035088 631.84 671.47 2.2751 2.2185 3.8571 298.31 0.030477 32.357 0.064734
155.38 1656.7 undefined 634.06 674.14 2.2802 285.00 0.0035088 634.06 674.14 2.2802 2.2214 3.8387 299.88 0.030052 32.385 0.064824 285.00 0.0035088 634.06 674.14 2.2802 2.2214 3.8387 299.88 0.030052 32.385 0.064824
156.38 1675.1 undefined 636.28 676.80 2.2854 285.00 0.0035088 636.28 676.80 2.2854 2.2244 3.8209 301.45 0.029636 32.414 0.064914 285.00 0.0035088 636.28 676.80 2.2854 2.2244 3.8209 301.45 0.029636 32.414 0.064914
157.38 1693.4 undefined 638.51 679.47 2.2906 285.00 0.0035088 638.51 679.47 2.2906 2.2273 3.8038 303.01 0.029227 32.443 0.065006 285.00 0.0035088 638.51 679.47 2.2906 2.2273 3.8038 303.01 0.029227 32.443 0.065006
158.38 1711.8 undefined 640.73 682.14 2.2958 285.00 0.0035088 640.73 682.14 2.2958 2.2303 3.7872 304.55 0.028827 32.471 0.065098 285.00 0.0035088 640.73 682.14 2.2958 2.2303 3.7872 304.55 0.028827 32.471 0.065098
159.38 1730.1 undefined 642.97 684.82 2.3009 285.00 0.0035088 642.97 684.82 2.3009 2.2333 3.7712 306.09 0.028434 32.500 0.065191 285.00 0.0035088 642.97 684.82 2.3009 2.2333 3.7712 306.09 0.028434 32.500 0.065191
160.38 1748.5 undefined 645.20 687.50 2.3061 285.00 0.0035088 645.20 687.50 2.3061 2.2363 3.7558 307.62 0.028049 32.528 0.065286 285.00 0.0035088 645.20 687.50 2.3061 2.2363 3.7558 307.62 0.028049 32.528 0.065286
161.38 1766.8 undefined 647.44 690.18 2.3113 285.00 0.0035088 647.44 690.18 2.3113 2.2394 3.7408 309.14 0.027671 32.557 0.065381 285.00 0.0035088 647.44 690.18 2.3113 2.2394 3.7408 309.14 0.027671 32.557 0.065381
162.38 1785.2 undefined 649.68 692.87 2.3164 285.00 0.0035088 649.68 692.87 2.3164 2.2424 3.7264 310.65 0.027299 32.585 0.065477 285.00 0.0035088 649.68 692.87 2.3164 2.2424 3.7264 310.65 0.027299 32.585 0.065477
163.38 1803.6 undefined 651.92 695.56 2.3216 285.00 0.0035088 651.92 695.56 2.3216 2.2455 3.7125 312.15 0.026935 32.613 0.065574 285.00 0.0035088 651.92 695.56 2.3216 2.2455 3.7125 312.15 0.026935 32.613 0.065574
164.38 1822.0 undefined 654.17 698.25 2.3267 285.00 0.0035088 654.17 698.25 2.3267 2.2485 3.6990 313.65 0.026578 32.642 0.065671 285.00 0.0035088 654.17 698.25 2.3267 2.2485 3.6990 313.65 0.026578 32.642 0.065671
165.38 1840.4 undefined 656.42 700.94 2.3318 285.00 0.0035088 656.42 700.94 2.3318 2.2516 3.6860 315.13 0.026227 32.670 0.065770 285.00 0.0035088 656.42 700.94 2.3318 2.2516 3.6860 315.13 0.026227 32.670 0.065770
166.38 1858.8 undefined 658.67 703.64 2.3370 285.00 0.0035088 658.67 703.64 2.3370 2.2547 3.6733 316.61 0.025882 32.698 0.065869 285.00 0.0035088 658.67 703.64 2.3370 2.2547 3.6733 316.61 0.025882 32.698 0.065869
167.38 1877.3 undefined 660.93 706.35 2.3421 285.00 0.0035088 660.93 706.35 2.3421 2.2578 3.6611 318.08 0.025543 32.727 0.065969 285.00 0.0035088 660.93 706.35 2.3421 2.2578 3.6611 318.08 0.025543 32.727 0.065969
168.38 1895.7 undefined 663.19 709.05 2.3472 285.00 0.0035088 663.19 709.05 2.3472 2.2610 3.6493 319.55 0.025211 32.755 0.066069 285.00 0.0035088 663.19 709.05 2.3472 2.2610 3.6493 319.55 0.025211 32.755 0.066069
169.38 1914.1 undefined 665.45 711.76 2.3523 285.00 0.0035088 665.45 711.76 2.3523 2.2641 3.6379 321.00 0.024884 32.783 0.066171 285.00 0.0035088 665.45 711.76 2.3523 2.2641 3.6379 321.00 0.024884 32.783 0.066171
170.38 1932.6 undefined 667.72 714.47 2.3575 285.00 0.0035088 667.72 714.47 2.3575 2.2673 3.6268 322.45 0.024563 32.811 0.066273 285.00 0.0035088 667.72 714.47 2.3575 2.2673 3.6268 322.45 0.024563 32.811 0.066273
171.38 1951.0 undefined 669.99 717.19 2.3626 285.00 0.0035088 669.99 717.19 2.3626 2.2704 3.6161 323.89 0.024248 32.840 0.066375 285.00 0.0035088 669.99 717.19 2.3626 2.2704 3.6161 323.89 0.024248 32.840 0.066375
172.38 1969.5 undefined 672.26 719.90 2.3677 285.00 0.0035088 672.26 719.90 2.3677 2.2736 3.6057 325.32 0.023938 32.868 0.066479 285.00 0.0035088 672.26 719.90 2.3677 2.2736 3.6057 325.32 0.023938 32.868 0.066479
173.38 1988.0 undefined 674.53 722.63 2.3728 285.00 0.0035088 674.53 722.63 2.3728 2.2768 3.5956 326.75 0.023633 32.896 0.066583 285.00 0.0035088 674.53 722.63 2.3728 2.2768 3.5956 326.75 0.023633 32.896 0.066583
174.38 2006.4 undefined 676.81 725.35 2.3779 285.00 0.0035088 676.81 725.35 2.3779 2.2800 3.5858 328.17 0.023334 32.924 0.066688 285.00 0.0035088 676.81 725.35 2.3779 2.2800 3.5858 328.17 0.023334 32.924 0.066688
175.38 2024.9 undefined 679.09 728.08 2.3830 285.00 0.0035088 679.09 728.08 2.3830 2.2832 3.5764 329.58 0.023039 32.952 0.066793 285.00 0.0035088 679.09 728.08 2.3830 2.2832 3.5764 329.58 0.023039 32.952 0.066793
176.38 2043.4 undefined 681.38 730.81 2.3880 285.00 0.0035088 681.38 730.81 2.3880 2.2864 3.5672 330.99 0.022750 32.980 0.066899 285.00 0.0035088 681.38 730.81 2.3880 2.2864 3.5672 330.99 0.022750 32.980 0.066899
177.38 2061.9 undefined 683.67 733.55 2.3931 285.00 0.0035088 683.67 733.55 2.3931 2.2896 3.5584 332.38 0.022465 33.008 0.067005 285.00 0.0035088 683.67 733.55 2.3931 2.2896 3.5584 332.38 0.022465 33.008 0.067005
178.38 2080.4 undefined 685.96 736.29 2.3982 285.00 0.0035088 685.96 736.29 2.3982 2.2928 3.5498 333.78 0.022185 33.036 0.067112 285.00 0.0035088 685.96 736.29 2.3982 2.2928 3.5498 333.78 0.022185 33.036 0.067112
179.38 2098.9 undefined 688.25 739.03 2.4033 285.00 0.0035088 688.25 739.03 2.4033 2.2960 3.5414 335.16 0.021909 33.064 0.067220 285.00 0.0035088 688.25 739.03 2.4033 2.2960 3.5414 335.16 0.021909 33.064 0.067220
180.38 2117.4 undefined 690.55 741.77 2.4084 285.00 0.0035088 690.55 741.77 2.4084 2.2993 3.5334 336.54 0.021638 33.092 0.067328 285.00 0.0035088 690.55 741.77 2.4084 2.2993 3.5334 336.54 0.021638 33.092 0.067328
181.38 2135.9 undefined 692.85 744.52 2.4134 285.00 0.0035088 692.85 744.52 2.4134 2.3025 3.5255 337.91 0.021371 33.120 0.067437 285.00 0.0035088 692.85 744.52 2.4134 2.3025 3.5255 337.91 0.021371 33.120 0.067437
182.38 2154.4 undefined 695.15 747.28 2.4185 285.00 0.0035088 695.15 747.28 2.4185 2.3058 3.5179 339.28 0.021109 33.148 0.067546 285.00 0.0035088 695.15 747.28 2.4185 2.3058 3.5179 339.28 0.021109 33.148 0.067546
183.38 2173.0 undefined 697.46 750.03 2.4235 285.00 0.0035088 697.46 750.03 2.4235 2.3090 3.5106 340.64 0.020851 33.175 0.067656 285.00 0.0035088 697.46 750.03 2.4235 2.3090 3.5106 340.64 0.020851 33.175 0.067656
184.38 2191.5 undefined 699.77 752.79 2.4286 285.00 0.0035088 699.77 752.79 2.4286 2.3123 3.5034 341.99 0.020596 33.203 0.067767 285.00 0.0035088 699.77 752.79 2.4286 2.3123 3.5034 341.99 0.020596 33.203 0.067767
185.38 2210.0 undefined 702.09 755.55 2.4337 285.00 0.0035088 702.09 755.55 2.4337 2.3155 3.4965 343.34 0.020346 33.231 0.067878 285.00 0.0035088 702.09 755.55 2.4337 2.3155 3.4965 343.34 0.020346 33.231 0.067878
186.38 2228.6 undefined 704.40 758.32 2.4387 285.00 0.0035088 704.40 758.32 2.4387 2.3188 3.4898 344.68 0.020100 33.259 0.067989 285.00 0.0035088 704.40 758.32 2.4387 2.3188 3.4898 344.68 0.020100 33.259 0.067989
187.38 2247.1 undefined 706.72 761.09 2.4437 285.00 0.0035088 706.72 761.09 2.4437 2.3221 3.4833 346.02 0.019857 33.287 0.068101 285.00 0.0035088 706.72 761.09 2.4437 2.3221 3.4833 346.02 0.019857 33.287 0.068101
188.38 2265.7 undefined 709.05 763.86 2.4488 285.00 0.0035088 709.05 763.86 2.4488 2.3254 3.4770 347.35 0.019619 33.314 0.068214 285.00 0.0035088 709.05 763.86 2.4488 2.3254 3.4770 347.35 0.019619 33.314 0.068214
189.38 2284.2 undefined 711.37 766.63 2.4538 285.00 0.0035088 711.37 766.63 2.4538 2.3287 3.4709 348.68 0.019384 33.342 0.068327 285.00 0.0035088 711.37 766.63 2.4538 2.3287 3.4709 348.68 0.019384 33.342 0.068327
190.38 2302.8 undefined 713.71 769.41 2.4589 285.00 0.0035088 713.71 769.41 2.4589 2.3320 3.4650 349.99 0.019152 33.370 0.068440 285.00 0.0035088 713.71 769.41 2.4589 2.3320 3.4650 349.99 0.019152 33.370 0.068440
191.38 2321.3 undefined 716.04 772.20 2.4639 285.00 0.0035088 716.04 772.20 2.4639 2.3353 3.4592 351.31 0.018924 33.397 0.068554 285.00 0.0035088 716.04 772.20 2.4639 2.3353 3.4592 351.31 0.018924 33.397 0.068554
192.38 2339.9 undefined 718.38 774.98 2.4689 285.00 0.0035088 718.38 774.98 2.4689 2.3386 3.4536 352.62 0.018699 33.425 0.068668 285.00 0.0035088 718.38 774.98 2.4689 2.3386 3.4536 352.62 0.018699 33.425 0.068668
193.38 2358.4 undefined 720.72 777.77 2.4739 285.00 0.0035088 720.72 777.77 2.4739 2.3419 3.4482 353.92 0.018478 33.452 0.068783 285.00 0.0035088 720.72 777.77 2.4739 2.3419 3.4482 353.92 0.018478 33.452 0.068783
194.38 2377.0 undefined 723.06 780.56 2.4790 285.00 0.0035088 723.06 780.56 2.4790 2.3452 3.4430 355.22 0.018260 33.480 0.068898 285.00 0.0035088 723.06 780.56 2.4790 2.3452 3.4430 355.22 0.018260 33.480 0.068898
195.38 2395.6 undefined 725.41 783.36 2.4840 285.00 0.0035088 725.41 783.36 2.4840 2.3485 3.4379 356.51 0.018045 33.507 0.069014 285.00 0.0035088 725.41 783.36 2.4840 2.3485 3.4379 356.51 0.018045 33.507 0.069014
196.38 2414.2 undefined 727.76 786.16 2.4890 285.00 0.0035088 727.76 786.16 2.4890 2.3518 3.4330 357.79 0.017833 33.535 0.069130 285.00 0.0035088 727.76 786.16 2.4890 2.3518 3.4330 357.79 0.017833 33.535 0.069130
197.38 2432.7 undefined 730.11 788.96 2.4940 285.00 0.0035088 730.11 788.96 2.4940 2.3551 3.4282 359.08 0.017625 33.562 0.069247 285.00 0.0035088 730.11 788.96 2.4940 2.3551 3.4282 359.08 0.017625 33.562 0.069247
198.38 2451.3 undefined 732.47 791.77 2.4990 285.00 0.0035088 732.47 791.77 2.4990 2.3585 3.4236 360.35 0.017419 33.590 0.069364 285.00 0.0035088 732.47 791.77 2.4990 2.3585 3.4236 360.35 0.017419 33.590 0.069364
199.38 2469.9 undefined 734.83 794.58 2.5040 285.00 0.0035088 734.83 794.58 2.5040 2.3618 3.4192 361.62 0.017216 33.617 0.069481 285.00 0.0035088 734.83 794.58 2.5040 2.3618 3.4192 361.62 0.017216 33.617 0.069481
200.38 2488.5 undefined 737.19 797.39 2.5090 285.00 0.0035088 737.19 797.39 2.5090 2.3651 3.4148 362.89 0.017017 33.645 0.069599 285.00 0.0035088 737.19 797.39 2.5090 2.3651 3.4148 362.89 0.017017 33.645 0.069599
201.38 2507.1 undefined 739.56 800.21 2.5140 285.00 0.0035088 739.56 800.21 2.5140 2.3685 3.4106 364.15 0.016820 33.672 0.069718 285.00 0.0035088 739.56 800.21 2.5140 2.3685 3.4106 364.15 0.016820 33.672 0.069718
202.38 2525.7 undefined 741.93 803.03 2.5190 285.00 0.0035088 741.93 803.03 2.5190 2.3718 3.4066 365.41 0.016626 33.699 0.069836 285.00 0.0035088 741.93 803.03 2.5190 2.3718 3.4066 365.41 0.016626 33.699 0.069836
203.38 2544.3 undefined 744.30 805.85 2.5240 285.00 0.0035088 744.30 805.85 2.5240 2.3752 3.4026 366.66 0.016434 33.727 0.069956 285.00 0.0035088 744.30 805.85 2.5240 2.3752 3.4026 366.66 0.016434 33.727 0.069956
204.38 2562.8 undefined 746.68 808.68 2.5289 285.00 0.0035088 746.68 808.68 2.5289 2.3785 3.3988 367.91 0.016246 33.754 0.070075 285.00 0.0035088 746.68 808.68 2.5289 2.3785 3.3988 367.91 0.016246 33.754 0.070075
205.38 2581.4 undefined 749.06 811.51 2.5339 285.00 0.0035088 749.06 811.51 2.5339 2.3818 3.3951 369.15 0.016059 33.781 0.070195 285.00 0.0035088 749.06 811.51 2.5339 2.3818 3.3951 369.15 0.016059 33.781 0.070195
206.38 2600.0 undefined 751.44 814.34 2.5389 285.00 0.0035088 751.44 814.34 2.5389 2.3852 3.3915 370.38 0.015876 33.808 0.070315 285.00 0.0035088 751.44 814.34 2.5389 2.3852 3.3915 370.38 0.015876 33.808 0.070315
207.38 2618.6 undefined 753.83 817.18 2.5439 285.00 0.0035088 753.83 817.18 2.5439 2.3885 3.3881 371.62 0.015695 33.836 0.070436 285.00 0.0035088 753.83 817.18 2.5439 2.3885 3.3881 371.62 0.015695 33.836 0.070436
208.38 2637.2 undefined 756.22 820.02 2.5488 285.00 0.0035088 756.22 820.02 2.5488 2.3919 3.3847 372.84 0.015516 33.863 0.070557 285.00 0.0035088 756.22 820.02 2.5488 2.3919 3.3847 372.84 0.015516 33.863 0.070557
209.38 2655.9 undefined 758.61 822.86 2.5538 285.00 0.0035088 758.61 822.86 2.5538 2.3952 3.3815 374.07 0.015340 33.890 0.070679 285.00 0.0035088 758.61 822.86 2.5538 2.3952 3.3815 374.07 0.015340 33.890 0.070679
210.38 2674.5 undefined 761.01 825.71 2.5588 285.00 0.0035088 761.01 825.71 2.5588 2.3986 3.3784 375.29 0.015166 33.917 0.070801 285.00 0.0035088 761.01 825.71 2.5588 2.3986 3.3784 375.29 0.015166 33.917 0.070801
211.38 2693.1 undefined 763.41 828.56 2.5637 285.00 0.0035088 763.41 828.56 2.5637 2.4020 3.3754 376.50 0.014995 33.944 0.070923 285.00 0.0035088 763.41 828.56 2.5637 2.4020 3.3754 376.50 0.014995 33.944 0.070923
212.38 2711.7 undefined 765.81 831.41 2.5687 285.00 0.0035088 765.81 831.41 2.5687 2.4053 3.3724 377.71 0.014826 33.971 0.071046 285.00 0.0035088 765.81 831.41 2.5687 2.4053 3.3724 377.71 0.014826 33.971 0.071046
213.38 2730.3 undefined 768.22 834.27 2.5736 285.00 0.0035088 768.22 834.27 2.5736 2.4087 3.3696 378.92 0.014659 33.998 0.071169 285.00 0.0035088 768.22 834.27 2.5736 2.4087 3.3696 378.92 0.014659 33.998 0.071169
214.38 2748.9 undefined 770.63 837.13 2.5786 285.00 0.0035088 770.63 837.13 2.5786 2.4121 3.3669 380.12 0.014494 34.025 0.071292 285.00 0.0035088 770.63 837.13 2.5786 2.4121 3.3669 380.12 0.014494 34.025 0.071292
215.38 2767.5 undefined 773.04 840.00 2.5835 285.00 0.0035088 773.04 840.00 2.5835 2.4154 3.3643 381.31 0.014332 34.052 0.071416 285.00 0.0035088 773.04 840.00 2.5835 2.4154 3.3643 381.31 0.014332 34.052 0.071416
216.38 2786.1 undefined 775.46 842.86 2.5885 285.00 0.0035088 775.46 842.86 2.5885 2.4188 3.3618 382.51 0.014171 34.079 0.071540 285.00 0.0035088 775.46 842.86 2.5885 2.4188 3.3618 382.51 0.014171 34.079 0.071540
217.38 2804.7 undefined 777.88 845.73 2.5934 285.00 0.0035088 777.88 845.73 2.5934 2.4222 3.3593 383.69 0.014013 34.106 0.071664 285.00 0.0035088 777.88 845.73 2.5934 2.4222 3.3593 383.69 0.014013 34.106 0.071664
218.38 2823.4 undefined 780.31 848.61 2.5983 285.00 0.0035088 780.31 848.61 2.5983 2.4255 3.3570 384.88 0.013857 34.133 0.071789 285.00 0.0035088 780.31 848.61 2.5983 2.4255 3.3570 384.88 0.013857 34.133 0.071789
219.38 2842.0 undefined 782.73 851.49 2.6033 285.00 0.0035088 782.73 851.49 2.6033 2.4289 3.3547 386.06 0.013702 34.160 0.071914 285.00 0.0035088 782.73 851.49 2.6033 2.4289 3.3547 386.06 0.013702 34.160 0.071914
220.38 2860.6 undefined 785.16 854.37 2.6082 285.00 0.0035088 785.16 854.37 2.6082 2.4323 3.3525 387.23 0.013550 34.187 0.072039 285.00 0.0035088 785.16 854.37 2.6082 2.4323 3.3525 387.23 0.013550 34.187 0.072039
221.38 2879.2 undefined 787.60 857.25 2.6131 285.00 0.0035088 787.60 857.25 2.6131 2.4356 3.3504 388.41 0.013400 34.214 0.072165 285.00 0.0035088 787.60 857.25 2.6131 2.4356 3.3504 388.41 0.013400 34.214 0.072165
222.38 2897.8 undefined 790.03 860.14 2.6181 285.00 0.0035088 790.03 860.14 2.6181 2.4390 3.3484 389.57 0.013251 34.240 0.072291 285.00 0.0035088 790.03 860.14 2.6181 2.4390 3.3484 389.57 0.013251 34.240 0.072291
223.38 2916.4 undefined 792.48 863.03 2.6230 285.00 0.0035088 792.48 863.03 2.6230 2.4424 3.3465 390.74 0.013105 34.267 0.072417 285.00 0.0035088 792.48 863.03 2.6230 2.4424 3.3465 390.74 0.013105 34.267 0.072417
224.38 2935.1 undefined 794.92 865.92 2.6279 285.00 0.0035088 794.92 865.92 2.6279 2.4458 3.3446 391.90 0.012960 34.294 0.072544 285.00 0.0035088 794.92 865.92 2.6279 2.4458 3.3446 391.90 0.012960 34.294 0.072544
225.38 2953.7 undefined 797.37 868.82 2.6328 285.00 0.0035088 797.37 868.82 2.6328 2.4491 3.3428 393.05 0.012817 34.321 0.072671 285.00 0.0035088 797.37 868.82 2.6328 2.4491 3.3428 393.05 0.012817 34.321 0.072671
226.38 2972.3 undefined 799.82 871.72 2.6377 285.00 0.0035088 799.82 871.72 2.6377 2.4525 3.3411 394.20 0.012676 34.347 0.072799 285.00 0.0035088 799.82 871.72 2.6377 2.4525 3.3411 394.20 0.012676 34.347 0.072799
227.38 2990.9 undefined 802.27 874.63 2.6426 285.00 0.0035088 802.27 874.63 2.6426 2.4559 3.3394 395.35 0.012537 34.374 0.072926 285.00 0.0035088 802.27 874.63 2.6426 2.4559 3.3394 395.35 0.012537 34.374 0.072926
228.38 3009.5 undefined 804.73 877.54 2.6475 285.00 0.0035088 804.73 877.54 2.6475 2.4593 3.3379 396.50 0.012399 34.401 0.073054 285.00 0.0035088 804.73 877.54 2.6475 2.4593 3.3379 396.50 0.012399 34.401 0.073054
229.38 3028.2 undefined 807.19 880.45 2.6524 285.00 0.0035088 807.19 880.45 2.6524 2.4627 3.3364 397.64 0.012263 34.427 0.073182 285.00 0.0035088 807.19 880.45 2.6524 2.4627 3.3364 397.64 0.012263 34.427 0.073182
230.38 3046.8 undefined 809.65 883.36 2.6573 285.00 0.0035088 809.65 883.36 2.6573 2.4660 3.3349 398.77 0.012129 34.454 0.073311 285.00 0.0035088 809.65 883.36 2.6573 2.4660 3.3349 398.77 0.012129 34.454 0.073311
231.38 3065.4 undefined 812.12 886.28 2.6622 285.00 0.0035088 812.12 886.28 2.6622 2.4694 3.3336 399.91 0.011997 34.480 0.073440 285.00 0.0035088 812.12 886.28 2.6622 2.4694 3.3336 399.91 0.011997 34.480 0.073440
232.38 3084.0 undefined 814.59 889.20 2.6671 285.00 0.0035088 814.59 889.20 2.6671 2.4728 3.3323 401.04 0.011866 34.507 0.073569 285.00 0.0035088 814.59 889.20 2.6671 2.4728 3.3323 401.04 0.011866 34.507 0.073569
233.38 3102.6 undefined 817.07 892.13 2.6720 285.00 0.0035088 817.07 892.13 2.6720 2.4762 3.3310 402.16 0.011736 34.533 0.073698 285.00 0.0035088 817.07 892.13 2.6720 2.4762 3.3310 402.16 0.011736 34.533 0.073698
234.38 3121.3 undefined 819.55 895.06 2.6769 285.00 0.0035088 819.55 895.06 2.6769 2.4796 3.3298 403.28 0.011608 34.560 0.073828 285.00 0.0035088 819.55 895.06 2.6769 2.4796 3.3298 403.28 0.011608 34.560 0.073828
235.38 3139.9 undefined 822.03 897.99 2.6818 285.00 0.0035088 822.03 897.99 2.6818 2.4829 3.3287 404.40 0.011482 34.586 0.073958 285.00 0.0035088 822.03 897.99 2.6818 2.4829 3.3287 404.40 0.011482 34.586 0.073958
236.38 3158.5 undefined 824.51 900.92 2.6867 285.00 0.0035088 824.51 900.92 2.6867 2.4863 3.3277 405.52 0.011357 34.613 0.074088 285.00 0.0035088 824.51 900.92 2.6867 2.4863 3.3277 405.52 0.011357 34.613 0.074088
237.38 3177.1 undefined 827.00 903.86 2.6915 285.00 0.0035088 827.00 903.86 2.6915 2.4897 3.3267 406.63 0.011234 34.639 0.074219 285.00 0.0035088 827.00 903.86 2.6915 2.4897 3.3267 406.63 0.011234 34.639 0.074219
238.38 3195.7 undefined 829.49 906.80 2.6964 285.00 0.0035088 829.49 906.80 2.6964 2.4931 3.3257 407.74 0.011112 34.665 0.074350 285.00 0.0035088 829.49 906.80 2.6964 2.4931 3.3257 407.74 0.011112 34.665 0.074350
239.38 3214.3 undefined 831.99 909.75 2.7013 285.00 0.0035088 831.99 909.75 2.7013 2.4965 3.3248 408.84 0.010991 34.692 0.074481 285.00 0.0035088 831.99 909.75 2.7013 2.4965 3.3248 408.84 0.010991 34.692 0.074481
240.38 3233.0 undefined 834.48 912.70 2.7062 285.00 0.0035088 834.48 912.70 2.7062 2.4998 3.3240 409.94 0.010872 34.718 0.074612 285.00 0.0035088 834.48 912.70 2.7062 2.4998 3.3240 409.94 0.010872 34.718 0.074612
241.38 3251.6 undefined 836.99 915.65 2.7110 285.00 0.0035088 836.99 915.65 2.7110 2.5032 3.3232 411.04 0.010755 34.744 0.074743 285.00 0.0035088 836.99 915.65 2.7110 2.5032 3.3232 411.04 0.010755 34.744 0.074743
242.38 3270.2 undefined 839.49 918.60 2.7159 285.00 0.0035088 839.49 918.60 2.7159 2.5066 3.3225 412.13 0.010639 34.771 0.074875 285.00 0.0035088 839.49 918.60 2.7159 2.5066 3.3225 412.13 0.010639 34.771 0.074875
243.38 3288.8 undefined 842.00 921.56 2.7208 285.00 0.0035088 842.00 921.56 2.7208 2.5100 3.3218 413.22 0.010524 34.797 0.075007 285.00 0.0035088 842.00 921.56 2.7208 2.5100 3.3218 413.22 0.010524 34.797 0.075007
244.38 3307.4 undefined 844.51 924.52 2.7256 285.00 0.0035088 844.51 924.52 2.7256 2.5134 3.3212 414.31 0.010410 34.823 0.075139 285.00 0.0035088 844.51 924.52 2.7256 2.5134 3.3212 414.31 0.010410 34.823 0.075139
245.38 3326.0 undefined 847.03 927.49 2.7305 285.00 0.0035088 847.03 927.49 2.7305 2.5167 3.3206 415.40 0.010298 34.849 0.075272 285.00 0.0035088 847.03 927.49 2.7305 2.5167 3.3206 415.40 0.010298 34.849 0.075272
246.38 3344.7 undefined 849.54 930.46 2.7353 285.00 0.0035088 849.54 930.46 2.7353 2.5201 3.3201 416.48 0.010187 34.876 0.075404 285.00 0.0035088 849.54 930.46 2.7353 2.5201 3.3201 416.48 0.010187 34.876 0.075404
247.38 3363.3 undefined 852.07 933.43 2.7402 285.00 0.0035088 852.07 933.43 2.7402 2.5235 3.3196 417.55 0.010077 34.902 0.075537 285.00 0.0035088 852.07 933.43 2.7402 2.5235 3.3196 417.55 0.010077 34.902 0.075537
248.38 3381.9 undefined 854.59 936.41 2.7450 285.00 0.0035088 854.59 936.41 2.7450 2.5269 3.3191 418.63 0.0099684 34.928 0.075670 285.00 0.0035088 854.59 936.41 2.7450 2.5269 3.3191 418.63 0.0099684 34.928 0.075670
249.38 3400.5 undefined 857.12 939.38 2.7499 285.00 0.0035088 857.12 939.38 2.7499 2.5303 3.3188 419.70 0.0098611 34.954 0.075803 285.00 0.0035088 857.12 939.38 2.7499 2.5303 3.3188 419.70 0.0098611 34.954 0.075803
250.38 3419.1 undefined 859.65 942.37 2.7547 285.00 0.0035088 859.65 942.37 2.7547 2.5336 3.3184 420.77 0.0097551 34.980 0.075937 285.00 0.0035088 859.65 942.37 2.7547 2.5336 3.3184 420.77 0.0097551 34.980 0.075937
251.38 3437.7 undefined 862.19 945.35 2.7595 285.00 0.0035088 862.19 945.35 2.7595 2.5370 3.3181 421.83 0.0096502 35.006 0.076070 285.00 0.0035088 862.19 945.35 2.7595 2.5370 3.3181 421.83 0.0096502 35.006 0.076070
252.38 3456.3 undefined 864.73 948.34 2.7644 285.00 0.0035088 864.73 948.34 2.7644 2.5404 3.3178 422.89 0.0095465 35.032 0.076204 285.00 0.0035088 864.73 948.34 2.7644 2.5404 3.3178 422.89 0.0095465 35.032 0.076204
253.38 3474.9 undefined 867.27 951.33 2.7692 285.00 0.0035088 867.27 951.33 2.7692 2.5438 3.3176 423.95 0.0094439 35.058 0.076338 285.00 0.0035088 867.27 951.33 2.7692 2.5438 3.3176 423.95 0.0094439 35.058 0.076338
254.38 3493.5 undefined 869.81 954.33 2.7740 285.00 0.0035088 869.81 954.33 2.7740 2.5471 3.3174 425.01 0.0093425 35.084 0.076472 285.00 0.0035088 869.81 954.33 2.7740 2.5471 3.3174 425.01 0.0093425 35.084 0.076472
255.38 3512.1 undefined 872.36 957.33 2.7789 285.00 0.0035088 872.36 957.33 2.7789 2.5505 3.3173 426.06 0.0092422 35.110 0.076606 285.00 0.0035088 872.36 957.33 2.7789 2.5505 3.3173 426.06 0.0092422 35.110 0.076606
256.38 3530.7 undefined 874.91 960.33 2.7837 285.00 0.0035088 874.91 960.33 2.7837 2.5539 3.3172 427.11 0.0091431 35.136 0.076740 285.00 0.0035088 874.91 960.33 2.7837 2.5539 3.3172 427.11 0.0091431 35.136 0.076740
257.38 3549.3 undefined 877.47 963.33 2.7885 285.00 0.0035088 877.47 963.33 2.7885 2.5572 3.3172 428.16 0.0090450 35.162 0.076875 285.00 0.0035088 877.47 963.33 2.7885 2.5572 3.3172 428.16 0.0090450 35.162 0.076875
258.38 3567.9 undefined 880.03 966.34 2.7933 285.00 0.0035088 880.03 966.34 2.7933 2.5606 3.3171 429.20 0.0089479 35.187 0.077009 285.00 0.0035088 880.03 966.34 2.7933 2.5606 3.3171 429.20 0.0089479 35.187 0.077009
259.38 3586.5 undefined 882.59 969.36 2.7981 285.00 0.0035088 882.59 969.36 2.7981 2.5640 3.3172 430.24 0.0088520 35.213 0.077144 285.00 0.0035088 882.59 969.36 2.7981 2.5640 3.3172 430.24 0.0088520 35.213 0.077144
260.38 3605.1 undefined 885.16 972.37 2.8030 285.00 0.0035088 885.16 972.37 2.8030 2.5673 3.3172 431.28 0.0087570 35.239 0.077278 285.00 0.0035088 885.16 972.37 2.8030 2.5673 3.3172 431.28 0.0087570 35.239 0.077278
261.38 3623.7 undefined 887.73 975.39 2.8078 285.00 0.0035088 887.73 975.39 2.8078 2.5707 3.3173 432.31 0.0086631 35.265 0.077413 285.00 0.0035088 887.73 975.39 2.8078 2.5707 3.3173 432.31 0.0086631 35.265 0.077413
262.38 3642.3 undefined 890.30 978.41 2.8126 285.00 0.0035088 890.30 978.41 2.8126 2.5741 3.3174 433.35 0.0085702 35.291 0.077547 285.00 0.0035088 890.30 978.41 2.8126 2.5741 3.3174 433.35 0.0085702 35.291 0.077547
263.38 3660.9 undefined 892.87 981.44 2.8174 285.00 0.0035088 892.87 981.44 2.8174 2.5774 3.3176 434.37 0.0084784 35.316 0.077682 285.00 0.0035088 892.87 981.44 2.8174 2.5774 3.3176 434.37 0.0084784 35.316 0.077682
264.38 3679.5 undefined 895.45 984.47 2.8222 285.00 0.0035088 895.45 984.47 2.8222 2.5808 3.3178 435.40 0.0083875 35.342 0.077816 285.00 0.0035088 895.45 984.47 2.8222 2.5808 3.3178 435.40 0.0083875 35.342 0.077816
265.38 3698.0 undefined 898.04 987.50 2.8270 285.00 0.0035088 898.04 987.50 2.8270 2.5841 3.3180 436.42 0.0082975 35.368 0.077950 285.00 0.0035088 898.04 987.50 2.8270 2.5841 3.3180 436.42 0.0082975 35.368 0.077950
266.38 3716.6 undefined 900.62 990.53 2.8318 285.00 0.0035088 900.62 990.53 2.8318 2.5875 3.3183 437.44 0.0082085 35.393 0.078084 285.00 0.0035088 900.62 990.53 2.8318 2.5875 3.3183 437.44 0.0082085 35.393 0.078084
267.38 3735.2 undefined 903.21 993.57 2.8366 285.00 0.0035088 903.21 993.57 2.8366 2.5909 3.3186 438.46 0.0081205 35.419 0.078218 285.00 0.0035088 903.21 993.57 2.8366 2.5909 3.3186 438.46 0.0081205 35.419 0.078218
268.38 3753.8 undefined 905.80 996.61 2.8414 285.00 0.0035088 905.80 996.61 2.8414 2.5942 3.3189 439.48 0.0080334 35.445 0.078352 285.00 0.0035088 905.80 996.61 2.8414 2.5942 3.3189 439.48 0.0080334 35.445 0.078352
269.38 3772.4 undefined 908.40 999.66 2.8462 285.00 0.0035088 908.40 999.66 2.8462 2.5976 3.3192 440.49 0.0079472 35.470 0.078485 285.00 0.0035088 908.40 999.66 2.8462 2.5976 3.3192 440.49 0.0079472 35.470 0.078485
270.38 3790.9 undefined 911.00 1002.7 2.8509 285.00 0.0035088 911.00 1002.7 2.8509 2.6009 3.3196 441.50 0.0078619 35.496 0.078618 285.00 0.0035088 911.00 1002.7 2.8509 2.6009 3.3196 441.50 0.0078619 35.496 0.078618
271.38 3809.5 undefined 913.60 1005.8 2.8557 285.00 0.0035088 913.60 1005.8 2.8557 2.6043 3.3201 442.51 0.0077775 35.521 0.078750 285.00 0.0035088 913.60 1005.8 2.8557 2.6043 3.3201 442.51 0.0077775 35.521 0.078750
272.38 3828.1 undefined 916.21 1008.8 2.8605 285.00 0.0035088 916.21 1008.8 2.8605 2.6076 3.3205 443.51 0.0076940 35.547 0.078882 285.00 0.0035088 916.21 1008.8 2.8605 2.6076 3.3205 443.51 0.0076940 35.547 0.078882
273.38 3846.7 undefined 918.82 1011.9 2.8653 285.00 0.0035088 918.82 1011.9 2.8653 2.6110 3.3210 444.51 0.0076113 35.572 0.079012 285.00 0.0035088 918.82 1011.9 2.8653 2.6110 3.3210 444.51 0.0076113 35.572 0.079012
274.38 3865.2 undefined 921.43 1014.9 2.8701 285.00 0.0035088 921.43 1014.9 2.8701 2.6143 3.3215 445.51 0.0075295 35.598 0.079142 285.00 0.0035088 921.43 1014.9 2.8701 2.6143 3.3215 445.51 0.0075295 35.598 0.079142
275.38 3883.8 undefined 924.04 1018.0 2.8748 285.00 0.0035088 924.04 1018.0 2.8748 2.6177 3.3220 446.51 0.0074485 35.623 0.079270 285.00 0.0035088 924.04 1018.0 2.8748 2.6177 3.3220 446.51 0.0074485 35.623 0.079270
276.38 3902.4 undefined 926.66 1021.1 2.8796 285.00 0.0035088 926.66 1021.1 2.8796 2.6210 3.3226 447.50 0.0073684 35.648 0.079397 285.00 0.0035088 926.66 1021.1 2.8796 2.6210 3.3226 447.50 0.0073684 35.648 0.079397
277.38 3920.9 undefined 929.29 1024.1 2.8844 285.00 0.0035088 929.29 1024.1 2.8844 2.6243 3.3232 448.49 0.0072891 35.674 0.079521 285.00 0.0035088 929.29 1024.1 2.8844 2.6243 3.3232 448.49 0.0072891 35.674 0.079521
278.38 3939.5 undefined 931.91 1027.2 2.8891 285.00 0.0035088 931.91 1027.2 2.8891 2.6277 3.3238 449.48 0.0072106 35.699 0.079641 285.00 0.0035088 931.91 1027.2 2.8891 2.6277 3.3238 449.48 0.0072106 35.699 0.079641
279.38 3958.0 undefined 934.54 1030.3 2.8939 285.00 0.0035088 934.54 1030.3 2.8939 2.6310 3.3244 450.47 0.0071329 35.724 0.079756 285.00 0.0035088 934.54 1030.3 2.8939 2.6310 3.3244 450.47 0.0071329 35.724 0.079756
280.38 3976.6 undefined 937.17 1033.4 2.8987 285.00 0.0035088 937.17 1033.4 2.8987 2.6343 3.3251 451.45 0.0070560 35.750 0.079860 285.00 0.0035088 937.17 1033.4 2.8987 2.6343 3.3251 451.45 0.0070560 35.750 0.079860
281.38 3995.1 undefined 939.81 1036.5 2.9034 285.00 0.0035088 939.81 1036.5 2.9034 2.6377 3.3258 452.43 0.0069799 35.775 0.079930 285.00 0.0035088 939.81 1036.5 2.9034 2.6377 3.3258 452.43 0.0069799 35.775 0.079930
282.38 4013.7 undefined 942.45 1039.5 2.9082 285.00 0.0035088 942.45 1039.5 2.9082 2.6410 3.3265 453.41 0.0069045 35.800 0.080026 285.00 0.0035088 942.45 1039.5 2.9082 2.6410 3.3265 453.41 0.0069045 35.800 0.080026
283.38 4032.3 undefined 945.09 1042.6 2.9129 285.00 0.0035088 945.09 1042.6 2.9129 2.6443 3.3272 454.38 0.0068299 35.825 0.080184 285.00 0.0035088 945.09 1042.6 2.9129 2.6443 3.3272 454.38 0.0068299 35.825 0.080184
284.38 4050.8 undefined 947.74 1045.7 2.9177 285.00 0.0035088 947.74 1045.7 2.9177 2.6477 3.3280 455.36 0.0067560 35.851 0.080341 285.00 0.0035088 947.74 1045.7 2.9177 2.6477 3.3280 455.36 0.0067560 35.851 0.080341
285.38 4069.3 undefined 950.39 1048.8 2.9224 285.00 0.0035088 950.39 1048.8 2.9224 2.6510 3.3288 456.33 0.0066829 35.876 0.080499 285.00 0.0035088 950.39 1048.8 2.9224 2.6510 3.3288 456.33 0.0066829 35.876 0.080499
286.38 4087.9 undefined 953.04 1051.9 2.9272 285.00 0.0035088 953.04 1051.9 2.9272 2.6543 3.3296 457.30 0.0066105 35.901 0.080657 285.00 0.0035088 953.04 1051.9 2.9272 2.6543 3.3296 457.30 0.0066105 35.901 0.080657
287.38 4106.4 undefined 955.70 1055.0 2.9319 285.00 0.0035088 955.70 1055.0 2.9319 2.6576 3.3304 458.26 0.0065388 35.926 0.080815 285.00 0.0035088 955.70 1055.0 2.9319 2.6576 3.3304 458.26 0.0065388 35.926 0.080815
288.38 4125.0 undefined 958.36 1058.1 2.9367 285.00 0.0035088 958.36 1058.1 2.9367 2.6610 3.3313 459.23 0.0064679 35.951 0.080973 285.00 0.0035088 958.36 1058.1 2.9367 2.6610 3.3313 459.23 0.0064679 35.951 0.080973
289.38 4143.5 undefined 961.02 1061.3 2.9414 285.00 0.0035088 961.02 1061.3 2.9414 2.6643 3.3321 460.19 0.0063976 35.976 0.081132 285.00 0.0035088 961.02 1061.3 2.9414 2.6643 3.3321 460.19 0.0063976 35.976 0.081132
290.38 4162.0 undefined 963.68 1064.4 2.9461 285.00 0.0035088 963.68 1064.4 2.9461 2.6676 3.3330 461.15 0.0063280 36.001 0.081292 285.00 0.0035088 963.68 1064.4 2.9461 2.6676 3.3330 461.15 0.0063280 36.001 0.081292
291.38 4180.6 undefined 966.35 1067.5 2.9509 285.00 0.0035088 966.35 1067.5 2.9509 2.6709 3.3339 462.10 0.0062591 36.026 0.081451 285.00 0.0035088 966.35 1067.5 2.9509 2.6709 3.3339 462.10 0.0062591 36.026 0.081451
292.38 4199.1 undefined 969.03 1070.6 2.9556 285.00 0.0035088 969.03 1070.6 2.9556 2.6742 3.3349 463.06 0.0061909 36.051 0.081611 285.00 0.0035088 969.03 1070.6 2.9556 2.6742 3.3349 463.06 0.0061909 36.051 0.081611
293.38 4217.6 undefined 971.70 1073.7 2.9603 285.00 0.0035088 971.70 1073.7 2.9603 2.6775 3.3358 464.01 0.0061233 36.076 0.081771 285.00 0.0035088 971.70 1073.7 2.9603 2.6775 3.3358 464.01 0.0061233 36.076 0.081771
294.38 4236.1 undefined 974.38 1076.9 2.9650 285.00 0.0035088 974.38 1076.9 2.9650 2.6808 3.3368 464.96 0.0060564 36.101 0.081931 285.00 0.0035088 974.38 1076.9 2.9650 2.6808 3.3368 464.96 0.0060564 36.101 0.081931
295.38 4254.7 undefined 977.06 1080.0 2.9698 285.00 0.0035088 977.06 1080.0 2.9698 2.6841 3.3378 465.90 0.0059902 36.126 0.082092 285.00 0.0035088 977.06 1080.0 2.9698 2.6841 3.3378 465.90 0.0059902 36.126 0.082092
296.38 4273.2 undefined 979.75 1083.1 2.9745 285.00 0.0035088 979.75 1083.1 2.9745 2.6874 3.3388 466.85 0.0059245 36.151 0.082253 285.00 0.0035088 979.75 1083.1 2.9745 2.6874 3.3388 466.85 0.0059245 36.151 0.082253
297.38 4291.7 undefined 982.44 1086.3 2.9792 285.00 0.0035088 982.44 1086.3 2.9792 2.6907 3.3399 467.79 0.0058596 36.176 0.082414 285.00 0.0035088 982.44 1086.3 2.9792 2.6907 3.3399 467.79 0.0058596 36.176 0.082414
298.38 4310.2 undefined 985.13 1089.4 2.9839 285.00 0.0035088 985.13 1089.4 2.9839 2.6940 3.3409 468.73 0.0057952 36.201 0.082575 285.00 0.0035088 985.13 1089.4 2.9839 2.6940 3.3409 468.73 0.0057952 36.201 0.082575
299.38 4328.7 undefined 987.83 1092.5 2.9886 285.00 0.0035088 987.83 1092.5 2.9886 2.6973 3.3420 469.67 0.0057314 36.225 0.082737 285.00 0.0035088 987.83 1092.5 2.9886 2.6973 3.3420 469.67 0.0057314 36.225 0.082737
300.38 4347.2 undefined 990.53 1095.7 2.9933 285.00 0.0035088 990.53 1095.7 2.9933 2.7006 3.3431 470.61 0.0056683 36.250 0.082899 285.00 0.0035088 990.53 1095.7 2.9933 2.7006 3.3431 470.61 0.0056683 36.250 0.082899