Temperature (C) Pressure (psia) Quality (l+v) Internal Energy (l+v, kJ/kg) Enthalpy (l+v, kJ/kg) Entropy (l+v, J/g*K) Density (l, kg/m3) Volume (l, m3/kg) Internal Energy (l, kJ/kg) Enthalpy (l, kJ/kg) Entropy (l, J/g*K) Cv (l, J/g*K) Cp (l, J/g*K) Sound Spd. (l, m/s) Joule-Thomson (l, F/psia) Viscosity (l, uPa*s) Therm. Cond. (l, W/m*K) Density (v, kg/m3) Volume (v, m3/kg) Internal Energy (v, kJ/kg) Enthalpy (v, kJ/kg) Entropy (v, J/g*K) Cv (v, J/g*K) Cp (v, J/g*K) Sound Spd. (v, m/s) Joule-Thomson (v, F/psia) Viscosity (v, uPa*s) Therm. Cond. (v, W/m*K)
-187.62 2.4953e-08 1.6371e-11 -196.64 -196.64 -1.3959 733.13 0.0013640 -196.64 -196.64 -1.3959 1.3553 1.9158 2136.4 -0.0077592 10960. 0.20792 1.0669e-08 9.3732e+07 350.13 366.26 5.1858 0.69067 0.87923 143.28 6.1051 2.3259 0.0017061
-186.62 3.7339e-08 2.4184e-11 -194.73 -194.73 -1.3736 732.08 0.0013660 -194.73 -194.73 -1.3736 1.3539 1.9166 2129.6 -0.0077546 10073. 0.20765 1.5780e-08 6.3371e+07 350.82 367.14 5.1200 0.69462 0.88317 144.03 5.9178 2.3534 0.0017533
-185.62 5.5322e-08 3.5377e-11 -192.81 -192.81 -1.3516 731.04 0.0013679 -192.81 -192.81 -1.3516 1.3525 1.9174 2122.9 -0.0077498 9276.1 0.20737 2.3112e-08 4.3267e+07 351.52 368.02 5.0561 0.69857 0.88713 144.77 5.7383 2.3808 0.0018007
-184.62 8.1182e-08 5.1262e-11 -190.89 -190.89 -1.3298 730.00 0.0013699 -190.89 -190.89 -1.3298 1.3513 1.9182 2116.1 -0.0077448 8557.8 0.20708 3.3533e-08 2.9821e+07 352.22 368.91 4.9939 0.70253 0.89108 145.51 5.5662 2.4083 0.0018485
-183.62 1.1803e-07 7.3605e-11 -188.97 -188.97 -1.3083 728.96 0.0013718 -188.97 -188.97 -1.3083 1.3501 1.9191 2109.3 -0.0077395 7909.8 0.20678 4.8211e-08 2.0742e+07 352.92 369.81 4.9333 0.70648 0.89504 146.24 5.4011 2.4357 0.0018965
-182.62 1.7009e-07 1.0476e-10 -187.05 -187.05 -1.2869 727.92 0.0013738 -187.05 -187.05 -1.2869 1.3490 1.9201 2102.5 -0.0077340 7324.3 0.20647 6.8704e-08 1.4555e+07 353.63 370.70 4.8744 0.71043 0.89899 146.97 5.2426 2.4632 0.0019448
-181.62 2.4299e-07 1.4783e-10 -185.13 -185.13 -1.2658 726.88 0.0013757 -185.13 -185.13 -1.2658 1.3480 1.9210 2095.7 -0.0077283 6794.5 0.20616 9.7079e-08 1.0301e+07 354.35 371.60 4.8170 0.71438 0.90294 147.69 5.0904 2.4906 0.0019934
-180.62 3.4425e-07 2.0691e-10 -183.21 -183.21 -1.2450 725.85 0.0013777 -183.21 -183.21 -1.2450 1.3470 1.9220 2088.9 -0.0077225 6314.4 0.20584 1.3605e-07 7.3504e+06 355.06 372.51 4.7612 0.71833 0.90688 148.41 4.9442 2.5181 0.0020423
-179.62 4.8378e-07 2.8730e-10 -181.29 -181.29 -1.2243 724.81 0.0013797 -181.29 -181.29 -1.2243 1.3461 1.9231 2082.0 -0.0077164 5878.8 0.20551 1.8915e-07 5.2868e+06 355.78 373.42 4.7068 0.72227 0.91082 149.13 4.8038 2.5456 0.0020915
-178.62 6.7459e-07 3.9586e-10 -179.37 -179.37 -1.2038 723.78 0.0013816 -179.37 -179.37 -1.2038 1.3453 1.9241 2075.2 -0.0077102 5482.9 0.20517 2.6096e-07 3.8320e+06 356.51 374.33 4.6538 0.72620 0.91475 149.84 4.6688 2.5731 0.0021410
-177.62 9.3358e-07 5.4139e-10 -177.44 -177.44 -1.1836 722.75 0.0013836 -177.44 -177.44 -1.1836 1.3445 1.9252 2068.4 -0.0077039 5122.6 0.20483 3.5737e-07 2.7982e+06 357.23 375.25 4.6022 0.73012 0.91867 150.54 4.5390 2.6005 0.0021907
-176.62 1.2826e-06 7.3512e-10 -175.52 -175.52 -1.1635 721.72 0.0013856 -175.52 -175.52 -1.1635 1.3437 1.9263 2061.5 -0.0076973 4794.1 0.20447 4.8588e-07 2.0581e+06 357.97 376.17 4.5519 0.73403 0.92258 151.25 4.4142 2.6280 0.0022408
-175.62 1.7496e-06 9.9123e-10 -173.59 -173.59 -1.1437 720.69 0.0013876 -173.59 -173.59 -1.1437 1.3430 1.9274 2054.7 -0.0076907 4494.3 0.20411 6.5601e-07 1.5244e+06 358.70 377.09 4.5029 0.73792 0.92648 151.95 4.2941 2.6555 0.0022912
-174.62 2.3705e-06 1.3276e-09 -171.66 -171.66 -1.1240 719.66 0.0013895 -171.66 -171.66 -1.1240 1.3423 1.9286 2047.9 -0.0076838 4220.2 0.20375 8.7976e-07 1.1367e+06 359.44 378.02 4.4551 0.74181 0.93036 152.64 4.1784 2.6830 0.0023418
-173.62 3.1903e-06 1.7664e-09 -169.73 -169.73 -1.1045 718.64 0.0013915 -169.73 -169.73 -1.1045 1.3417 1.9298 2041.0 -0.0076769 3969.3 0.20338 1.1721e-06 8.5314e+05 360.19 378.95 4.4085 0.74568 0.93423 153.33 4.0671 2.7105 0.0023928
-172.62 4.2661e-06 2.3355e-09 -167.80 -167.80 -1.0852 717.61 0.0013935 -167.80 -167.80 -1.0852 1.3411 1.9310 2034.2 -0.0076698 3739.3 0.20300 1.5518e-06 6.4441e+05 360.93 379.89 4.3631 0.74953 0.93809 154.02 3.9599 2.7379 0.0024440
-171.62 5.6692e-06 3.0691e-09 -165.87 -165.87 -1.0661 716.58 0.0013955 -165.87 -165.87 -1.0661 1.3405 1.9322 2027.3 -0.0076625 3528.0 0.20261 2.0419e-06 4.8974e+05 361.69 380.83 4.3188 0.75337 0.94193 154.71 3.8566 2.7654 0.0024955
-170.62 7.4884e-06 4.0090e-09 -163.94 -163.94 -1.0472 715.56 0.0013975 -163.94 -163.94 -1.0472 1.3400 1.9334 2020.5 -0.0076552 3333.8 0.20222 2.6708e-06 3.7442e+05 362.44 381.77 4.2755 0.75720 0.94575 155.39 3.7570 2.7929 0.0025473
-169.62 9.8334e-06 5.2066e-09 -162.00 -162.00 -1.0284 714.54 0.0013995 -162.00 -162.00 -1.0284 1.3395 1.9347 2013.6 -0.0076477 3154.9 0.20182 3.4733e-06 2.8791e+05 363.20 382.72 4.2334 0.76100 0.94956 156.07 3.6609 2.8204 0.0025994
-168.62 1.2839e-05 6.7242e-09 -160.07 -160.07 -1.0098 713.52 0.0014015 -160.07 -160.07 -1.0098 1.3390 1.9359 2006.8 -0.0076401 2989.9 0.20141 4.4917e-06 2.2263e+05 363.96 383.67 4.1922 0.76479 0.95335 156.74 3.5683 2.8479 0.0026518
-167.62 1.6672e-05 8.6370e-09 -158.13 -158.13 -0.99134 712.49 0.0014035 -158.13 -158.13 -0.99134 1.3386 1.9372 2000.0 -0.0076323 2837.5 0.20100 5.7771e-06 1.7310e+05 364.73 384.63 4.1521 0.76856 0.95712 157.41 3.4790 2.8754 0.0027045
-166.62 2.1533e-05 1.1036e-08 -156.19 -156.19 -0.97306 711.47 0.0014055 -156.19 -156.19 -0.97306 1.3382 1.9385 1993.1 -0.0076245 2696.5 0.20058 7.3914e-06 1.3529e+05 365.50 385.59 4.1129 0.77232 0.96087 158.08 3.3927 2.9029 0.0027575
-165.62 2.7666e-05 1.4028e-08 -154.25 -154.25 -0.95494 710.45 0.0014075 -154.25 -154.25 -0.95494 1.3378 1.9398 1986.3 -0.0076165 2566.0 0.20016 9.4084e-06 1.0629e+05 366.27 386.55 4.0746 0.77605 0.96460 158.75 3.3095 2.9304 0.0028108
-164.62 3.5367e-05 1.7743e-08 -152.31 -152.31 -0.93698 709.44 0.0014096 -152.31 -152.31 -0.93698 1.3375 1.9411 1979.4 -0.0076084 2444.9 0.19973 1.1916e-05 83918. 367.05 387.52 4.0372 0.77976 0.96832 159.41 3.2291 2.9579 0.0028643
-163.62 4.4989e-05 2.2334e-08 -150.37 -150.37 -0.91917 708.42 0.0014116 -150.37 -150.37 -0.91917 1.3371 1.9424 1972.6 -0.0076002 2332.3 0.19930 1.5020e-05 66577. 367.83 388.49 4.0008 0.78346 0.97201 160.07 3.1514 2.9854 0.0029182
-162.62 5.6956e-05 2.7981e-08 -148.43 -148.43 -0.90151 707.40 0.0014136 -148.43 -148.43 -0.90151 1.3368 1.9437 1965.8 -0.0075919 2227.7 0.19886 1.8844e-05 53068. 368.62 389.46 3.9651 0.78713 0.97569 160.72 3.0764 3.0129 0.0029723
-161.62 7.1773e-05 3.4896e-08 -146.48 -146.48 -0.88400 706.38 0.0014157 -146.48 -146.48 -0.88400 1.3365 1.9451 1959.0 -0.0075834 2130.2 0.19841 2.3533e-05 42494. 369.41 390.44 3.9304 0.79079 0.97935 161.38 3.0038 3.0404 0.0030268
-160.62 9.0036e-05 4.3327e-08 -144.54 -144.54 -0.86663 705.37 0.0014177 -144.54 -144.54 -0.86663 1.3363 1.9465 1952.1 -0.0075748 2039.2 0.19796 2.9258e-05 34178. 370.20 391.42 3.8964 0.79443 0.98298 162.03 2.9337 3.0679 0.0030815
-159.62 0.00011245 5.3564e-08 -142.59 -142.59 -0.84940 704.35 0.0014197 -142.59 -142.59 -0.84940 1.3360 1.9478 1945.3 -0.0075661 1954.2 0.19751 3.6221e-05 27609. 371.00 392.40 3.8632 0.79805 0.98660 162.68 2.8658 3.0955 0.0031365
-158.62 0.00013985 6.5940e-08 -140.64 -140.64 -0.83231 703.34 0.0014218 -140.64 -140.64 -0.83231 1.3358 1.9492 1938.5 -0.0075573 1874.8 0.19705 4.4652e-05 22395. 371.80 393.39 3.8307 0.80164 0.99020 163.32 2.8002 3.1230 0.0031918
-157.62 0.00017320 8.0846e-08 -138.69 -138.69 -0.81536 702.32 0.0014238 -138.69 -138.69 -0.81536 1.3356 1.9506 1931.7 -0.0075484 1800.3 0.19658 5.4822e-05 18241. 372.60 394.38 3.7990 0.80522 0.99378 163.96 2.7367 3.1505 0.0032474
-156.62 0.00021364 9.8727e-08 -136.74 -136.74 -0.79854 701.31 0.0014259 -136.74 -136.74 -0.79854 1.3354 1.9520 1924.9 -0.0075393 1730.5 0.19611 6.7040e-05 14916. 373.41 395.38 3.7680 0.80878 0.99734 164.60 2.6752 3.1780 0.0033033
-155.62 0.00026248 1.2010e-07 -134.79 -134.79 -0.78185 700.30 0.0014280 -134.79 -134.79 -0.78185 1.3352 1.9534 1918.1 -0.0075302 1664.9 0.19564 8.1666e-05 12245. 374.22 396.38 3.7377 0.81232 1.0009 165.24 2.6157 3.2055 0.0033595
-154.62 0.00032125 1.4554e-07 -132.83 -132.83 -0.76530 699.29 0.0014300 -132.83 -132.83 -0.76530 1.3350 1.9548 1911.3 -0.0075209 1603.3 0.19516 9.9109e-05 10090. 375.03 397.38 3.7081 0.81585 1.0044 165.87 2.5580 3.2330 0.0034160
-153.62 0.00039171 1.7574e-07 -130.88 -130.88 -0.74887 698.27 0.0014321 -130.88 -130.88 -0.74887 1.3349 1.9563 1904.5 -0.0075114 1545.3 0.19468 0.00011984 8344.6 375.85 398.39 3.6792 0.81935 1.0079 166.50 2.5022 3.2606 0.0034727
-152.62 0.00047590 2.1143e-07 -128.92 -128.92 -0.73256 697.26 0.0014342 -128.92 -128.92 -0.73256 1.3348 1.9577 1897.8 -0.0075019 1490.6 0.19419 0.00014439 6925.9 376.67 399.40 3.6509 0.82284 1.0114 167.13 2.4481 3.2881 0.0035298
-151.62 0.00057613 2.5350e-07 -126.96 -126.96 -0.71638 696.25 0.0014363 -126.96 -126.96 -0.71638 1.3346 1.9592 1891.0 -0.0074922 1438.9 0.19370 0.00017336 5768.4 377.49 400.41 3.6232 0.82631 1.0149 167.76 2.3957 3.3156 0.0035872
-150.62 0.00069507 3.0290e-07 -125.00 -125.00 -0.70032 695.24 0.0014384 -125.00 -125.00 -0.70032 1.3345 1.9606 1884.2 -0.0074824 1390.2 0.19320 0.00020744 4820.7 378.32 401.42 3.5962 0.82976 1.0183 168.38 2.3448 3.3431 0.0036448
-149.62 0.00083574 3.6074e-07 -123.04 -123.04 -0.68437 694.23 0.0014404 -123.04 -123.04 -0.68438 1.3345 1.9621 1877.4 -0.0074724 1344.0 0.19270 0.00024740 4042.0 379.15 402.44 3.5697 0.83319 1.0218 169.00 2.2956 3.3706 0.0037027
-148.62 0.0010016 4.2824e-07 -121.08 -121.08 -0.66855 693.22 0.0014425 -121.08 -121.08 -0.66855 1.3344 1.9636 1870.7 -0.0074623 1300.3 0.19220 0.00029412 3400.0 379.99 403.47 3.5438 0.83661 1.0252 169.62 2.2478 3.3982 0.0037610
-147.62 0.0011965 5.0677e-07 -119.11 -119.11 -0.65284 692.21 0.0014447 -119.11 -119.11 -0.65284 1.3343 1.9651 1863.9 -0.0074521 1258.9 0.19169 0.00034856 2869.0 380.83 404.49 3.5185 0.84001 1.0286 170.24 2.2014 3.4257 0.0038195
-146.62 0.0014249 5.9786e-07 -117.15 -117.15 -0.63724 691.20 0.0014468 -117.15 -117.15 -0.63724 1.3343 1.9666 1857.2 -0.0074417 1219.6 0.19117 0.00041181 2428.3 381.67 405.52 3.4938 0.84340 1.0320 170.85 2.1565 3.4532 0.0038783
-145.62 0.0016917 7.0323e-07 -115.18 -115.18 -0.62175 690.19 0.0014489 -115.18 -115.18 -0.62175 1.3343 1.9682 1850.4 -0.0074312 1182.3 0.19066 0.00048510 2061.4 382.51 406.56 3.4695 0.84677 1.0353 171.46 2.1128 3.4807 0.0039374
-144.62 0.0020026 8.2476e-07 -113.21 -113.21 -0.60637 689.18 0.0014510 -113.21 -113.21 -0.60637 1.3343 1.9697 1843.7 -0.0074206 1146.8 0.19014 0.00056976 1755.1 383.36 407.59 3.4458 0.85012 1.0387 172.07 2.0705 3.5082 0.0039967
-143.62 0.0023637 9.6454e-07 -111.24 -111.24 -0.59109 688.17 0.0014531 -111.24 -111.24 -0.59110 1.3343 1.9713 1836.9 -0.0074098 1113.0 0.18962 0.00066731 1498.6 384.21 408.63 3.4226 0.85346 1.0420 172.68 2.0294 3.5358 0.0040564
-142.62 0.0027820 1.1249e-06 -109.27 -109.27 -0.57593 687.16 0.0014553 -109.27 -109.27 -0.57593 1.3343 1.9728 1830.2 -0.0073988 1080.8 0.18909 0.00077939 1283.1 385.07 409.68 3.3999 0.85679 1.0454 173.28 1.9896 3.5633 0.0041164
-141.62 0.0032653 1.3083e-06 -107.30 -107.30 -0.56086 686.15 0.0014574 -107.30 -107.30 -0.56087 1.3343 1.9744 1823.5 -0.0073878 1050.1 0.18856 0.00090784 1101.5 385.93 410.72 3.3777 0.86011 1.0487 173.88 1.9508 3.5908 0.0041766
-140.62 0.0038222 1.5177e-06 -105.32 -105.32 -0.54590 685.14 0.0014596 -105.32 -105.32 -0.54591 1.3344 1.9760 1816.7 -0.0073765 1020.7 0.18803 0.0010547 948.16 386.79 411.77 3.3560 0.86341 1.0520 174.48 1.9133 3.6183 0.0042372
-139.62 0.0044623 1.7560e-06 -103.34 -103.34 -0.53104 684.13 0.0014617 -103.34 -103.34 -0.53105 1.3344 1.9776 1810.0 -0.0073651 992.74 0.18749 0.0012221 818.26 387.65 412.83 3.3347 0.86670 1.0553 175.08 1.8768 3.6459 0.0042980
-138.62 0.0051963 2.0266e-06 -101.37 -101.37 -0.51628 683.12 0.0014639 -101.37 -101.37 -0.51629 1.3345 1.9792 1803.3 -0.0073536 965.97 0.18695 0.0014125 707.94 388.52 413.88 3.3139 0.86998 1.0586 175.67 1.8413 3.6734 0.0043592
-137.62 0.0060358 2.3331e-06 -99.385 -99.385 -0.50161 682.11 0.0014660 -99.386 -99.386 -0.50162 1.3346 1.9808 1796.6 -0.0073419 940.35 0.18641 0.0016287 614.00 389.39 414.94 3.2935 0.87325 1.0619 176.26 1.8069 3.7009 0.0044206
-136.62 0.0069938 2.6795e-06 -97.403 -97.403 -0.48704 681.10 0.0014682 -97.404 -97.404 -0.48705 1.3347 1.9825 1789.9 -0.0073301 915.81 0.18586 0.0018733 533.80 390.26 416.00 3.2735 0.87650 1.0651 176.85 1.7734 3.7284 0.0044823
-135.62 0.0080843 3.0702e-06 -95.420 -95.419 -0.47257 680.09 0.0014704 -95.421 -95.421 -0.47258 1.3348 1.9841 1783.2 -0.0073180 892.30 0.18531 0.0021497 465.17 391.14 417.07 3.2540 0.87975 1.0684 177.44 1.7409 3.7559 0.0045443
-134.62 0.0093230 3.5097e-06 -93.434 -93.434 -0.45819 679.08 0.0014726 -93.436 -93.436 -0.45820 1.3350 1.9858 1776.5 -0.0073059 869.75 0.18476 0.0024613 406.30 392.02 418.14 3.2348 0.88299 1.0716 178.02 1.7093 3.7834 0.0046066
-133.62 0.010727 4.0031e-06 -91.448 -91.447 -0.44389 678.07 0.0014748 -91.450 -91.449 -0.44391 1.3351 1.9875 1769.8 -0.0072935 848.11 0.18421 0.0028116 355.67 392.91 419.21 3.2161 0.88622 1.0749 178.61 1.6786 3.8109 0.0046691
-132.62 0.012315 4.5559e-06 -89.459 -89.459 -0.42969 677.06 0.0014770 -89.461 -89.461 -0.42971 1.3353 1.9892 1763.1 -0.0072810 827.32 0.18365 0.0032049 312.03 393.79 420.29 3.1977 0.88944 1.0781 179.19 1.6488 3.8385 0.0047320
-131.62 0.014106 5.1740e-06 -87.469 -87.468 -0.41558 676.04 0.0014792 -87.471 -87.471 -0.41560 1.3354 1.9909 1756.4 -0.0072684 807.34 0.18309 0.0036453 274.33 394.68 421.36 3.1798 0.89266 1.0813 179.76 1.6197 3.8660 0.0047951
-130.62 0.016124 5.8635e-06 -85.477 -85.476 -0.40155 675.03 0.0014814 -85.479 -85.479 -0.40157 1.3356 1.9926 1749.7 -0.0072555 788.12 0.18253 0.0041375 241.69 395.58 422.44 3.1622 0.89586 1.0846 180.34 1.5915 3.8935 0.0048586
-129.62 0.018392 6.6313e-06 -83.483 -83.482 -0.38761 674.02 0.0014836 -83.486 -83.486 -0.38763 1.3358 1.9944 1743.0 -0.0072425 769.63 0.18196 0.0046867 213.37 396.47 423.53 3.1450 0.89906 1.0878 180.91 1.5641 3.9210 0.0049223
-128.62 0.020935 7.4846e-06 -81.487 -81.487 -0.37375 673.01 0.0014859 -81.491 -81.490 -0.37378 1.3360 1.9961 1736.3 -0.0072294 751.83 0.18140 0.0052981 188.75 397.37 424.62 3.1281 0.90226 1.0910 181.48 1.5374 3.9485 0.0049863
-127.62 0.023783 8.4311e-06 -79.490 -79.489 -0.35998 672.00 0.0014881 -79.494 -79.493 -0.36001 1.3363 1.9979 1729.6 -0.0072160 734.67 0.18083 0.0059776 167.29 398.27 425.71 3.1116 0.90545 1.0942 182.05 1.5114 3.9760 0.0050506
-126.62 0.026966 9.4792e-06 -77.490 -77.490 -0.34629 670.98 0.0014904 -77.495 -77.495 -0.34632 1.3365 1.9997 1722.9 -0.0072025 718.14 0.18025 0.0067313 148.56 399.18 426.80 3.0954 0.90863 1.0974 182.62 1.4861 4.0035 0.0051152
-125.62 0.030515 1.0637e-05 -75.489 -75.489 -0.33268 669.97 0.0014926 -75.494 -75.494 -0.33272 1.3368 2.0015 1716.2 -0.0071888 702.18 0.17968 0.0075660 132.17 400.09 427.89 3.0795 0.91181 1.1006 183.18 1.4615 4.0310 0.0051800
-124.62 0.034467 1.1915e-05 -73.486 -73.486 -0.31915 668.95 0.0014949 -73.492 -73.492 -0.31919 1.3371 2.0033 1709.5 -0.0071749 686.79 0.17910 0.0084885 117.81 401.00 428.99 3.0640 0.91499 1.1038 183.74 1.4375 4.0584 0.0052452
-123.62 0.038859 1.3323e-05 -71.481 -71.481 -0.30569 667.94 0.0014971 -71.488 -71.487 -0.30574 1.3374 2.0051 1702.8 -0.0071609 671.93 0.17852 0.0095065 105.19 401.91 430.10 3.0488 0.91816 1.1070 184.30 1.4141 4.0859 0.0053106
-122.62 0.043731 1.4870e-05 -69.475 -69.474 -0.29232 666.92 0.0014994 -69.482 -69.481 -0.29237 1.3377 2.0070 1696.2 -0.0071466 657.57 0.17794 0.010628 94.092 402.83 431.20 3.0339 0.92134 1.1102 184.86 1.3913 4.1134 0.0053764
-121.62 0.049128 1.6569e-05 -67.466 -67.465 -0.27902 665.91 0.0015017 -67.474 -67.473 -0.27907 1.3380 2.0089 1689.5 -0.0071322 643.70 0.17736 0.011861 84.309 403.75 432.31 3.0193 0.92451 1.1134 185.41 1.3691 4.1409 0.0054424
-120.62 0.055096 1.8430e-05 -65.455 -65.454 -0.26579 664.89 0.0015040 -65.464 -65.463 -0.26585 1.3384 2.0107 1682.8 -0.0071176 630.28 0.17678 0.013215 75.669 404.67 433.42 3.0050 0.92767 1.1166 185.96 1.3475 4.1683 0.0055087
-119.62 0.061684 2.0466e-05 -63.443 -63.441 -0.25264 663.87 0.0015063 -63.452 -63.452 -0.25271 1.3387 2.0126 1676.1 -0.0071028 617.30 0.17619 0.014700 68.027 405.60 434.53 2.9909 0.93084 1.1198 186.51 1.3264 4.1958 0.0055752
-118.62 0.068946 2.2691e-05 -61.428 -61.427 -0.23956 662.86 0.0015086 -61.439 -61.438 -0.23963 1.3391 2.0146 1669.4 -0.0070878 604.74 0.17560 0.016325 61.255 406.53 435.64 2.9772 0.93401 1.1231 187.06 1.3058 4.2233 0.0056421
-117.62 0.076937 2.5118e-05 -59.411 -59.410 -0.22655 661.84 0.0015109 -59.423 -59.422 -0.22663 1.3395 2.0165 1662.8 -0.0070726 592.58 0.17501 0.018101 55.245 407.46 436.76 2.9638 0.93718 1.1263 187.60 1.2857 4.2507 0.0057092
-116.62 0.085718 2.7761e-05 -57.393 -57.391 -0.21361 660.82 0.0015133 -57.406 -57.405 -0.21370 1.3400 2.0184 1656.1 -0.0070573 580.80 0.17442 0.020040 49.901 408.39 437.88 2.9506 0.94035 1.1295 188.14 1.2660 4.2782 0.0057767
-115.62 0.095353 3.0636e-05 -55.372 -55.370 -0.20075 659.80 0.0015156 -55.386 -55.385 -0.20084 1.3404 2.0204 1649.4 -0.0070417 569.38 0.17383 0.022152 45.142 409.33 439.01 2.9377 0.94352 1.1327 188.68 1.2468 4.3056 0.0058444
-114.62 0.10591 3.3758e-05 -53.349 -53.347 -0.18794 658.78 0.0015180 -53.365 -53.364 -0.18805 1.3409 2.0224 1642.7 -0.0070260 558.32 0.17323 0.024451 40.898 410.27 440.13 2.9250 0.94669 1.1360 189.22 1.2281 4.3330 0.0059123
-113.62 0.11746 3.7144e-05 -51.324 -51.322 -0.17521 657.76 0.0015203 -51.342 -51.340 -0.17533 1.3413 2.0244 1636.0 -0.0070100 547.59 0.17264 0.026949 37.107 411.21 441.26 2.9126 0.94987 1.1392 189.75 1.2097 4.3604 0.0059806
-112.62 0.13008 4.0811e-05 -49.297 -49.295 -0.16254 656.73 0.0015227 -49.316 -49.315 -0.16267 1.3418 2.0264 1629.3 -0.0069938 537.18 0.17204 0.029661 33.715 412.16 442.39 2.9005 0.95305 1.1424 190.28 1.1918 4.3879 0.0060491
-111.62 0.14384 4.4777e-05 -47.268 -47.265 -0.14994 655.71 0.0015251 -47.289 -47.287 -0.15008 1.3424 2.0285 1622.7 -0.0069774 527.08 0.17144 0.032600 30.675 413.10 443.53 2.8885 0.95623 1.1457 190.81 1.1742 4.4153 0.0061180
-110.62 0.15884 4.9062e-05 -45.237 -45.234 -0.13741 654.69 0.0015274 -45.259 -45.258 -0.13755 1.3429 2.0305 1616.0 -0.0069609 517.28 0.17084 0.035781 27.948 414.06 444.66 2.8769 0.95942 1.1490 191.34 1.1570 4.4427 0.0061871
-109.62 0.17516 5.3683e-05 -43.203 -43.200 -0.12493 653.66 0.0015298 -43.228 -43.226 -0.12509 1.3435 2.0326 1609.3 -0.0069441 507.76 0.17024 0.039220 25.497 415.01 445.80 2.8654 0.96261 1.1522 191.86 1.1402 4.4701 0.0062564
-108.62 0.19290 5.8663e-05 -41.167 -41.163 -0.11252 652.64 0.0015322 -41.194 -41.192 -0.11269 1.3441 2.0347 1602.6 -0.0069271 498.51 0.16964 0.042933 23.292 415.96 446.94 2.8542 0.96581 1.1555 192.38 1.1236 4.4974 0.0063261
-107.62 0.21215 6.4021e-05 -39.129 -39.125 -0.10017 651.61 0.0015347 -39.158 -39.156 -0.10036 1.3447 2.0369 1595.9 -0.0069098 489.52 0.16903 0.046937 21.305 416.92 448.09 2.8433 0.96901 1.1588 192.90 1.1075 4.5248 0.0063960
-106.62 0.23301 6.9781e-05 -37.089 -37.084 -0.087879 650.58 0.0015371 -37.120 -37.118 -0.088082 1.3453 2.0390 1589.2 -0.0068924 480.79 0.16843 0.051250 19.512 417.88 449.23 2.8325 0.97222 1.1621 193.41 1.0916 4.5522 0.0064662
-105.62 0.25561 7.5964e-05 -35.046 -35.041 -0.075648 649.55 0.0015395 -35.080 -35.078 -0.075868 1.3460 2.0412 1582.6 -0.0068747 472.30 0.16782 0.055891 17.892 418.85 450.38 2.8220 0.97544 1.1655 193.93 1.0760 4.5795 0.0065367
-104.62 0.28004 8.2594e-05 -33.001 -32.995 -0.063477 648.52 0.0015420 -33.038 -33.035 -0.063714 1.3467 2.0434 1575.9 -0.0068569 464.04 0.16721 0.060878 16.426 419.81 451.53 2.8116 0.97867 1.1688 194.44 1.0608 4.6069 0.0066074
-103.62 0.30643 8.9694e-05 -30.953 -30.947 -0.051363 647.49 0.0015444 -30.994 -30.991 -0.051619 1.3474 2.0456 1569.2 -0.0068387 456.00 0.16660 0.066231 15.099 420.78 452.68 2.8015 0.98191 1.1722 194.94 1.0458 4.6342 0.0066785
-102.62 0.33490 9.7292e-05 -28.903 -28.897 -0.039306 646.46 0.0015469 -28.947 -28.944 -0.039582 1.3481 2.0478 1562.5 -0.0068204 448.18 0.16600 0.071971 13.894 421.75 453.84 2.7916 0.98516 1.1755 195.44 1.0310 4.6615 0.0067498
-101.62 0.36558 0.00010541 -26.851 -26.844 -0.027306 645.43 0.0015494 -26.898 -26.894 -0.027602 1.3489 2.0501 1555.8 -0.0068018 440.57 0.16539 0.078120 12.801 422.73 454.99 2.7818 0.98841 1.1789 195.95 1.0166 4.6888 0.0068213
-100.62 0.39862 0.00011408 -24.796 -24.788 -0.015360 644.39 0.0015519 -24.847 -24.843 -0.015678 1.3497 2.0524 1549.1 -0.0067830 433.16 0.16478 0.084699 11.807 423.70 456.15 2.7723 0.99168 1.1823 196.44 1.0024 4.7161 0.0068932
-99.625 0.43414 0.00012332 -22.739 -22.730 -0.0034690 643.36 0.0015544 -22.794 -22.789 -0.0038103 1.3505 2.0547 1542.4 -0.0067639 425.95 0.16416 0.091731 10.901 424.68 457.31 2.7630 0.99496 1.1858 196.94 0.98838 4.7434 0.0069653
-98.625 0.47230 0.00013317 -20.679 -20.669 0.0083684 642.32 0.0015569 -20.738 -20.733 0.0080027 1.3514 2.0570 1535.7 -0.0067447 418.92 0.16355 0.099240 10.077 425.66 458.48 2.7538 0.99825 1.1892 197.43 0.97464 4.7707 0.0070377
-97.625 0.51325 0.00014365 -18.616 -18.606 0.020153 641.28 0.0015594 -18.680 -18.674 0.019762 1.3522 2.0594 1529.0 -0.0067251 412.07 0.16294 0.10725 9.3239 426.65 459.64 2.7448 1.0016 1.1927 197.92 0.96112 4.7979 0.0071103
-96.625 0.55714 0.00015479 -16.551 -16.540 0.031886 640.24 0.0015619 -16.620 -16.614 0.031467 1.3531 2.0618 1522.3 -0.0067053 405.39 0.16233 0.11579 8.6365 427.63 460.81 2.7360 1.0049 1.1962 198.40 0.94783 4.8251 0.0071832
-95.625 0.60416 0.00016663 -14.483 -14.471 0.043567 639.20 0.0015645 -14.557 -14.550 0.043120 1.3540 2.0642 1515.7 -0.0066853 398.88 0.16171 0.12488 8.0078 428.62 461.98 2.7274 1.0082 1.1997 198.88 0.93475 4.8524 0.0072564
-94.625 0.65446 0.00017919 -12.412 -12.399 0.055199 638.16 0.0015670 -12.491 -12.484 0.054721 1.3550 2.0667 1509.0 -0.0066650 392.53 0.16110 0.13455 7.4323 429.61 463.15 2.7189 1.0116 1.2032 199.36 0.92188 4.8796 0.0073299
-93.625 0.70822 0.00019251 -10.339 -10.325 0.066780 637.12 0.0015696 -10.424 -10.416 0.066271 1.3560 2.0691 1502.3 -0.0066444 386.34 0.16048 0.14482 6.9050 430.60 464.32 2.7107 1.0149 1.2068 199.83 0.90921 4.9068 0.0074036
-92.625 0.76564 0.00020662 -8.2626 -8.2473 0.078313 636.07 0.0015722 -8.3535 -8.3452 0.077771 1.3570 2.0716 1495.6 -0.0066236 380.31 0.15987 0.15573 6.4212 431.60 465.49 2.7025 1.0183 1.2104 200.30 0.89673 4.9340 0.0074776
-91.625 0.82689 0.00022155 -6.1836 -6.1671 0.089798 635.02 0.0015747 -6.2808 -6.2719 0.089220 1.3580 2.0742 1488.9 -0.0066025 374.41 0.15925 0.16731 5.9769 432.59 466.67 2.6946 1.0217 1.2140 200.77 0.88445 4.9611 0.0075518
-90.625 0.89218 0.00023733 -4.1017 -4.0839 0.10123 633.98 0.0015773 -4.2056 -4.1959 0.10062 1.3591 2.0767 1482.2 -0.0065811 368.66 0.15864 0.17958 5.5685 433.59 467.84 2.6868 1.0251 1.2177 201.24 0.87236 4.9883 0.0076263
-89.625 0.96172 0.00025401 -2.0169 -1.9977 0.11263 632.93 0.0015800 -2.1279 -2.1174 0.11197 1.3602 2.0793 1475.5 -0.0065595 363.05 0.15802 0.19258 5.1928 434.59 469.02 2.6791 1.0285 1.2213 201.70 0.86045 5.0154 0.0077011
-88.625 1.0357 0.00027161 0.070808 0.091506 0.12397 631.88 0.0015826 -0.047516 -0.036215 0.12328 1.3613 2.0819 1468.8 -0.0065375 357.56 0.15740 0.20633 4.8466 435.59 470.20 2.6717 1.0320 1.2250 202.15 0.84873 5.0425 0.0077761
-87.625 1.1144 0.00029018 2.1616 2.1838 0.13527 630.83 0.0015852 2.0355 2.0476 0.13454 1.3625 2.0846 1462.1 -0.0065153 352.21 0.15679 0.22087 4.5276 436.60 471.39 2.6643 1.0354 1.2288 202.61 0.83718 5.0696 0.0078514
-86.625 1.1979 0.00030974 4.2553 4.2793 0.14653 629.77 0.0015879 4.1211 4.1342 0.14575 1.3637 2.0873 1455.4 -0.0064928 346.98 0.15617 0.23623 4.2331 437.61 472.57 2.6571 1.0389 1.2325 203.06 0.82580 5.0967 0.0079270
-85.625 1.2866 0.00033034 6.3522 6.3779 0.15774 628.72 0.0015905 6.2094 6.2235 0.15691 1.3649 2.0900 1448.8 -0.0064701 341.87 0.15555 0.25245 3.9612 438.61 473.75 2.6501 1.0424 1.2363 203.50 0.81460 5.1237 0.0080028
-84.625 1.3806 0.00035202 8.4522 8.4798 0.16891 627.66 0.0015932 8.3004 8.3155 0.16803 1.3661 2.0927 1442.1 -0.0064470 336.87 0.15494 0.26956 3.7097 439.63 474.94 2.6432 1.0460 1.2402 203.95 0.80356 5.1508 0.0080789
-83.625 1.4803 0.00037481 10.555 10.585 0.18003 626.60 0.0015959 10.394 10.410 0.17911 1.3674 2.0955 1435.4 -0.0064236 331.99 0.15432 0.28760 3.4771 440.64 476.13 2.6364 1.0495 1.2440 204.38 0.79269 5.1778 0.0081553
-82.625 1.5858 0.00039875 12.662 12.693 0.19112 625.54 0.0015986 12.491 12.508 0.19014 1.3687 2.0983 1428.7 -0.0063999 327.22 0.15370 0.30659 3.2616 441.65 477.31 2.6298 1.0531 1.2479 204.82 0.78199 5.2048 0.0082319
-81.625 1.6975 0.00042389 14.771 14.805 0.20216 624.48 0.0016013 14.590 14.609 0.20113 1.3700 2.1012 1422.0 -0.0063759 322.55 0.15309 0.32659 3.0619 442.67 478.50 2.6233 1.0567 1.2519 205.25 0.77144 5.2318 0.0083088
-80.625 1.8155 0.00045025 16.884 16.921 0.21316 623.42 0.0016041 16.692 16.712 0.21208 1.3714 2.1041 1415.4 -0.0063516 317.99 0.15247 0.34763 2.8766 443.69 479.70 2.6169 1.0603 1.2558 205.67 0.76106 5.2587 0.0083860
-79.625 1.9402 0.00047789 19.001 19.039 0.22413 622.36 0.0016068 18.797 18.819 0.22299 1.3728 2.1070 1408.7 -0.0063270 313.52 0.15186 0.36974 2.7046 444.71 480.89 2.6106 1.0639 1.2598 206.10 0.75083 5.2857 0.0084634
-78.625 2.0718 0.00050685 21.120 21.162 0.23505 621.29 0.0016096 20.905 20.928 0.23385 1.3742 2.1099 1402.0 -0.0063021 309.15 0.15124 0.39296 2.5448 445.73 482.08 2.6045 1.0676 1.2639 206.51 0.74076 5.3126 0.0085411
-77.625 2.2107 0.00053716 23.243 23.288 0.24594 620.22 0.0016123 23.016 23.040 0.24468 1.3757 2.1129 1395.3 -0.0062768 304.88 0.15062 0.41735 2.3961 446.75 483.27 2.5985 1.0712 1.2680 206.93 0.73084 5.3395 0.0086190
-76.625 2.3571 0.00056887 25.370 25.417 0.25679 619.15 0.0016151 25.130 25.156 0.25546 1.3772 2.1159 1388.7 -0.0062512 300.69 0.15001 0.44292 2.2577 447.78 484.47 2.5926 1.0749 1.2721 207.34 0.72107 5.3664 0.0086972
-75.625 2.5113 0.00060202 27.500 27.550 0.26760 618.08 0.0016179 27.247 27.275 0.26620 1.3787 2.1190 1382.0 -0.0062253 296.59 0.14939 0.46974 2.1288 448.81 485.67 2.5869 1.0787 1.2762 207.74 0.71146 5.3933 0.0087757
-74.625 2.6736 0.00063666 29.634 29.688 0.27838 617.01 0.0016207 29.366 29.396 0.27691 1.3802 2.1221 1375.4 -0.0061990 292.58 0.14878 0.49783 2.0087 449.83 486.86 2.5812 1.0824 1.2804 208.14 0.70200 5.4201 0.0088544
-73.625 2.8444 0.00067282 31.772 31.828 0.28912 615.93 0.0016236 31.489 31.521 0.28758 1.3818 2.1252 1368.7 -0.0061724 288.65 0.14816 0.52725 1.8966 450.86 488.06 2.5757 1.0862 1.2847 208.54 0.69268 5.4469 0.0089334
-72.625 3.0240 0.00071056 33.913 33.973 0.29982 614.85 0.0016264 33.615 33.649 0.29821 1.3834 2.1284 1362.0 -0.0061454 284.81 0.14755 0.55804 1.7920 451.90 489.26 2.5703 1.0900 1.2889 208.93 0.68351 5.4737 0.0090126
-71.625 3.2127 0.00074991 36.057 36.122 0.31049 613.78 0.0016293 35.745 35.781 0.30880 1.3851 2.1316 1355.4 -0.0061181 281.03 0.14694 0.59024 1.6942 452.93 490.46 2.5650 1.0938 1.2932 209.32 0.67448 5.5005 0.0090922
-70.625 3.4108 0.00079092 38.206 38.274 0.32112 612.69 0.0016321 37.877 37.915 0.31935 1.3867 2.1349 1348.7 -0.0060904 277.34 0.14632 0.62390 1.6028 453.96 491.66 2.5598 1.0976 1.2976 209.70 0.66560 5.5273 0.0091720
-69.625 3.6187 0.00083364 40.359 40.431 0.33173 611.61 0.0016350 40.013 40.053 0.32987 1.3884 2.1382 1342.1 -0.0060624 273.72 0.14571 0.65906 1.5173 455.00 492.86 2.5547 1.1015 1.3020 210.08 0.65687 5.5540 0.0092520
-68.625 3.8367 0.00087811 42.515 42.592 0.34230 610.53 0.0016379 42.152 42.195 0.34036 1.3902 2.1415 1335.5 -0.0060339 270.17 0.14510 0.69577 1.4372 456.04 494.06 2.5497 1.1054 1.3064 210.45 0.64827 5.5807 0.0093324
-67.625 4.0652 0.00092437 44.675 44.757 0.35283 609.44 0.0016409 44.294 44.340 0.35080 1.3919 2.1449 1328.8 -0.0060051 266.69 0.14449 0.73408 1.3622 457.08 495.26 2.5448 1.1093 1.3109 210.82 0.63981 5.6074 0.0094130
-66.625 4.3046 0.00097247 46.840 46.926 0.36334 608.35 0.0016438 46.439 46.488 0.36122 1.3937 2.1483 1322.2 -0.0059760 263.28 0.14388 0.77404 1.2919 458.12 496.46 2.5400 1.1133 1.3154 211.18 0.63150 5.6341 0.0094939
-65.625 4.5551 0.0010225 49.008 49.099 0.37381 607.26 0.0016467 48.588 48.640 0.37160 1.3955 2.1518 1315.6 -0.0059464 259.93 0.14327 0.81570 1.2259 459.16 497.67 2.5353 1.1172 1.3200 211.54 0.62332 5.6608 0.0095750
-64.625 4.8173 0.0010744 51.180 51.277 0.38425 606.16 0.0016497 50.740 50.795 0.38195 1.3974 2.1553 1308.9 -0.0059164 256.65 0.14266 0.85910 1.1640 460.21 498.87 2.5307 1.1212 1.3246 211.89 0.61527 5.6874 0.0096564
-63.625 5.0915 0.0011283 53.357 53.459 0.39467 605.07 0.0016527 52.896 52.954 0.39226 1.3993 2.1588 1302.3 -0.0058861 253.42 0.14205 0.90429 1.1058 461.25 500.07 2.5262 1.1252 1.3293 212.24 0.60736 5.7140 0.0097382
-62.625 5.3781 0.0011842 55.538 55.645 0.40505 603.97 0.0016557 55.055 55.117 0.40254 1.4012 2.1624 1295.7 -0.0058553 250.26 0.14144 0.95134 1.0511 462.30 501.28 2.5218 1.1293 1.3340 212.58 0.59958 5.7406 0.0098201
-61.625 5.6774 0.0012422 57.723 57.836 0.41541 602.87 0.0016587 57.218 57.283 0.41279 1.4031 2.1660 1289.1 -0.0058241 247.16 0.14084 1.0003 0.99972 463.35 502.48 2.5175 1.1333 1.3387 212.92 0.59194 5.7672 0.0099024
-60.625 5.9899 0.0013024 59.912 60.032 0.42573 601.77 0.0016618 59.385 59.453 0.42301 1.4051 2.1697 1282.5 -0.0057925 244.12 0.14023 1.0512 0.95131 464.40 503.68 2.5133 1.1374 1.3435 213.26 0.58442 5.7938 0.0099850
-59.625 6.3160 0.0013646 62.106 62.232 0.43603 600.66 0.0016648 61.554 61.627 0.43320 1.4071 2.1734 1275.9 -0.0057605 241.13 0.13962 1.1041 0.90573 465.45 504.89 2.5091 1.1415 1.3483 213.58 0.57704 5.8203 0.010068
-58.625 6.6561 0.0014291 64.304 64.437 0.44630 599.55 0.0016679 63.728 63.805 0.44335 1.4091 2.1772 1269.3 -0.0057280 238.19 0.13902 1.1591 0.86277 466.50 506.09 2.5051 1.1457 1.3532 213.90 0.56978 5.8468 0.010151
-57.625 7.0107 0.0014959 66.506 66.646 0.45654 598.44 0.0016710 65.905 65.986 0.45348 1.4111 2.1810 1262.7 -0.0056951 235.31 0.13842 1.2161 0.82228 467.55 507.30 2.5011 1.1498 1.3581 214.22 0.56265 5.8733 0.010234
-56.625 7.3801 0.0015650 68.713 68.861 0.46676 597.33 0.0016741 68.086 68.172 0.46358 1.4132 2.1848 1256.1 -0.0056617 232.48 0.13781 1.2754 0.78408 468.60 508.50 2.4972 1.1540 1.3631 214.53 0.55564 5.8998 0.010318
-55.625 7.7648 0.0016364 70.925 71.080 0.47695 596.22 0.0016772 70.271 70.361 0.47364 1.4153 2.1887 1249.5 -0.0056279 229.69 0.13721 1.3369 0.74802 469.66 509.71 2.4934 1.1582 1.3681 214.84 0.54875 5.9263 0.010402
-54.625 8.1652 0.0017102 73.141 73.304 0.48711 595.10 0.0016804 72.460 72.554 0.48368 1.4174 2.1927 1242.9 -0.0055937 226.96 0.13661 1.4006 0.71396 470.72 510.91 2.4897 1.1624 1.3731 215.14 0.54199 5.9527 0.010486
-53.625 8.5819 0.0017865 75.362 75.533 0.49725 593.98 0.0016836 74.652 74.752 0.49369 1.4196 2.1967 1236.3 -0.0055589 224.27 0.13601 1.4667 0.68178 471.77 512.11 2.4860 1.1667 1.3782 215.43 0.53535 5.9792 0.010571
-52.625 9.0151 0.0018653 77.587 77.768 0.50737 592.86 0.0016867 76.849 76.954 0.50368 1.4218 2.2007 1229.8 -0.0055237 221.63 0.13541 1.5353 0.65136 472.83 513.32 2.4824 1.1710 1.3834 215.72 0.52882 6.0056 0.010656
-51.625 9.4655 0.0019466 79.818 80.007 0.51746 591.73 0.0016900 79.049 79.159 0.51363 1.4240 2.2048 1223.2 -0.0054880 219.04 0.13482 1.6062 0.62258 473.89 514.52 2.4789 1.1752 1.3886 216.00 0.52241 6.0320 0.010741
-50.625 9.9335 0.0020304 82.053 82.251 0.52753 590.60 0.0016932 81.253 81.369 0.52356 1.4262 2.2089 1216.6 -0.0054519 216.48 0.13422 1.6797 0.59534 474.95 515.73 2.4755 1.1796 1.3938 216.28 0.51612 6.0584 0.010827
-49.625 10.419 0.0021170 84.293 84.501 0.53757 589.47 0.0016964 83.462 83.584 0.53347 1.4285 2.2131 1210.1 -0.0054152 213.98 0.13363 1.7558 0.56954 476.01 516.93 2.4722 1.1839 1.3991 216.55 0.50994 6.0848 0.010913
-48.625 10.924 0.0022062 86.538 86.756 0.54759 588.34 0.0016997 85.674 85.802 0.54334 1.4308 2.2173 1203.5 -0.0053780 211.51 0.13303 1.8345 0.54510 477.07 518.13 2.4689 1.1883 1.4044 216.82 0.50387 6.1112 0.010999
-47.625 11.448 0.0022981 88.787 89.016 0.55759 587.20 0.0017030 87.891 88.025 0.55319 1.4331 2.2216 1196.9 -0.0053403 209.08 0.13244 1.9159 0.52194 478.14 519.33 2.4657 1.1927 1.4098 217.08 0.49792 6.1375 0.011085
-46.625 11.991 0.0023928 91.042 91.282 0.56756 586.06 0.0017063 90.111 90.252 0.56302 1.4354 2.2259 1190.4 -0.0053020 206.69 0.13185 2.0001 0.49997 479.20 520.53 2.4625 1.1971 1.4153 217.33 0.49207 6.1639 0.011172
-45.625 12.554 0.0024903 93.302 93.553 0.57752 584.92 0.0017096 92.336 92.484 0.57282 1.4378 2.2303 1183.8 -0.0052633 204.34 0.13126 2.0872 0.47912 480.27 521.74 2.4594 1.2015 1.4207 217.58 0.48633 6.1902 0.011259
-44.625 13.137 0.0025907 95.567 95.830 0.58745 583.77 0.0017130 94.565 94.720 0.58260 1.4402 2.2347 1177.3 -0.0052240 202.03 0.13067 2.1771 0.45933 481.33 522.94 2.4564 1.2060 1.4263 217.82 0.48069 6.2165 0.011347
-43.625 13.741 0.0026940 97.837 98.112 0.59736 582.62 0.0017164 96.799 96.961 0.59235 1.4426 2.2392 1170.7 -0.0051841 199.75 0.13008 2.2700 0.44053 482.40 524.14 2.4535 1.2104 1.4319 218.05 0.47516 6.2429 0.011435
-42.625 14.367 0.0028003 100.11 100.40 0.60726 581.47 0.0017198 99.036 99.207 0.60208 1.4450 2.2437 1164.2 -0.0051437 197.51 0.12949 2.3659 0.42267 483.46 525.33 2.4506 1.2149 1.4375 218.28 0.46973 6.2692 0.011523
-41.625 15.015 0.0029095 102.39 102.69 0.61713 580.32 0.0017232 101.28 101.46 0.61179 1.4475 2.2483 1157.7 -0.0051027 195.30 0.12891 2.4649 0.40569 484.53 526.53 2.4478 1.2195 1.4432 218.50 0.46440 6.2955 0.011612
-40.625 15.686 0.0030218 104.68 104.99 0.62698 579.16 0.0017266 103.52 103.71 0.62147 1.4500 2.2529 1151.1 -0.0050611 193.13 0.12832 2.5671 0.38954 485.60 527.73 2.4450 1.2240 1.4489 218.72 0.45917 6.3218 0.011701
-39.625 16.380 0.0031372 106.97 107.30 0.63681 578.00 0.0017301 105.78 105.97 0.63113 1.4525 2.2576 1144.6 -0.0050189 190.99 0.12774 2.6725 0.37418 486.67 528.93 2.4423 1.2286 1.4547 218.93 0.45403 6.3481 0.011790
-38.625 17.097 0.0032557 109.27 109.61 0.64663 576.83 0.0017336 108.03 108.24 0.64077 1.4550 2.2623 1138.0 -0.0049761 188.88 0.12716 2.7813 0.35955 487.74 530.12 2.4397 1.2332 1.4606 219.13 0.44900 6.3744 0.011880
-37.625 17.838 0.0033774 111.57 111.93 0.65642 575.66 0.0017371 110.29 110.51 0.65039 1.4576 2.2671 1131.5 -0.0049327 186.81 0.12658 2.8934 0.34562 488.81 531.32 2.4371 1.2378 1.4665 219.33 0.44405 6.4007 0.011970
-36.625 18.604 0.0035023 113.88 114.25 0.66620 574.49 0.0017407 112.56 112.78 0.65999 1.4602 2.2719 1125.0 -0.0048887 184.76 0.12600 3.0089 0.33235 489.88 532.51 2.4346 1.2424 1.4724 219.52 0.43920 6.4270 0.012060
-35.625 19.395 0.0036305 116.19 116.58 0.67596 573.32 0.0017442 114.83 115.06 0.66956 1.4628 2.2768 1118.5 -0.0048440 182.75 0.12542 3.1280 0.31969 490.95 533.70 2.4321 1.2471 1.4784 219.70 0.43444 6.4533 0.012151
-34.625 20.212 0.0037620 118.51 118.91 0.68570 572.14 0.0017478 117.10 117.34 0.67912 1.4654 2.2818 1111.9 -0.0047987 180.76 0.12485 3.2506 0.30763 492.02 534.89 2.4297 1.2517 1.4845 219.88 0.42977 6.4797 0.012243
-33.625 21.056 0.0038968 120.83 121.26 0.69543 570.96 0.0017514 119.38 119.63 0.68865 1.4681 2.2868 1105.4 -0.0047527 178.80 0.12427 3.3770 0.29612 493.09 536.08 2.4273 1.2564 1.4906 220.05 0.42519 6.5060 0.012334
-32.625 21.926 0.0040350 123.16 123.60 0.70514 569.77 0.0017551 121.66 121.93 0.69817 1.4708 2.2918 1098.9 -0.0047061 176.87 0.12370 3.5071 0.28514 494.17 537.27 2.4250 1.2611 1.4968 220.21 0.42070 6.5323 0.012426
-31.625 22.823 0.0041766 125.50 125.96 0.71483 568.58 0.0017588 123.95 124.23 0.70767 1.4735 2.2970 1092.3 -0.0046587 174.97 0.12313 3.6410 0.27465 495.24 538.46 2.4227 1.2659 1.5031 220.36 0.41629 6.5587 0.012519
-30.625 23.749 0.0043218 127.84 128.32 0.72450 567.39 0.0017625 126.24 126.53 0.71714 1.4762 2.3021 1085.8 -0.0046107 173.09 0.12256 3.7787 0.26464 496.31 539.64 2.4205 1.2706 1.5094 220.51 0.41196 6.5850 0.012612
-29.625 24.703 0.0044704 130.19 130.68 0.73416 566.19 0.0017662 128.54 128.84 0.72660 1.4790 2.3074 1079.3 -0.0045619 171.24 0.12200 3.9205 0.25507 497.38 540.83 2.4184 1.2754 1.5157 220.65 0.40772 6.6114 0.012706
-28.625 25.687 0.0046225 132.54 133.06 0.74381 564.99 0.0017699 130.84 131.16 0.73604 1.4818 2.3126 1072.8 -0.0045124 169.42 0.12143 4.0663 0.24592 498.46 542.01 2.4162 1.2802 1.5222 220.79 0.40356 6.6378 0.012800
-27.625 26.700 0.0047783 134.90 135.44 0.75344 563.78 0.0017737 133.15 133.48 0.74547 1.4846 2.3180 1066.2 -0.0044621 167.62 0.12087 4.2163 0.23717 499.53 543.19 2.4142 1.2850 1.5286 220.91 0.39947 6.6642 0.012894
-26.625 27.743 0.0049377 137.27 137.82 0.76305 562.57 0.0017775 135.47 135.81 0.75487 1.4874 2.3234 1059.7 -0.0044111 165.84 0.12031 4.3705 0.22881 500.60 544.37 2.4122 1.2899 1.5352 221.03 0.39547 6.6906 0.012989
-25.625 28.817 0.0051007 139.64 140.22 0.77265 561.36 0.0017814 137.78 138.14 0.76426 1.4902 2.3289 1053.2 -0.0043593 164.09 0.11975 4.5290 0.22080 501.68 545.55 2.4102 1.2947 1.5418 221.14 0.39154 6.7171 0.013084
-24.625 29.923 0.0052675 142.02 142.62 0.78224 560.14 0.0017853 140.11 140.48 0.77363 1.4931 2.3344 1046.7 -0.0043067 162.36 0.11919 4.6918 0.21314 502.75 546.72 2.4083 1.2996 1.5485 221.25 0.38768 6.7436 0.013180
-23.625 31.061 0.0054379 144.40 145.02 0.79181 558.92 0.0017892 142.44 142.82 0.78298 1.4960 2.3400 1040.1 -0.0042533 160.65 0.11863 4.8592 0.20580 503.82 547.90 2.4064 1.3045 1.5552 221.35 0.38391 6.7701 0.013277
-22.625 32.232 0.0056122 146.79 147.44 0.80137 557.69 0.0017931 144.77 145.17 0.79232 1.4990 2.3457 1033.6 -0.0041990 158.97 0.11807 5.0311 0.19877 504.90 549.07 2.4045 1.3095 1.5621 221.44 0.38020 6.7967 0.013374
-21.625 33.435 0.0057903 149.19 149.86 0.81092 556.46 0.0017971 147.11 147.52 0.80164 1.5019 2.3514 1027.1 -0.0041439 157.30 0.11752 5.2076 0.19203 505.97 550.24 2.4027 1.3144 1.5690 221.52 0.37656 6.8232 0.013471
-20.625 34.673 0.0059722 151.59 152.28 0.82045 555.23 0.0018011 149.45 149.88 0.81095 1.5049 2.3572 1020.6 -0.0040879 155.66 0.11697 5.3889 0.18557 507.04 551.40 2.4010 1.3194 1.5759 221.59 0.37300 6.8499 0.013569
-19.625 35.946 0.0061579 154.00 154.72 0.82997 553.99 0.0018051 151.80 152.25 0.82024 1.5079 2.3630 1014.0 -0.0040311 154.04 0.11642 5.5750 0.17937 508.11 552.57 2.3992 1.3244 1.5829 221.66 0.36950 6.8765 0.013668
-18.625 37.253 0.0063476 156.41 157.16 0.83947 552.74 0.0018092 154.16 154.62 0.82952 1.5109 2.3689 1007.5 -0.0039733 152.44 0.11587 5.7660 0.17343 509.19 553.73 2.3976 1.3294 1.5901 221.72 0.36608 6.9032 0.013767
-17.625 38.596 0.0065412 158.83 159.61 0.84897 551.49 0.0018133 156.52 157.00 0.83878 1.5140 2.3749 1001.0 -0.0039145 150.86 0.11532 5.9621 0.16773 510.26 554.89 2.3959 1.3345 1.5972 221.77 0.36272 6.9300 0.013867
-16.625 39.976 0.0067388 161.26 162.06 0.85845 550.24 0.0018174 158.89 159.39 0.84803 1.5171 2.3810 994.44 -0.0038549 149.29 0.11478 6.1632 0.16225 511.33 556.05 2.3943 1.3395 1.6045 221.81 0.35942 6.9568 0.013968
-15.625 41.392 0.0069404 163.70 164.52 0.86792 548.98 0.0018216 161.26 161.78 0.85726 1.5202 2.3871 987.91 -0.0037942 147.75 0.11423 6.3696 0.15700 512.40 557.20 2.3927 1.3446 1.6119 221.85 0.35619 6.9836 0.014069
-14.625 42.846 0.0071460 166.14 166.99 0.87738 547.71 0.0018258 163.64 164.18 0.86649 1.5233 2.3933 981.37 -0.0037325 146.22 0.11369 6.5812 0.15195 513.47 558.36 2.3912 1.3497 1.6193 221.87 0.35302 7.0105 0.014170
-13.625 44.338 0.0073557 168.58 169.47 0.88683 546.44 0.0018300 166.02 166.58 0.87569 1.5264 2.3996 974.83 -0.0036698 144.72 0.11315 6.7983 0.14710 514.54 559.51 2.3897 1.3549 1.6268 221.89 0.34992 7.0375 0.014273
-12.625 45.870 0.0075695 171.04 171.96 0.89627 545.17 0.0018343 168.41 168.99 0.88489 1.5296 2.4059 968.29 -0.0036061 143.23 0.11261 7.0208 0.14243 515.61 560.65 2.3883 1.3600 1.6344 221.90 0.34688 7.0646 0.014376
-11.625 47.440 0.0077873 173.50 174.45 0.90569 543.89 0.0018386 170.81 171.41 0.89407 1.5328 2.4124 961.75 -0.0035413 141.76 0.11208 7.2490 0.13795 516.68 561.80 2.3868 1.3652 1.6421 221.91 0.34389 7.0917 0.014479
-10.625 49.051 0.0080093 175.97 176.95 0.91511 542.60 0.0018430 173.21 173.83 0.90324 1.5360 2.4189 955.20 -0.0034753 140.30 0.11154 7.4829 0.13364 517.75 562.94 2.3854 1.3704 1.6498 221.90 0.34097 7.1188 0.014584
-9.6250 50.703 0.0082355 178.44 179.45 0.92452 541.31 0.0018474 175.61 176.26 0.91240 1.5393 2.4255 948.65 -0.0034082 138.86 0.11101 7.7226 0.12949 518.81 564.08 2.3841 1.3757 1.6577 221.88 0.33810 7.1461 0.014689
-8.6250 52.396 0.0084658 180.92 181.97 0.93391 540.02 0.0018518 178.03 178.70 0.92154 1.5426 2.4321 942.10 -0.0033400 137.44 0.11048 7.9683 0.12550 519.88 565.21 2.3827 1.3809 1.6657 221.86 0.33529 7.1734 0.014795
-7.6250 54.131 0.0087003 183.41 184.49 0.94330 538.72 0.0018563 180.45 181.14 0.93068 1.5459 2.4389 935.55 -0.0032705 136.03 0.10995 8.2200 0.12165 520.94 566.35 2.3814 1.3862 1.6737 221.83 0.33254 7.2008 0.014902
-6.6250 55.909 0.0089391 185.90 187.02 0.95268 537.41 0.0018608 182.87 183.59 0.93980 1.5492 2.4457 928.99 -0.0031998 134.64 0.10942 8.4779 0.11795 522.01 567.48 2.3801 1.3915 1.6819 221.79 0.32984 7.2284 0.015009
-5.6250 57.730 0.0091821 188.41 189.56 0.96205 536.10 0.0018653 185.30 186.05 0.94892 1.5525 2.4526 922.43 -0.0031279 133.27 0.10889 8.7420 0.11439 523.07 568.60 2.3789 1.3969 1.6902 221.74 0.32720 7.2560 0.015117
-4.6250 59.595 0.0094293 190.91 192.11 0.97141 534.78 0.0018699 187.74 188.51 0.95802 1.5559 2.4596 915.87 -0.0030546 131.91 0.10837 9.0126 0.11096 524.13 569.72 2.3777 1.4022 1.6985 221.68 0.32461 7.2837 0.015226
-3.6250 61.505 0.0096808 193.43 194.66 0.98076 533.45 0.0018746 190.19 190.98 0.96711 1.5593 2.4667 909.30 -0.0029800 130.56 0.10785 9.2896 0.10765 525.19 570.84 2.3765 1.4076 1.7070 221.62 0.32207 7.3115 0.015336
-2.6250 63.461 0.0099366 195.95 197.22 0.99010 532.12 0.0018793 192.64 193.46 0.97620 1.5627 2.4739 902.73 -0.0029041 129.23 0.10733 9.5733 0.10446 526.25 571.96 2.3753 1.4131 1.7156 221.54 0.31958 7.3394 0.015447
-1.6250 65.462 0.010197 198.48 199.79 0.99944 530.78 0.0018840 195.10 195.95 0.98527 1.5662 2.4811 896.16 -0.0028267 127.91 0.10681 9.8638 0.10138 527.31 573.07 2.3742 1.4185 1.7243 221.45 0.31715 7.3674 0.015559
-0.62500 67.510 0.010461 201.02 202.37 1.0088 529.44 0.0018888 197.56 198.44 0.99434 1.5696 2.4885 889.58 -0.0027478 126.61 0.10629 10.161 0.098414 528.37 574.18 2.3731 1.4240 1.7331 221.36 0.31476 7.3956 0.015671
0.37500 69.606 0.010730 203.56 204.95 1.0181 528.09 0.0018936 200.03 200.94 1.0034 1.5731 2.4960 883.00 -0.0026675 125.32 0.10578 10.466 0.095552 529.42 575.28 2.3720 1.4295 1.7421 221.26 0.31242 7.4239 0.015785
1.3750 71.749 0.011003 206.12 207.55 1.0274 526.73 0.0018985 202.51 203.45 1.0124 1.5767 2.5035 876.42 -0.0025856 124.04 0.10527 10.777 0.092790 530.48 576.38 2.3709 1.4350 1.7512 221.14 0.31013 7.4523 0.015899
2.3750 73.941 0.011280 208.67 210.15 1.0367 525.37 0.0019034 204.99 205.96 1.0215 1.5802 2.5112 869.83 -0.0025022 122.78 0.10476 11.096 0.090123 531.53 577.47 2.3699 1.4406 1.7604 221.02 0.30789 7.4808 0.016015
3.3750 76.183 0.011562 211.24 212.76 1.0460 523.99 0.0019084 207.48 208.48 1.0305 1.5838 2.5190 863.24 -0.0024171 121.53 0.10425 11.422 0.087549 532.58 578.56 2.3688 1.4462 1.7697 220.89 0.30569 7.5095 0.016131
4.3750 78.475 0.011847 213.81 215.38 1.0553 522.62 0.0019134 209.98 211.01 1.0395 1.5874 2.5268 856.64 -0.0023303 120.29 0.10374 11.756 0.085062 533.63 579.65 2.3678 1.4518 1.7792 220.75 0.30354 7.5384 0.016249
5.3750 80.817 0.012138 216.39 218.01 1.0646 521.23 0.0019185 212.48 213.55 1.0486 1.5910 2.5348 850.04 -0.0022417 119.06 0.10324 12.098 0.082660 534.67 580.73 2.3669 1.4575 1.7888 220.60 0.30144 7.5674 0.016368
6.3750 83.211 0.012432 218.98 220.65 1.0738 519.84 0.0019237 215.00 216.10 1.0576 1.5946 2.5429 843.43 -0.0021514 117.85 0.10273 12.447 0.080340 535.72 581.81 2.3659 1.4632 1.7986 220.44 0.29938 7.5966 0.016487
7.3750 85.657 0.012731 221.58 223.29 1.0831 518.44 0.0019289 217.51 218.65 1.0666 1.5983 2.5511 836.82 -0.0020593 116.65 0.10223 12.805 0.078096 536.76 582.88 2.3650 1.4689 1.8085 220.27 0.29736 7.6259 0.016608
8.3750 88.156 0.013034 224.18 225.94 1.0924 517.03 0.0019341 220.04 221.22 1.0756 1.6020 2.5595 830.20 -0.0019652 115.46 0.10173 13.170 0.075928 537.80 583.95 2.3640 1.4746 1.8186 220.08 0.29538 7.6555 0.016730
9.3750 90.708 0.013341 226.79 228.61 1.1016 515.62 0.0019394 222.57 223.79 1.0846 1.6057 2.5679 823.58 -0.0018691 114.28 0.10124 13.545 0.073830 538.84 585.01 2.3631 1.4804 1.8288 219.89 0.29345 7.6852 0.016853
10.375 93.315 0.013653 229.41 231.28 1.1109 514.19 0.0019448 225.11 226.37 1.0936 1.6095 2.5765 816.96 -0.0017710 113.11 0.10074 13.927 0.071802 539.87 586.07 2.3622 1.4863 1.8392 219.69 0.29156 7.7151 0.016978
11.375 95.977 0.013969 232.04 233.96 1.1201 512.76 0.0019502 227.66 228.95 1.1025 1.6132 2.5852 810.32 -0.0016708 111.95 0.10025 14.319 0.069840 540.90 587.12 2.3614 1.4921 1.8498 219.48 0.28971 7.7452 0.017103
12.375 98.694 0.014289 234.67 236.64 1.1294 511.32 0.0019557 230.22 231.55 1.1115 1.6170 2.5940 803.68 -0.0015685 110.80 0.099756 14.719 0.067941 541.93 588.17 2.3605 1.4980 1.8605 219.26 0.28790 7.7756 0.017230
13.375 101.47 0.014613 237.31 239.34 1.1386 509.87 0.0019613 232.78 234.15 1.1205 1.6208 2.6030 797.04 -0.0014639 109.67 0.099267 15.128 0.066103 542.96 589.21 2.3597 1.5040 1.8715 219.03 0.28612 7.8061 0.017359
14.375 104.30 0.014941 239.96 242.05 1.1478 508.42 0.0019669 235.35 236.77 1.1295 1.6247 2.6121 790.39 -0.0013569 108.54 0.098779 15.547 0.064323 543.99 590.24 2.3588 1.5099 1.8826 218.79 0.28439 7.8369 0.017488
15.375 107.19 0.015273 242.62 244.76 1.1571 506.95 0.0019726 237.93 239.39 1.1384 1.6286 2.6214 783.73 -0.0012476 107.43 0.098294 15.974 0.062600 545.01 591.27 2.3580 1.5159 1.8940 218.53 0.28270 7.8680 0.017619
16.375 110.13 0.015610 245.29 247.49 1.1663 505.48 0.0019783 240.52 242.02 1.1474 1.6324 2.6308 777.07 -0.0011357 106.32 0.097810 16.412 0.060931 546.03 592.29 2.3572 1.5220 1.9055 218.27 0.28104 7.8993 0.017752
17.375 113.14 0.015950 247.96 250.22 1.1755 504.00 0.0019841 243.11 244.66 1.1564 1.6364 2.6403 770.40 -0.0010213 105.22 0.097328 16.859 0.059314 547.04 593.31 2.3564 1.5281 1.9172 217.99 0.27942 7.9308 0.017886
18.375 116.21 0.016294 250.64 252.96 1.1847 502.50 0.0019900 245.72 247.31 1.1653 1.6403 2.6501 763.72 -0.00090422 104.14 0.096848 17.317 0.057747 548.05 594.32 2.3557 1.5342 1.9292 217.71 0.27783 7.9626 0.018021
19.375 119.33 0.016642 253.33 255.72 1.1939 501.00 0.0019960 248.33 249.97 1.1743 1.6443 2.6599 757.04 -0.00078435 103.06 0.096371 17.785 0.056228 549.06 595.33 2.3549 1.5404 1.9414 217.41 0.27628 7.9947 0.018159
20.375 122.52 0.016994 256.03 258.48 1.2031 499.49 0.0020020 250.95 252.64 1.1832 1.6483 2.6700 750.35 -0.00066161 101.99 0.095895 18.263 0.054756 550.07 596.32 2.3541 1.5466 1.9538 217.10 0.27477 8.0272 0.018297
21.375 125.77 0.017350 258.74 261.25 1.2123 497.97 0.0020082 253.57 255.32 1.1922 1.6523 2.6802 743.64 -0.00053589 100.93 0.095420 18.752 0.053328 551.07 597.31 2.3534 1.5528 1.9665 216.78 0.27329 8.0599 0.018438
22.375 129.08 0.017709 261.45 264.03 1.2215 496.43 0.0020144 256.21 258.00 1.2012 1.6563 2.6906 736.94 -0.00040708 99.877 0.094948 19.252 0.051943 552.07 598.30 2.3526 1.5591 1.9795 216.45 0.27184 8.0929 0.018580
23.375 132.46 0.018072 264.17 266.82 1.2307 494.89 0.0020206 258.86 260.70 1.2101 1.6604 2.7012 730.22 -0.00027505 98.834 0.094478 19.763 0.050600 553.06 599.27 2.3519 1.5655 1.9927 216.11 0.27043 8.1263 0.018724
24.375 135.90 0.018438 266.90 269.62 1.2399 493.34 0.0020270 261.51 263.41 1.2191 1.6645 2.7120 723.49 -0.00013968 97.800 0.094009 20.285 0.049297 554.05 600.24 2.3512 1.5718 2.0061 215.75 0.26906 8.1600 0.018870
25.375 139.41 0.018807 269.64 272.43 1.2491 491.77 0.0020335 264.17 266.13 1.2280 1.6686 2.7230 716.76 -8.3775e-07 96.773 0.093543 20.820 0.048032 555.03 601.20 2.3504 1.5783 2.0199 215.39 0.26771 8.1941 0.019017
26.375 142.98 0.019180 272.39 275.25 1.2583 490.20 0.0020400 266.84 268.85 1.2370 1.6728 2.7342 710.01 0.00014161 95.755 0.093078 21.366 0.046804 556.01 602.15 2.3497 1.5847 2.0340 215.01 0.26640 8.2286 0.019167
27.375 146.62 0.019556 275.15 278.08 1.2675 488.61 0.0020466 269.52 271.59 1.2459 1.6770 2.7456 703.26 0.00028782 94.745 0.092615 21.924 0.045612 556.99 603.10 2.3490 1.5913 2.0484 214.62 0.26512 8.2634 0.019319
28.375 150.33 0.019934 277.91 280.91 1.2767 487.01 0.0020533 272.21 274.34 1.2549 1.6812 2.7573 696.49 0.00043793 93.742 0.092154 22.495 0.044454 557.96 604.03 2.3483 1.5978 2.0631 214.21 0.26387 8.2987 0.019472
29.375 154.10 0.020316 280.68 283.76 1.2859 485.40 0.0020601 274.91 277.10 1.2638 1.6854 2.7691 689.72 0.00059212 92.747 0.091695 23.079 0.043329 558.92 604.96 2.3476 1.6044 2.0781 213.80 0.26265 8.3344 0.019628
30.375 157.94 0.020700 283.47 286.62 1.2950 483.78 0.0020671 277.62 279.87 1.2728 1.6897 2.7813 682.93 0.00075055 91.760 0.091238 23.676 0.042237 559.88 605.88 2.3469 1.6111 2.0935 213.37 0.26147 8.3705 0.019786
31.375 161.86 0.021086 286.26 289.49 1.3042 482.15 0.0020741 280.34 282.66 1.2818 1.6939 2.7936 676.13 0.00091340 90.779 0.090782 24.287 0.041175 560.84 606.79 2.3462 1.6178 2.1092 212.93 0.26031 8.4071 0.019947
32.375 165.84 0.021475 289.06 292.37 1.3134 480.50 0.0020812 283.07 285.45 1.2908 1.6983 2.8063 669.32 0.0010809 89.806 0.090328 24.911 0.040143 561.79 607.69 2.3455 1.6246 2.1254 212.48 0.25919 8.4442 0.020110
33.375 169.90 0.021865 291.86 295.26 1.3226 478.83 0.0020884 285.81 288.26 1.2997 1.7026 2.8192 662.50 0.0012532 88.840 0.089876 25.549 0.039140 562.73 608.58 2.3448 1.6314 2.1419 212.01 0.25809 8.4818 0.020275
34.375 174.02 0.022258 294.68 298.16 1.3318 477.16 0.0020957 288.56 291.07 1.3087 1.7070 2.8324 655.67 0.0014305 87.880 0.089426 26.202 0.038164 563.67 609.46 2.3440 1.6383 2.1589 211.53 0.25702 8.5199 0.020443
35.375 178.22 0.022652 297.51 301.07 1.3409 475.47 0.0021032 291.32 293.90 1.3177 1.7114 2.8459 648.82 0.0016131 86.927 0.088977 26.870 0.037216 564.60 610.33 2.3433 1.6452 2.1763 211.04 0.25599 8.5586 0.020613
36.375 182.50 0.023047 300.34 303.99 1.3501 473.77 0.0021107 294.09 296.74 1.3267 1.7158 2.8597 641.96 0.0018012 85.980 0.088531 27.553 0.036293 565.52 611.19 2.3426 1.6522 2.1942 210.53 0.25498 8.5978 0.020786
37.375 186.84 0.023443 303.19 306.92 1.3593 472.05 0.0021184 296.87 299.60 1.3357 1.7203 2.8739 635.08 0.0019950 85.040 0.088085 28.252 0.035395 566.44 612.04 2.3419 1.6592 2.2125 210.01 0.25400 8.6376 0.020962
38.375 191.27 0.023840 306.04 309.86 1.3685 470.31 0.0021262 299.66 302.46 1.3447 1.7248 2.8884 628.19 0.0021949 84.105 0.087642 28.967 0.034522 567.35 612.88 2.3411 1.6663 2.2314 209.47 0.25305 8.6780 0.021141
39.375 195.77 0.024237 308.90 312.82 1.3776 468.56 0.0021342 302.46 305.34 1.3537 1.7293 2.9033 621.29 0.0024011 83.177 0.087200 29.699 0.033671 568.26 613.70 2.3404 1.6734 2.2508 208.92 0.25213 8.7190 0.021323
40.375 200.34 0.024634 311.78 315.78 1.3868 466.80 0.0021423 305.27 308.23 1.3627 1.7339 2.9185 614.37 0.0026140 82.254 0.086760 30.447 0.032844 569.15 614.52 2.3396 1.6806 2.2708 208.36 0.25123 8.7608 0.021508
41.375 205.00 0.025030 314.66 318.75 1.3960 465.01 0.0021505 308.10 311.14 1.3718 1.7385 2.9342 607.43 0.0028338 81.338 0.086322 31.214 0.032037 570.04 615.32 2.3389 1.6879 2.2913 207.78 0.25037 8.8032 0.021696
42.375 209.73 0.025426 317.55 321.74 1.4052 463.21 0.0021588 310.94 314.06 1.3808 1.7432 2.9502 600.47 0.0030609 80.426 0.085885 31.998 0.031252 570.92 616.11 2.3381 1.6952 2.3125 207.19 0.24953 8.8463 0.021888
43.375 214.54 0.025820 320.45 324.74 1.4143 461.40 0.0021673 313.79 316.99 1.3899 1.7478 2.9667 593.50 0.0032957 79.520 0.085449 32.800 0.030488 571.79 616.88 2.3373 1.7027 2.3344 206.58 0.24871 8.8902 0.022084
44.375 219.43 0.026212 323.36 327.74 1.4235 459.56 0.0021760 316.65 319.94 1.3989 1.7525 2.9837 586.51 0.0035386 78.619 0.085015 33.622 0.029742 572.65 617.65 2.3365 1.7101 2.3569 205.96 0.24793 8.9349 0.022283
45.375 224.41 0.026601 326.28 330.76 1.4327 457.71 0.0021848 319.52 322.90 1.4080 1.7573 3.0012 579.50 0.0037900 77.723 0.084583 34.463 0.029016 573.50 618.40 2.3357 1.7177 2.3802 205.32 0.24717 8.9805 0.022485
46.375 229.46 0.026987 329.21 333.79 1.4419 455.83 0.0021938 322.41 325.88 1.4171 1.7621 3.0192 572.46 0.0040504 76.832 0.084152 35.325 0.028308 574.34 619.13 2.3349 1.7253 2.4042 204.67 0.24644 9.0269 0.022692
47.375 234.60 0.027370 332.15 336.84 1.4511 453.94 0.0022029 325.31 328.87 1.4262 1.7669 3.0377 565.41 0.0043202 75.946 0.083723 36.208 0.027618 575.17 619.85 2.3340 1.7329 2.4291 204.00 0.24573 9.0742 0.022903
48.375 239.83 0.027748 335.10 339.89 1.4603 452.03 0.0022123 328.22 331.88 1.4353 1.7718 3.0569 558.34 0.0046000 75.064 0.083295 37.112 0.026945 576.00 620.55 2.3332 1.7407 2.4548 203.31 0.24505 9.1224 0.023119
49.375 245.13 0.028120 338.06 342.95 1.4694 450.09 0.0022218 331.15 334.90 1.4445 1.7767 3.0766 551.24 0.0048904 74.186 0.082868 38.039 0.026289 576.81 621.24 2.3323 1.7485 2.4815 202.61 0.24440 9.1716 0.023339
50.375 250.53 0.028486 341.03 346.03 1.4786 448.13 0.0022315 334.09 337.94 1.4536 1.7817 3.0970 544.13 0.0051920 73.313 0.082442 38.989 0.025648 577.61 621.91 2.3314 1.7564 2.5092 201.89 0.24377 9.2219 0.023564
51.375 256.01 0.028845 344.01 349.12 1.4878 446.15 0.0022414 337.04 341.00 1.4628 1.7867 3.1181 536.98 0.0055054 72.443 0.082018 39.962 0.025024 578.39 622.56 2.3304 1.7644 2.5379 201.16 0.24317 9.2733 0.023794
52.375 261.57 0.029196 347.00 352.22 1.4970 444.15 0.0022515 340.01 344.07 1.4720 1.7918 3.1400 529.82 0.0058313 71.577 0.081595 40.961 0.024414 579.17 623.20 2.3295 1.7724 2.5677 200.41 0.24260 9.3258 0.024029
53.375 267.23 0.029537 350.00 355.34 1.5062 442.12 0.0022618 343.00 347.17 1.4812 1.7969 3.1627 522.62 0.0061705 70.715 0.081174 41.985 0.023818 579.93 623.81 2.3285 1.7805 2.5987 199.63 0.24205 9.3795 0.024270
54.375 272.97 0.029867 353.01 358.46 1.5154 440.06 0.0022724 346.00 350.28 1.4904 1.8021 3.1862 515.40 0.0065239 69.856 0.080753 43.036 0.023237 580.68 624.41 2.3274 1.7887 2.6310 198.85 0.24154 9.4344 0.024516
55.375 278.81 0.030185 356.03 361.60 1.5247 437.98 0.0022832 349.02 353.40 1.4997 1.8073 3.2106 508.15 0.0068923 69.001 0.080334 44.114 0.022669 581.41 624.99 2.3264 1.7969 2.6646 198.04 0.24105 9.4907 0.024769
56.375 284.74 0.030490 359.06 364.75 1.5339 435.87 0.0022943 352.05 356.55 1.5090 1.8126 3.2360 500.87 0.0072767 68.148 0.079915 45.221 0.022114 582.13 625.54 2.3253 1.8052 2.6998 197.22 0.24059 9.5484 0.025028
57.375 290.76 0.030779 362.11 367.92 1.5431 433.73 0.0023056 355.10 359.72 1.5183 1.8179 3.2624 493.56 0.0076782 67.299 0.079498 46.358 0.021571 582.83 626.07 2.3241 1.8136 2.7365 196.37 0.24016 9.6075 0.025294
58.375 296.87 0.031051 365.16 371.10 1.5523 431.56 0.0023172 358.17 362.91 1.5276 1.8233 3.2900 486.22 0.0080980 66.451 0.079082 47.525 0.021041 583.52 626.58 2.3230 1.8220 2.7749 195.51 0.23976 9.6682 0.025568
59.375 303.08 0.031303 368.23 374.29 1.5616 429.36 0.0023290 361.25 366.12 1.5370 1.8288 3.3188 478.84 0.0085373 65.606 0.078666 48.726 0.020523 584.18 627.07 2.3218 1.8305 2.8152 194.63 0.23939 9.7305 0.025849
60.375 309.38 0.031534 371.31 377.49 1.5708 427.13 0.0023412 364.36 369.35 1.5464 1.8343 3.3489 471.43 0.0089976 64.763 0.078251 49.960 0.020016 584.83 627.53 2.3205 1.8391 2.8576 193.73 0.23905 9.7945 0.026138
61.375 315.78 0.031740 374.40 380.71 1.5801 424.87 0.0023537 367.48 372.60 1.5558 1.8400 3.3805 463.99 0.0094803 63.922 0.077838 51.229 0.019520 585.46 627.96 2.3192 1.8479 2.9022 192.82 0.23873 9.8603 0.026436
62.375 322.28 0.031919 377.50 383.94 1.5893 422.56 0.0023665 370.62 375.88 1.5653 1.8457 3.4136 456.50 0.0099871 63.083 0.077425 52.535 0.019035 586.07 628.37 2.3178 1.8567 2.9492 191.88 0.23845 9.9281 0.026744
63.375 328.88 0.032068 380.61 387.19 1.5986 420.22 0.0023797 373.79 379.18 1.5748 1.8514 3.4483 448.97 0.010520 62.244 0.077012 53.879 0.018560 586.66 628.74 2.3164 1.8656 2.9989 190.92 0.23819 9.9979 0.027061
64.375 335.58 0.032183 383.74 390.45 1.6079 417.85 0.0023932 376.97 382.51 1.5844 1.8573 3.4850 441.40 0.011081 61.407 0.076600 55.265 0.018095 587.22 629.09 2.3149 1.8747 3.0517 189.95 0.23796 10.070 0.027389
65.375 342.38 0.032260 386.88 393.72 1.6171 415.42 0.0024072 380.18 385.86 1.5939 1.8633 3.5236 433.79 0.011672 60.570 0.076189 56.692 0.017639 587.76 629.40 2.3133 1.8839 3.1077 188.95 0.23775 10.144 0.027729
66.375 349.28 0.032294 390.03 397.01 1.6264 412.96 0.0024215 383.41 389.25 1.6036 1.8693 3.5645 426.12 0.012296 59.733 0.075779 58.165 0.017193 588.28 629.68 2.3117 1.8933 3.1674 187.93 0.23757 10.221 0.028080
67.375 356.28 0.032280 393.19 400.31 1.6357 410.45 0.0024363 386.67 392.65 1.6133 1.8755 3.6078 418.41 0.012956 58.897 0.075368 59.684 0.016755 588.76 629.92 2.3100 1.9030 3.2311 186.89 0.23740 10.300 0.028446
68.375 363.40 0.032213 396.37 403.63 1.6451 407.89 0.0024516 389.95 396.09 1.6230 1.8818 3.6537 410.64 0.013655 58.059 0.074959 61.253 0.016326 589.22 630.13 2.3082 1.9129 3.2994 185.83 0.23724 10.382 0.028825
69.375 370.61 0.032085 399.56 406.97 1.6544 405.28 0.0024674 393.26 399.57 1.6328 1.8882 3.7027 402.81 0.014396 57.221 0.074549 62.875 0.015905 589.65 630.29 2.3064 1.9231 3.3727 184.74 0.23710 10.467 0.029221
70.375 377.94 0.031889 402.77 410.32 1.6637 402.62 0.0024838 396.60 403.07 1.6426 1.8947 3.7550 394.92 0.015183 56.381 0.074141 64.552 0.015491 590.04 630.41 2.3044 1.9336 3.4518 183.63 0.23697 10.555 0.029633
71.375 385.37 0.031616 405.99 413.69 1.6731 399.89 0.0025007 399.96 406.61 1.6525 1.9014 3.8109 386.97 0.016021 55.540 0.073732 66.288 0.015086 590.40 630.49 2.3024 1.9444 3.5371 182.50 0.23684 10.647 0.030064
72.375 392.92 0.031256 409.22 417.07 1.6825 397.11 0.0025182 403.36 410.18 1.6625 1.9083 3.8711 378.95 0.016915 54.696 0.073324 68.087 0.014687 590.73 630.51 2.3002 1.9556 3.6297 181.34 0.23671 10.743 0.030515
73.375 400.57 0.030797 412.47 420.47 1.6919 394.26 0.0025364 406.79 413.80 1.6726 1.9153 3.9359 370.85 0.017871 53.848 0.072917 69.953 0.014295 591.01 630.49 2.2979 1.9673 3.7303 180.16 0.23658 10.842 0.030989
74.375 408.34 0.030226 415.73 423.89 1.7013 391.34 0.0025553 410.26 417.45 1.6827 1.9226 4.0060 362.67 0.018894 52.997 0.072510 71.890 0.013910 591.25 630.41 2.2955 1.9793 3.8401 178.95 0.23643 10.946 0.031488
75.375 416.23 0.029525 419.01 427.33 1.7107 388.34 0.0025751 413.76 421.15 1.6930 1.9301 4.0822 354.41 0.019993 52.142 0.072104 73.904 0.013531 591.44 630.27 2.2930 1.9919 3.9604 177.71 0.23627 11.054 0.032014
76.375 424.23 0.028677 422.30 430.78 1.7201 385.26 0.0025957 417.31 424.90 1.7033 1.9378 4.1654 346.06 0.021177 51.281 0.071699 76.001 0.013158 591.59 630.07 2.2903 2.0050 4.0927 176.44 0.23609 11.168 0.032570
77.375 432.35 0.027659 425.62 434.26 1.7296 382.09 0.0026172 420.89 428.70 1.7137 1.9459 4.2565 337.60 0.022455 50.414 0.071295 78.187 0.012790 591.68 629.80 2.2874 2.0186 4.2389 175.15 0.23588 11.287 0.033161
78.375 440.59 0.026444 428.95 437.75 1.7391 378.83 0.0026397 424.53 432.54 1.7243 1.9543 4.3570 329.05 0.023838 49.539 0.070893 80.469 0.012427 591.71 629.46 2.2844 2.0328 4.4012 173.82 0.23563 11.412 0.033789
79.375 448.95 0.024998 432.29 441.27 1.7486 375.46 0.0026634 428.21 436.45 1.7349 1.9631 4.4684 320.38 0.025341 48.657 0.070494 82.856 0.012069 591.68 629.04 2.2812 2.0475 4.5824 172.46 0.23535 11.544 0.034461
80.375 457.44 0.023283 435.66 444.80 1.7581 371.97 0.0026884 431.94 440.42 1.7457 1.9723 4.5928 311.58 0.026980 47.764 0.070099 85.359 0.011715 591.58 628.53 2.2778 2.0630 4.7859 171.07 0.23501 11.684 0.035181
81.375 466.05 0.021249 439.05 448.36 1.7677 368.36 0.0027147 435.74 444.46 1.7567 1.9820 4.7327 302.66 0.028773 46.860 0.069708 87.988 0.011365 591.40 627.92 2.2742 2.0791 5.0161 169.64 0.23461 11.832 0.035957
82.375 474.79 0.018835 442.45 451.94 1.7773 364.61 0.0027427 439.60 448.58 1.7678 1.9924 4.8914 293.60 0.030744 45.942 0.069323 90.757 0.011018 591.14 627.21 2.2703 2.0959 5.2786 168.17 0.23413 11.989 0.036797
83.375 483.66 0.015965 445.88 455.55 1.7869 360.70 0.0027724 443.53 452.78 1.7791 2.0034 5.0731 284.38 0.032920 45.010 0.068948 93.681 0.010674 590.79 626.38 2.2661 2.1136 5.5807 166.67 0.23357 12.157 0.037711
84.375 492.67 0.012540 449.34 459.18 1.7966 356.61 0.0028041 447.54 457.07 1.7907 2.0153 5.2834 275.00 0.035335 44.059 0.068586 96.781 0.010333 590.33 625.42 2.2616 2.1321 5.9321 165.13 0.23290 12.338 0.038713
85.375 501.81 0.0084301 452.81 462.84 1.8063 352.33 0.0028382 451.65 461.47 1.8025 2.0281 5.5302 265.44 0.038030 43.088 0.068241 100.08 0.0099920 589.74 624.31 2.2567 2.1517 6.3459 163.54 0.23209 12.532 0.039819
86.375 511.09 0.0034648 456.31 466.53 1.8160 347.82 0.0028751 455.85 465.98 1.8145 2.0420 5.8240 255.69 0.041058 42.092 0.067923 103.61 0.0096520 589.03 623.04 2.2514 2.1723 6.8405 161.91 0.23112 12.743 0.041051
87.375 526.47 undefined 459.24 469.77 1.8242 345.00 0.0028986 459.24 469.77 1.8242 2.0499 5.9387 251.67 0.042450 41.494 0.067714 345.00 0.0028986 459.24 469.77 1.8242 2.0499 5.9387 251.67 0.042450 41.494 0.067714
88.375 550.86 undefined 461.29 472.30 1.8299 345.00 0.0028986 461.29 472.30 1.8299 2.0472 5.7392 256.25 0.041048 41.522 0.067646 345.00 0.0028986 461.29 472.30 1.8299 2.0472 5.7392 256.25 0.041048 41.522 0.067646
89.375 575.41 undefined 463.34 474.84 1.8355 345.00 0.0028986 463.34 474.84 1.8355 2.0449 5.5655 260.61 0.039760 41.549 0.067597 345.00 0.0028986 463.34 474.84 1.8355 2.0449 5.5655 260.61 0.039760 41.549 0.067597
90.375 600.12 undefined 465.38 477.38 1.8411 345.00 0.0028986 465.38 477.38 1.8411 2.0430 5.4122 264.79 0.038568 41.576 0.067565 345.00 0.0028986 465.38 477.38 1.8411 2.0430 5.4122 264.79 0.038568 41.576 0.067565
91.375 624.97 undefined 467.43 479.92 1.8467 345.00 0.0028986 467.43 479.92 1.8467 2.0414 5.2758 268.81 0.037459 41.603 0.067547 345.00 0.0028986 467.43 479.92 1.8467 2.0414 5.2758 268.81 0.037459 41.603 0.067547
92.375 649.96 undefined 469.47 482.46 1.8523 345.00 0.0028986 469.47 482.46 1.8523 2.0402 5.1532 272.66 0.036423 41.630 0.067540 345.00 0.0028986 469.47 482.46 1.8523 2.0402 5.1532 272.66 0.036423 41.630 0.067540
93.375 675.08 undefined 471.51 485.00 1.8579 345.00 0.0028986 471.51 485.00 1.8579 2.0393 5.0422 276.38 0.035449 41.658 0.067543 345.00 0.0028986 471.51 485.00 1.8579 2.0393 5.0422 276.38 0.035449 41.658 0.067543
94.375 700.31 undefined 473.54 487.54 1.8635 345.00 0.0028986 473.54 487.54 1.8635 2.0388 4.9412 279.97 0.034531 41.686 0.067554 345.00 0.0028986 473.54 487.54 1.8635 2.0388 4.9412 279.97 0.034531 41.686 0.067554
95.375 725.65 undefined 475.58 490.09 1.8690 345.00 0.0028986 475.58 490.09 1.8690 2.0385 4.8488 283.44 0.033662 41.714 0.067572 345.00 0.0028986 475.58 490.09 1.8690 2.0385 4.8488 283.44 0.033662 41.714 0.067572
96.375 751.10 undefined 477.62 492.63 1.8745 345.00 0.0028986 477.62 492.63 1.8745 2.0386 4.7637 286.81 0.032837 41.745 0.067597 345.00 0.0028986 477.62 492.63 1.8745 2.0386 4.7637 286.81 0.032837 41.745 0.067597
97.375 776.64 undefined 479.66 495.18 1.8800 345.00 0.0028986 479.66 495.18 1.8800 2.0389 4.6852 290.08 0.032052 41.770 0.067627 345.00 0.0028986 479.66 495.18 1.8800 2.0389 4.6852 290.08 0.032052 41.770 0.067627
98.375 802.27 undefined 481.70 497.73 1.8855 345.00 0.0028986 481.70 497.73 1.8855 2.0394 4.6124 293.27 0.031303 41.795 0.067663 345.00 0.0028986 481.70 497.73 1.8855 2.0394 4.6124 293.27 0.031303 41.795 0.067663
99.375 827.99 undefined 483.74 500.29 1.8910 345.00 0.0028986 483.74 500.29 1.8910 2.0402 4.5447 296.37 0.030587 41.820 0.067703 345.00 0.0028986 483.74 500.29 1.8910 2.0402 4.5447 296.37 0.030587 41.820 0.067703
100.38 853.80 undefined 485.78 502.84 1.8965 345.00 0.0028986 485.78 502.84 1.8965 2.0412 4.4816 299.40 0.029901 41.846 0.067747 345.00 0.0028986 485.78 502.84 1.8965 2.0412 4.4816 299.40 0.029901 41.846 0.067747
101.38 879.68 undefined 487.82 505.40 1.9019 345.00 0.0028986 487.82 505.40 1.9019 2.0423 4.4226 302.37 0.029243 41.873 0.067795 345.00 0.0028986 487.82 505.40 1.9019 2.0423 4.4226 302.37 0.029243 41.873 0.067795
102.38 905.64 undefined 489.86 507.96 1.9074 345.00 0.0028986 489.86 507.96 1.9074 2.0436 4.3674 305.27 0.028610 41.900 0.067846 345.00 0.0028986 489.86 507.96 1.9074 2.0436 4.3674 305.27 0.028610 41.900 0.067846
103.38 931.66 undefined 491.91 510.53 1.9128 345.00 0.0028986 491.91 510.53 1.9128 2.0451 4.3155 308.11 0.028001 41.926 0.067901 345.00 0.0028986 491.91 510.53 1.9128 2.0451 4.3155 308.11 0.028001 41.926 0.067901
104.38 957.76 undefined 493.96 513.10 1.9183 345.00 0.0028986 493.96 513.10 1.9183 2.0467 4.2667 310.90 0.027415 41.953 0.067958 345.00 0.0028986 493.96 513.10 1.9183 2.0467 4.2667 310.90 0.027415 41.953 0.067958
105.38 983.92 undefined 496.00 515.67 1.9237 345.00 0.0028986 496.00 515.67 1.9237 2.0484 4.2207 313.64 0.026849 41.980 0.068017 345.00 0.0028986 496.00 515.67 1.9237 2.0484 4.2207 313.64 0.026849 41.980 0.068017
106.38 1010.1 undefined 498.05 518.24 1.9291 345.00 0.0028986 498.05 518.24 1.9291 2.0502 4.1773 316.33 0.026303 42.007 0.068080 345.00 0.0028986 498.05 518.24 1.9291 2.0502 4.1773 316.33 0.026303 42.007 0.068080
107.38 1036.4 undefined 500.10 520.82 1.9345 345.00 0.0028986 500.10 520.82 1.9345 2.0521 4.1363 318.97 0.025775 42.034 0.068144 345.00 0.0028986 500.10 520.82 1.9345 2.0521 4.1363 318.97 0.025775 42.034 0.068144
108.38 1062.8 undefined 502.16 523.40 1.9399 345.00 0.0028986 502.16 523.40 1.9399 2.0542 4.0974 321.57 0.025264 42.060 0.068211 345.00 0.0028986 502.16 523.40 1.9399 2.0542 4.0974 321.57 0.025264 42.060 0.068211
109.38 1089.2 undefined 504.21 525.98 1.9452 345.00 0.0028986 504.21 525.98 1.9452 2.0563 4.0606 324.14 0.024770 42.087 0.068279 345.00 0.0028986 504.21 525.98 1.9452 2.0563 4.0606 324.14 0.024770 42.087 0.068279
110.38 1115.6 undefined 506.27 528.56 1.9506 345.00 0.0028986 506.27 528.56 1.9506 2.0585 4.0256 326.66 0.024291 42.114 0.068350 345.00 0.0028986 506.27 528.56 1.9506 2.0585 4.0256 326.66 0.024291 42.114 0.068350
111.38 1142.1 undefined 508.33 531.15 1.9560 345.00 0.0028986 508.33 531.15 1.9560 2.0608 3.9924 329.14 0.023827 42.141 0.068422 345.00 0.0028986 508.33 531.15 1.9560 2.0608 3.9924 329.14 0.023827 42.141 0.068422
112.38 1168.6 undefined 510.39 533.75 1.9613 345.00 0.0028986 510.39 533.75 1.9613 2.0632 3.9608 331.60 0.023376 42.168 0.068495 345.00 0.0028986 510.39 533.75 1.9613 2.0632 3.9608 331.60 0.023376 42.168 0.068495
113.38 1195.2 undefined 512.45 536.34 1.9667 345.00 0.0028986 512.45 536.34 1.9667 2.0656 3.9307 334.01 0.022939 42.194 0.068571 345.00 0.0028986 512.45 536.34 1.9667 2.0656 3.9307 334.01 0.022939 42.194 0.068571
114.38 1221.9 undefined 514.52 538.94 1.9720 345.00 0.0028986 514.52 538.94 1.9720 2.0682 3.9020 336.40 0.022514 42.221 0.068648 345.00 0.0028986 514.52 538.94 1.9720 2.0682 3.9020 336.40 0.022514 42.221 0.068648
115.38 1248.5 undefined 516.59 541.54 1.9774 345.00 0.0028986 516.59 541.54 1.9774 2.0707 3.8746 338.76 0.022101 42.248 0.068726 345.00 0.0028986 516.59 541.54 1.9774 2.0707 3.8746 338.76 0.022101 42.248 0.068726
116.38 1275.3 undefined 518.66 544.15 1.9827 345.00 0.0028986 518.66 544.15 1.9827 2.0734 3.8485 341.08 0.021700 42.274 0.068805 345.00 0.0028986 518.66 544.15 1.9827 2.0734 3.8485 341.08 0.021700 42.274 0.068805
117.38 1302.0 undefined 520.74 546.76 1.9880 345.00 0.0028986 520.74 546.76 1.9880 2.0760 3.8235 343.38 0.021309 42.301 0.068886 345.00 0.0028986 520.74 546.76 1.9880 2.0760 3.8235 343.38 0.021309 42.301 0.068886
118.38 1328.8 undefined 522.82 549.37 1.9933 345.00 0.0028986 522.82 549.37 1.9933 2.0788 3.7996 345.65 0.020928 42.328 0.068968 345.00 0.0028986 522.82 549.37 1.9933 2.0788 3.7996 345.65 0.020928 42.328 0.068968
119.38 1355.7 undefined 524.90 551.99 1.9986 345.00 0.0028986 524.90 551.99 1.9986 2.0816 3.7768 347.90 0.020558 42.354 0.069051 345.00 0.0028986 524.90 551.99 1.9986 2.0816 3.7768 347.90 0.020558 42.354 0.069051
120.38 1382.5 undefined 526.98 554.61 2.0039 345.00 0.0028986 526.98 554.61 2.0039 2.0844 3.7549 350.12 0.020197 42.381 0.069135 345.00 0.0028986 526.98 554.61 2.0039 2.0844 3.7549 350.12 0.020197 42.381 0.069135
121.38 1409.5 undefined 529.06 557.23 2.0092 345.00 0.0028986 529.06 557.23 2.0092 2.0872 3.7339 352.31 0.019845 42.407 0.069221 345.00 0.0028986 529.06 557.23 2.0092 2.0872 3.7339 352.31 0.019845 42.407 0.069221
122.38 1436.4 undefined 531.15 559.86 2.0145 345.00 0.0028986 531.15 559.86 2.0145 2.0902 3.7138 354.49 0.019501 42.434 0.069307 345.00 0.0028986 531.15 559.86 2.0145 2.0902 3.7138 354.49 0.019501 42.434 0.069307
123.38 1463.4 undefined 533.24 562.49 2.0198 345.00 0.0028986 533.24 562.49 2.0198 2.0931 3.6945 356.64 0.019167 42.461 0.069394 345.00 0.0028986 533.24 562.49 2.0198 2.0931 3.6945 356.64 0.019167 42.461 0.069394
124.38 1490.4 undefined 535.34 565.12 2.0251 345.00 0.0028986 535.34 565.12 2.0251 2.0961 3.6759 358.77 0.018840 42.487 0.069482 345.00 0.0028986 535.34 565.12 2.0251 2.0961 3.6759 358.77 0.018840 42.487 0.069482
125.38 1517.4 undefined 537.44 567.76 2.0303 345.00 0.0028986 537.44 567.76 2.0303 2.0991 3.6581 360.88 0.018521 42.514 0.069571 345.00 0.0028986 537.44 567.76 2.0303 2.0991 3.6581 360.88 0.018521 42.514 0.069571
126.38 1544.5 undefined 539.54 570.40 2.0356 345.00 0.0028986 539.54 570.40 2.0356 2.1022 3.6410 362.96 0.018209 42.540 0.069661 345.00 0.0028986 539.54 570.40 2.0356 2.1022 3.6410 362.96 0.018209 42.540 0.069661
127.38 1571.6 undefined 541.64 573.05 2.0409 345.00 0.0028986 541.64 573.05 2.0409 2.1053 3.6246 365.03 0.017905 42.567 0.069752 345.00 0.0028986 541.64 573.05 2.0409 2.1053 3.6246 365.03 0.017905 42.567 0.069752
128.38 1598.7 undefined 543.75 575.70 2.0461 345.00 0.0028986 543.75 575.70 2.0461 2.1084 3.6088 367.08 0.017607 42.593 0.069844 345.00 0.0028986 543.75 575.70 2.0461 2.1084 3.6088 367.08 0.017607 42.593 0.069844
129.38 1625.9 undefined 545.86 578.35 2.0514 345.00 0.0028986 545.86 578.35 2.0514 2.1115 3.5936 369.11 0.017316 42.620 0.069936 345.00 0.0028986 545.86 578.35 2.0514 2.1115 3.5936 369.11 0.017316 42.620 0.069936
130.38 1653.1 undefined 547.97 581.01 2.0566 345.00 0.0028986 547.97 581.01 2.0566 2.1147 3.5790 371.13 0.017032 42.646 0.070030 345.00 0.0028986 547.97 581.01 2.0566 2.1147 3.5790 371.13 0.017032 42.646 0.070030
131.38 1680.3 undefined 550.09 583.67 2.0618 345.00 0.0028986 550.09 583.67 2.0618 2.1179 3.5649 373.12 0.016753 42.672 0.070124 345.00 0.0028986 550.09 583.67 2.0618 2.1179 3.5649 373.12 0.016753 42.672 0.070124
132.38 1707.5 undefined 552.21 586.33 2.0671 345.00 0.0028986 552.21 586.33 2.0671 2.1211 3.5513 375.10 0.016481 42.699 0.070218 345.00 0.0028986 552.21 586.33 2.0671 2.1211 3.5513 375.10 0.016481 42.699 0.070218
133.38 1734.7 undefined 554.33 589.00 2.0723 345.00 0.0028986 554.33 589.00 2.0723 2.1243 3.5382 377.07 0.016215 42.725 0.070314 345.00 0.0028986 554.33 589.00 2.0723 2.1243 3.5382 377.07 0.016215 42.725 0.070314
134.38 1762.0 undefined 556.46 591.67 2.0775 345.00 0.0028986 556.46 591.67 2.0775 2.1276 3.5256 379.02 0.015954 42.752 0.070410 345.00 0.0028986 556.46 591.67 2.0775 2.1276 3.5256 379.02 0.015954 42.752 0.070410
135.38 1789.3 undefined 558.58 594.34 2.0827 345.00 0.0028986 558.58 594.34 2.0827 2.1309 3.5135 380.95 0.015698 42.778 0.070507 345.00 0.0028986 558.58 594.34 2.0827 2.1309 3.5135 380.95 0.015698 42.778 0.070507
136.38 1816.6 undefined 560.72 597.02 2.0880 345.00 0.0028986 560.72 597.02 2.0880 2.1342 3.5018 382.87 0.015448 42.804 0.070604 345.00 0.0028986 560.72 597.02 2.0880 2.1342 3.5018 382.87 0.015448 42.804 0.070604
137.38 1844.0 undefined 562.85 599.70 2.0932 345.00 0.0028986 562.85 599.70 2.0932 2.1375 3.4905 384.77 0.015203 42.831 0.070702 345.00 0.0028986 562.85 599.70 2.0932 2.1375 3.4905 384.77 0.015203 42.831 0.070702
138.38 1871.3 undefined 564.99 602.39 2.0984 345.00 0.0028986 564.99 602.39 2.0984 2.1408 3.4796 386.66 0.014963 42.857 0.070801 345.00 0.0028986 564.99 602.39 2.0984 2.1408 3.4796 386.66 0.014963 42.857 0.070801
139.38 1898.7 undefined 567.13 605.08 2.1036 345.00 0.0028986 567.13 605.08 2.1036 2.1442 3.4691 388.53 0.014728 42.883 0.070900 345.00 0.0028986 567.13 605.08 2.1036 2.1442 3.4691 388.53 0.014728 42.883 0.070900
140.38 1926.1 undefined 569.28 607.77 2.1088 345.00 0.0028986 569.28 607.77 2.1088 2.1475 3.4589 390.39 0.014497 42.910 0.071000 345.00 0.0028986 569.28 607.77 2.1088 2.1475 3.4589 390.39 0.014497 42.910 0.071000
141.38 1953.5 undefined 571.43 610.47 2.1140 345.00 0.0028986 571.43 610.47 2.1140 2.1509 3.4491 392.24 0.014271 42.936 0.071100 345.00 0.0028986 571.43 610.47 2.1140 2.1509 3.4491 392.24 0.014271 42.936 0.071100
142.38 1981.0 undefined 573.58 613.17 2.1191 345.00 0.0028986 573.58 613.17 2.1191 2.1543 3.4397 394.07 0.014049 42.962 0.071201 345.00 0.0028986 573.58 613.17 2.1191 2.1543 3.4397 394.07 0.014049 42.962 0.071201
143.38 2008.4 undefined 575.74 615.88 2.1243 345.00 0.0028986 575.74 615.88 2.1243 2.1577 3.4306 395.90 0.013832 42.988 0.071303 345.00 0.0028986 575.74 615.88 2.1243 2.1577 3.4306 395.90 0.013832 42.988 0.071303
144.38 2035.9 undefined 577.90 618.59 2.1295 345.00 0.0028986 577.90 618.59 2.1295 2.1611 3.4217 397.71 0.013618 43.015 0.071405 345.00 0.0028986 577.90 618.59 2.1295 2.1611 3.4217 397.71 0.013618 43.015 0.071405
145.38 2063.4 undefined 580.06 621.30 2.1347 345.00 0.0028986 580.06 621.30 2.1347 2.1645 3.4132 399.50 0.013409 43.041 0.071508 345.00 0.0028986 580.06 621.30 2.1347 2.1645 3.4132 399.50 0.013409 43.041 0.071508
146.38 2090.9 undefined 582.23 624.01 2.1398 345.00 0.0028986 582.23 624.01 2.1398 2.1680 3.4050 401.29 0.013203 43.067 0.071611 345.00 0.0028986 582.23 624.01 2.1398 2.1680 3.4050 401.29 0.013203 43.067 0.071611
147.38 2118.4 undefined 584.40 626.73 2.1450 345.00 0.0028986 584.40 626.73 2.1450 2.1714 3.3971 403.07 0.013002 43.093 0.071715 345.00 0.0028986 584.40 626.73 2.1450 2.1714 3.3971 403.07 0.013002 43.093 0.071715
148.38 2146.0 undefined 586.57 629.46 2.1502 345.00 0.0028986 586.57 629.46 2.1502 2.1749 3.3894 404.83 0.012804 43.119 0.071819 345.00 0.0028986 586.57 629.46 2.1502 2.1749 3.3894 404.83 0.012804 43.119 0.071819
149.38 2173.5 undefined 588.75 632.18 2.1553 345.00 0.0028986 588.75 632.18 2.1553 2.1784 3.3820 406.58 0.012609 43.145 0.071924 345.00 0.0028986 588.75 632.18 2.1553 2.1784 3.3820 406.58 0.012609 43.145 0.071924
150.38 2201.1 undefined 590.93 634.91 2.1605 345.00 0.0028986 590.93 634.91 2.1605 2.1818 3.3748 408.32 0.012418 43.171 0.072029 345.00 0.0028986 590.93 634.91 2.1605 2.1818 3.3748 408.32 0.012418 43.171 0.072029
151.38 2228.7 undefined 593.11 637.65 2.1656 345.00 0.0028986 593.11 637.65 2.1656 2.1853 3.3679 410.05 0.012231 43.198 0.072135 345.00 0.0028986 593.11 637.65 2.1656 2.1853 3.3679 410.05 0.012231 43.198 0.072135
152.38 2256.2 undefined 595.30 640.39 2.1708 345.00 0.0028986 595.30 640.39 2.1708 2.1888 3.3612 411.77 0.012047 43.224 0.072241 345.00 0.0028986 595.30 640.39 2.1708 2.1888 3.3612 411.77 0.012047 43.224 0.072241
153.38 2283.9 undefined 597.49 643.13 2.1759 345.00 0.0028986 597.49 643.13 2.1759 2.1923 3.3547 413.48 0.011866 43.250 0.072348 345.00 0.0028986 597.49 643.13 2.1759 2.1923 3.3547 413.48 0.011866 43.250 0.072348
154.38 2311.5 undefined 599.68 645.88 2.1811 345.00 0.0028986 599.68 645.88 2.1811 2.1958 3.3485 415.18 0.011688 43.276 0.072455 345.00 0.0028986 599.68 645.88 2.1811 2.1958 3.3485 415.18 0.011688 43.276 0.072455
155.38 2339.1 undefined 601.88 648.63 2.1862 345.00 0.0028986 601.88 648.63 2.1862 2.1993 3.3425 416.87 0.011513 43.302 0.072563 345.00 0.0028986 601.88 648.63 2.1862 2.1993 3.3425 416.87 0.011513 43.302 0.072563
156.38 2366.7 undefined 604.08 651.38 2.1913 345.00 0.0028986 604.08 651.38 2.1913 2.2028 3.3366 418.56 0.011341 43.328 0.072671 345.00 0.0028986 604.08 651.38 2.1913 2.2028 3.3366 418.56 0.011341 43.328 0.072671
157.38 2394.4 undefined 606.29 654.14 2.1965 345.00 0.0028986 606.29 654.14 2.1965 2.2064 3.3310 420.23 0.011173 43.354 0.072779 345.00 0.0028986 606.29 654.14 2.1965 2.2064 3.3310 420.23 0.011173 43.354 0.072779
158.38 2422.1 undefined 608.49 656.90 2.2016 345.00 0.0028986 608.49 656.90 2.2016 2.2099 3.3255 421.89 0.011007 43.380 0.072888 345.00 0.0028986 608.49 656.90 2.2016 2.2099 3.3255 421.89 0.011007 43.380 0.072888
159.38 2449.7 undefined 610.70 659.66 2.2067 345.00 0.0028986 610.70 659.66 2.2067 2.2134 3.3203 423.54 0.010843 43.406 0.072998 345.00 0.0028986 610.70 659.66 2.2067 2.2134 3.3203 423.54 0.010843 43.406 0.072998
160.38 2477.4 undefined 612.92 662.43 2.2118 345.00 0.0028986 612.92 662.43 2.2118 2.2170 3.3152 425.18 0.010683 43.432 0.073108 345.00 0.0028986 612.92 662.43 2.2118 2.2170 3.3152 425.18 0.010683 43.432 0.073108
161.38 2505.1 undefined 615.14 665.20 2.2169 345.00 0.0028986 615.14 665.20 2.2169 2.2205 3.3103 426.82 0.010525 43.457 0.073218 345.00 0.0028986 615.14 665.20 2.2169 2.2205 3.3103 426.82 0.010525 43.457 0.073218
162.38 2532.8 undefined 617.36 667.98 2.2220 345.00 0.0028986 617.36 667.98 2.2220 2.2240 3.3055 428.45 0.010370 43.483 0.073329 345.00 0.0028986 617.36 667.98 2.2220 2.2240 3.3055 428.45 0.010370 43.483 0.073329
163.38 2560.5 undefined 619.59 670.76 2.2271 345.00 0.0028986 619.59 670.76 2.2271 2.2276 3.3009 430.06 0.010217 43.509 0.073440 345.00 0.0028986 619.59 670.76 2.2271 2.2276 3.3009 430.06 0.010217 43.509 0.073440
164.38 2588.3 undefined 621.82 673.54 2.2322 345.00 0.0028986 621.82 673.54 2.2322 2.2311 3.2965 431.67 0.010066 43.535 0.073552 345.00 0.0028986 621.82 673.54 2.2322 2.2311 3.2965 431.67 0.010066 43.535 0.073552
165.38 2616.0 undefined 624.05 676.33 2.2373 345.00 0.0028986 624.05 676.33 2.2373 2.2347 3.2922 433.27 0.0099184 43.561 0.073664 345.00 0.0028986 624.05 676.33 2.2373 2.2347 3.2922 433.27 0.0099184 43.561 0.073664
166.38 2643.7 undefined 626.29 679.12 2.2424 345.00 0.0028986 626.29 679.12 2.2424 2.2383 3.2881 434.86 0.0097728 43.587 0.073776 345.00 0.0028986 626.29 679.12 2.2424 2.2383 3.2881 434.86 0.0097728 43.587 0.073776
167.38 2671.5 undefined 628.53 681.91 2.2475 345.00 0.0028986 628.53 681.91 2.2475 2.2418 3.2841 436.45 0.0096295 43.613 0.073889 345.00 0.0028986 628.53 681.91 2.2475 2.2418 3.2841 436.45 0.0096295 43.613 0.073889
168.38 2699.3 undefined 630.77 684.71 2.2526 345.00 0.0028986 630.77 684.71 2.2526 2.2454 3.2803 438.03 0.0094884 43.638 0.074002 345.00 0.0028986 630.77 684.71 2.2526 2.2454 3.2803 438.03 0.0094884 43.638 0.074002
169.38 2727.0 undefined 633.02 687.52 2.2577 345.00 0.0028986 633.02 687.52 2.2577 2.2490 3.2766 439.59 0.0093496 43.664 0.074116 345.00 0.0028986 633.02 687.52 2.2577 2.2490 3.2766 439.59 0.0093496 43.664 0.074116
170.38 2754.8 undefined 635.27 690.32 2.2628 345.00 0.0028986 635.27 690.32 2.2628 2.2525 3.2730 441.16 0.0092128 43.690 0.074230 345.00 0.0028986 635.27 690.32 2.2628 2.2525 3.2730 441.16 0.0092128 43.690 0.074230
171.38 2782.6 undefined 637.52 693.13 2.2678 345.00 0.0028986 637.52 693.13 2.2678 2.2561 3.2696 442.71 0.0090782 43.716 0.074344 345.00 0.0028986 637.52 693.13 2.2678 2.2561 3.2696 442.71 0.0090782 43.716 0.074344
172.38 2810.4 undefined 639.78 695.94 2.2729 345.00 0.0028986 639.78 695.94 2.2729 2.2597 3.2662 444.25 0.0089456 43.741 0.074459 345.00 0.0028986 639.78 695.94 2.2729 2.2597 3.2662 444.25 0.0089456 43.741 0.074459
173.38 2838.2 undefined 642.04 698.76 2.2780 345.00 0.0028986 642.04 698.76 2.2780 2.2633 3.2630 445.79 0.0088150 43.767 0.074574 345.00 0.0028986 642.04 698.76 2.2780 2.2633 3.2630 445.79 0.0088150 43.767 0.074574
174.38 2866.0 undefined 644.31 701.58 2.2831 345.00 0.0028986 644.31 701.58 2.2831 2.2669 3.2599 447.32 0.0086864 43.793 0.074689 345.00 0.0028986 644.31 701.58 2.2831 2.2669 3.2599 447.32 0.0086864 43.793 0.074689
175.38 2893.8 undefined 646.57 704.41 2.2881 345.00 0.0028986 646.57 704.41 2.2881 2.2705 3.2570 448.85 0.0085597 43.818 0.074805 345.00 0.0028986 646.57 704.41 2.2881 2.2705 3.2570 448.85 0.0085597 43.818 0.074805
176.38 2921.6 undefined 648.85 707.23 2.2932 345.00 0.0028986 648.85 707.23 2.2932 2.2740 3.2541 450.36 0.0084349 43.844 0.074921 345.00 0.0028986 648.85 707.23 2.2932 2.2740 3.2541 450.36 0.0084349 43.844 0.074921
177.38 2949.4 undefined 651.12 710.07 2.2982 345.00 0.0028986 651.12 710.07 2.2982 2.2776 3.2514 451.87 0.0083119 43.870 0.075038 345.00 0.0028986 651.12 710.07 2.2982 2.2776 3.2514 451.87 0.0083119 43.870 0.075038
178.38 2977.2 undefined 653.40 712.90 2.3033 345.00 0.0028986 653.40 712.90 2.3033 2.2812 3.2487 453.38 0.0081907 43.895 0.075155 345.00 0.0028986 653.40 712.90 2.3033 2.2812 3.2487 453.38 0.0081907 43.895 0.075155
179.38 3005.1 undefined 655.69 715.74 2.3083 345.00 0.0028986 655.69 715.74 2.3083 2.2848 3.2462 454.87 0.0080713 43.921 0.075273 345.00 0.0028986 655.69 715.74 2.3083 2.2848 3.2462 454.87 0.0080713 43.921 0.075273
180.38 3032.9 undefined 657.97 718.58 2.3134 345.00 0.0028986 657.97 718.58 2.3134 2.2884 3.2437 456.36 0.0079536 43.946 0.075390 345.00 0.0028986 657.97 718.58 2.3134 2.2884 3.2437 456.36 0.0079536 43.946 0.075390
181.38 3060.7 undefined 660.26 721.43 2.3184 345.00 0.0028986 660.26 721.43 2.3184 2.2920 3.2414 457.85 0.0078376 43.972 0.075508 345.00 0.0028986 660.26 721.43 2.3184 2.2920 3.2414 457.85 0.0078376 43.972 0.075508
182.38 3088.6 undefined 662.56 724.28 2.3235 345.00 0.0028986 662.56 724.28 2.3235 2.2956 3.2391 459.32 0.0077233 43.998 0.075627 345.00 0.0028986 662.56 724.28 2.3235 2.2956 3.2391 459.32 0.0077233 43.998 0.075627
183.38 3116.4 undefined 664.85 727.13 2.3285 345.00 0.0028986 664.85 727.13 2.3285 2.2992 3.2369 460.79 0.0076106 44.023 0.075746 345.00 0.0028986 664.85 727.13 2.3285 2.2992 3.2369 460.79 0.0076106 44.023 0.075746
184.38 3144.3 undefined 667.15 729.99 2.3335 345.00 0.0028986 667.15 729.99 2.3335 2.3028 3.2349 462.25 0.0074995 44.049 0.075865 345.00 0.0028986 667.15 729.99 2.3335 2.3028 3.2349 462.25 0.0074995 44.049 0.075865
185.38 3172.1 undefined 669.46 732.85 2.3386 345.00 0.0028986 669.46 732.85 2.3386 2.3064 3.2329 463.71 0.0073899 44.074 0.075984 345.00 0.0028986 669.46 732.85 2.3386 2.3064 3.2329 463.71 0.0073899 44.074 0.075984
186.38 3200.0 undefined 671.77 735.72 2.3436 345.00 0.0028986 671.77 735.72 2.3436 2.3100 3.2310 465.16 0.0072819 44.100 0.076104 345.00 0.0028986 671.77 735.72 2.3436 2.3100 3.2310 465.16 0.0072819 44.100 0.076104
187.38 3227.9 undefined 674.08 738.59 2.3486 345.00 0.0028986 674.08 738.59 2.3486 2.3136 3.2292 466.61 0.0071753 44.125 0.076224 345.00 0.0028986 674.08 738.59 2.3486 2.3136 3.2292 466.61 0.0071753 44.125 0.076224
188.38 3255.7 undefined 676.39 741.46 2.3537 345.00 0.0028986 676.39 741.46 2.3537 2.3172 3.2274 468.05 0.0070703 44.150 0.076345 345.00 0.0028986 676.39 741.46 2.3537 2.3172 3.2274 468.05 0.0070703 44.150 0.076345
189.38 3283.6 undefined 678.71 744.33 2.3587 345.00 0.0028986 678.71 744.33 2.3587 2.3208 3.2258 469.48 0.0069667 44.176 0.076466 345.00 0.0028986 678.71 744.33 2.3587 2.3208 3.2258 469.48 0.0069667 44.176 0.076466
190.38 3311.5 undefined 681.04 747.21 2.3637 345.00 0.0028986 681.04 747.21 2.3637 2.3244 3.2242 470.90 0.0068645 44.201 0.076587 345.00 0.0028986 681.04 747.21 2.3637 2.3244 3.2242 470.90 0.0068645 44.201 0.076587
191.38 3339.3 undefined 683.36 750.10 2.3687 345.00 0.0028986 683.36 750.10 2.3687 2.3280 3.2227 472.33 0.0067637 44.227 0.076709 345.00 0.0028986 683.36 750.10 2.3687 2.3280 3.2227 472.33 0.0067637 44.227 0.076709
192.38 3367.2 undefined 685.69 752.98 2.3737 345.00 0.0028986 685.69 752.98 2.3737 2.3315 3.2212 473.74 0.0066642 44.252 0.076831 345.00 0.0028986 685.69 752.98 2.3737 2.3315 3.2212 473.74 0.0066642 44.252 0.076831
193.38 3395.1 undefined 688.02 755.88 2.3787 345.00 0.0028986 688.02 755.88 2.3787 2.3351 3.2199 475.15 0.0065661 44.277 0.076953 345.00 0.0028986 688.02 755.88 2.3787 2.3351 3.2199 475.15 0.0065661 44.277 0.076953
194.38 3423.0 undefined 690.36 758.77 2.3837 345.00 0.0028986 690.36 758.77 2.3837 2.3387 3.2186 476.55 0.0064693 44.303 0.077075 345.00 0.0028986 690.36 758.77 2.3837 2.3387 3.2186 476.55 0.0064693 44.303 0.077075
195.38 3450.9 undefined 692.70 761.67 2.3887 345.00 0.0028986 692.70 761.67 2.3887 2.3423 3.2174 477.95 0.0063738 44.328 0.077198 345.00 0.0028986 692.70 761.67 2.3887 2.3423 3.2174 477.95 0.0063738 44.328 0.077198
196.38 3478.8 undefined 695.05 764.57 2.3937 345.00 0.0028986 695.05 764.57 2.3937 2.3459 3.2162 479.34 0.0062795 44.353 0.077322 345.00 0.0028986 695.05 764.57 2.3937 2.3459 3.2162 479.34 0.0062795 44.353 0.077322
197.38 3506.6 undefined 697.39 767.47 2.3987 345.00 0.0028986 697.39 767.47 2.3987 2.3495 3.2151 480.73 0.0061865 44.378 0.077445 345.00 0.0028986 697.39 767.47 2.3987 2.3495 3.2151 480.73 0.0061865 44.378 0.077445
198.38 3534.5 undefined 699.75 770.38 2.4037 345.00 0.0028986 699.75 770.38 2.4037 2.3531 3.2141 482.11 0.0060947 44.404 0.077569 345.00 0.0028986 699.75 770.38 2.4037 2.3531 3.2141 482.11 0.0060947 44.404 0.077569
199.38 3562.4 undefined 702.10 773.29 2.4087 345.00 0.0028986 702.10 773.29 2.4087 2.3567 3.2131 483.49 0.0060041 44.429 0.077693 345.00 0.0028986 702.10 773.29 2.4087 2.3567 3.2131 483.49 0.0060041 44.429 0.077693
200.38 3590.3 undefined 704.46 776.21 2.4137 345.00 0.0028986 704.46 776.21 2.4137 2.3603 3.2122 484.86 0.0059147 44.454 0.077818 345.00 0.0028986 704.46 776.21 2.4137 2.3603 3.2122 484.86 0.0059147 44.454 0.077818
201.38 3618.2 undefined 706.82 779.13 2.4187 345.00 0.0028986 706.82 779.13 2.4187 2.3639 3.2114 486.22 0.0058264 44.479 0.077943 345.00 0.0028986 706.82 779.13 2.4187 2.3639 3.2114 486.22 0.0058264 44.479 0.077943
202.38 3646.1 undefined 709.19 782.05 2.4236 345.00 0.0028986 709.19 782.05 2.4236 2.3675 3.2106 487.58 0.0057393 44.505 0.078068 345.00 0.0028986 709.19 782.05 2.4236 2.3675 3.2106 487.58 0.0057393 44.505 0.078068
203.38 3674.0 undefined 711.56 784.98 2.4286 345.00 0.0028986 711.56 784.98 2.4286 2.3711 3.2099 488.94 0.0056532 44.530 0.078193 345.00 0.0028986 711.56 784.98 2.4286 2.3711 3.2099 488.94 0.0056532 44.530 0.078193
204.38 3701.9 undefined 713.93 787.91 2.4336 345.00 0.0028986 713.93 787.91 2.4336 2.3747 3.2092 490.29 0.0055683 44.555 0.078319 345.00 0.0028986 713.93 787.91 2.4336 2.3747 3.2092 490.29 0.0055683 44.555 0.078319
205.38 3729.8 undefined 716.31 790.85 2.4386 345.00 0.0028986 716.31 790.85 2.4386 2.3783 3.2086 491.63 0.0054844 44.580 0.078445 345.00 0.0028986 716.31 790.85 2.4386 2.3783 3.2086 491.63 0.0054844 44.580 0.078445
206.38 3757.7 undefined 718.69 793.78 2.4435 345.00 0.0028986 718.69 793.78 2.4435 2.3819 3.2080 492.98 0.0054016 44.605 0.078572 345.00 0.0028986 718.69 793.78 2.4435 2.3819 3.2080 492.98 0.0054016 44.605 0.078572
207.38 3785.6 undefined 721.07 796.72 2.4485 345.00 0.0028986 721.07 796.72 2.4485 2.3855 3.2075 494.31 0.0053198 44.630 0.078698 345.00 0.0028986 721.07 796.72 2.4485 2.3855 3.2075 494.31 0.0053198 44.630 0.078698
208.38 3813.5 undefined 723.46 799.67 2.4535 345.00 0.0028986 723.46 799.67 2.4535 2.3891 3.2070 495.64 0.0052391 44.655 0.078825 345.00 0.0028986 723.46 799.67 2.4535 2.3891 3.2070 495.64 0.0052391 44.655 0.078825
209.38 3841.4 undefined 725.85 802.62 2.4584 345.00 0.0028986 725.85 802.62 2.4584 2.3927 3.2066 496.97 0.0051593 44.680 0.078953 345.00 0.0028986 725.85 802.62 2.4584 2.3927 3.2066 496.97 0.0051593 44.680 0.078953
210.38 3869.3 undefined 728.24 805.57 2.4634 345.00 0.0028986 728.24 805.57 2.4634 2.3962 3.2063 498.29 0.0050806 44.705 0.079080 345.00 0.0028986 728.24 805.57 2.4634 2.3962 3.2063 498.29 0.0050806 44.705 0.079080
211.38 3897.2 undefined 730.64 808.52 2.4683 345.00 0.0028986 730.64 808.52 2.4683 2.3998 3.2060 499.60 0.0050028 44.730 0.079208 345.00 0.0028986 730.64 808.52 2.4683 2.3998 3.2060 499.60 0.0050028 44.730 0.079208
212.38 3925.1 undefined 733.04 811.48 2.4733 345.00 0.0028986 733.04 811.48 2.4733 2.4034 3.2057 500.91 0.0049259 44.755 0.079336 345.00 0.0028986 733.04 811.48 2.4733 2.4034 3.2057 500.91 0.0049259 44.755 0.079336
213.38 3953.0 undefined 735.45 814.45 2.4782 345.00 0.0028986 735.45 814.45 2.4782 2.4070 3.2055 502.22 0.0048500 44.780 0.079465 345.00 0.0028986 735.45 814.45 2.4782 2.4070 3.2055 502.22 0.0048500 44.780 0.079465
214.38 3980.9 undefined 737.86 817.41 2.4832 345.00 0.0028986 737.86 817.41 2.4832 2.4106 3.2053 503.52 0.0047750 44.805 0.079594 345.00 0.0028986 737.86 817.41 2.4832 2.4106 3.2053 503.52 0.0047750 44.805 0.079594
215.38 4008.8 undefined 740.27 820.38 2.4881 345.00 0.0028986 740.27 820.38 2.4881 2.4142 3.2052 504.82 0.0047010 44.830 0.079723 345.00 0.0028986 740.27 820.38 2.4881 2.4142 3.2052 504.82 0.0047010 44.830 0.079723
216.38 4036.7 undefined 742.68 823.36 2.4931 345.00 0.0028986 742.68 823.36 2.4931 2.4177 3.2051 506.11 0.0046278 44.855 0.079852 345.00 0.0028986 742.68 823.36 2.4931 2.4177 3.2051 506.11 0.0046278 44.855 0.079852
217.38 4064.6 undefined 745.10 826.33 2.4980 345.00 0.0028986 745.10 826.33 2.4980 2.4213 3.2050 507.40 0.0045555 44.880 0.079982 345.00 0.0028986 745.10 826.33 2.4980 2.4213 3.2050 507.40 0.0045555 44.880 0.079982
218.38 4092.5 undefined 747.53 829.31 2.5029 345.00 0.0028986 747.53 829.31 2.5029 2.4249 3.2050 508.69 0.0044840 44.905 0.080112 345.00 0.0028986 747.53 829.31 2.5029 2.4249 3.2050 508.69 0.0044840 44.905 0.080112
219.38 4120.4 undefined 749.95 832.30 2.5079 345.00 0.0028986 749.95 832.30 2.5079 2.4285 3.2051 509.97 0.0044134 44.929 0.080242 345.00 0.0028986 749.95 832.30 2.5079 2.4285 3.2051 509.97 0.0044134 44.929 0.080242
220.38 4148.3 undefined 752.38 835.29 2.5128 345.00 0.0028986 752.38 835.29 2.5128 2.4320 3.2051 511.24 0.0043436 44.954 0.080373 345.00 0.0028986 752.38 835.29 2.5128 2.4320 3.2051 511.24 0.0043436 44.954 0.080373
221.38 4176.2 undefined 754.82 838.28 2.5177 345.00 0.0028986 754.82 838.28 2.5177 2.4356 3.2052 512.51 0.0042747 44.979 0.080504 345.00 0.0028986 754.82 838.28 2.5177 2.4356 3.2052 512.51 0.0042747 44.979 0.080504
222.38 4204.0 undefined 757.25 841.27 2.5227 345.00 0.0028986 757.25 841.27 2.5227 2.4392 3.2054 513.78 0.0042066 45.004 0.080635 345.00 0.0028986 757.25 841.27 2.5227 2.4392 3.2054 513.78 0.0042066 45.004 0.080635
223.38 4231.9 undefined 759.70 844.27 2.5276 345.00 0.0028986 759.70 844.27 2.5276 2.4428 3.2056 515.04 0.0041392 45.029 0.080767 345.00 0.0028986 759.70 844.27 2.5276 2.4428 3.2056 515.04 0.0041392 45.029 0.080767
224.38 4259.8 undefined 762.14 847.27 2.5325 345.00 0.0028986 762.14 847.27 2.5325 2.4463 3.2058 516.30 0.0040726 45.053 0.080898 345.00 0.0028986 762.14 847.27 2.5325 2.4463 3.2058 516.30 0.0040726 45.053 0.080898
225.38 4287.7 undefined 764.59 850.28 2.5374 345.00 0.0028986 764.59 850.28 2.5374 2.4499 3.2061 517.56 0.0040069 45.078 0.081030 345.00 0.0028986 764.59 850.28 2.5374 2.4499 3.2061 517.56 0.0040069 45.078 0.081030
226.38 4315.6 undefined 767.04 853.29 2.5423 345.00 0.0028986 767.04 853.29 2.5423 2.4535 3.2064 518.81 0.0039418 45.103 0.081163 345.00 0.0028986 767.04 853.29 2.5423 2.4535 3.2064 518.81 0.0039418 45.103 0.081163
227.38 4343.5 undefined 769.50 856.30 2.5472 345.00 0.0028986 769.50 856.30 2.5472 2.4570 3.2067 520.05 0.0038776 45.128 0.081295 345.00 0.0028986 769.50 856.30 2.5472 2.4570 3.2067 520.05 0.0038776 45.128 0.081295
228.38 4371.3 undefined 771.95 859.31 2.5521 345.00 0.0028986 771.95 859.31 2.5521 2.4606 3.2071 521.29 0.0038140 45.152 0.081428 345.00 0.0028986 771.95 859.31 2.5521 2.4606 3.2071 521.29 0.0038140 45.152 0.081428
229.38 4399.2 undefined 774.42 862.33 2.5570 345.00 0.0028986 774.42 862.33 2.5570 2.4641 3.2075 522.53 0.0037512 45.177 0.081561 345.00 0.0028986 774.42 862.33 2.5570 2.4641 3.2075 522.53 0.0037512 45.177 0.081561
230.38 4427.1 undefined 776.88 865.36 2.5619 345.00 0.0028986 776.88 865.36 2.5619 2.4677 3.2079 523.77 0.0036891 45.202 0.081694 345.00 0.0028986 776.88 865.36 2.5619 2.4677 3.2079 523.77 0.0036891 45.202 0.081694
231.38 4454.9 undefined 779.35 868.38 2.5668 345.00 0.0028986 779.35 868.38 2.5668 2.4712 3.2084 525.00 0.0036277 45.226 0.081828 345.00 0.0028986 779.35 868.38 2.5668 2.4712 3.2084 525.00 0.0036277 45.226 0.081828
232.38 4482.8 undefined 781.82 871.41 2.5717 345.00 0.0028986 781.82 871.41 2.5717 2.4748 3.2089 526.22 0.0035670 45.251 0.081962 345.00 0.0028986 781.82 871.41 2.5717 2.4748 3.2089 526.22 0.0035670 45.251 0.081962
233.38 4510.7 undefined 784.30 874.45 2.5766 345.00 0.0028986 784.30 874.45 2.5766 2.4783 3.2094 527.45 0.0035069 45.275 0.082096 345.00 0.0028986 784.30 874.45 2.5766 2.4783 3.2094 527.45 0.0035069 45.275 0.082096
234.38 4538.5 undefined 786.78 877.48 2.5815 345.00 0.0028986 786.78 877.48 2.5815 2.4819 3.2100 528.67 0.0034476 45.300 0.082230 345.00 0.0028986 786.78 877.48 2.5815 2.4819 3.2100 528.67 0.0034476 45.300 0.082230
235.38 4566.4 undefined 789.27 880.52 2.5864 345.00 0.0028986 789.27 880.52 2.5864 2.4854 3.2105 529.88 0.0033889 45.324 0.082365 345.00 0.0028986 789.27 880.52 2.5864 2.4854 3.2105 529.88 0.0033889 45.324 0.082365
236.38 4594.2 undefined 791.75 883.57 2.5913 345.00 0.0028986 791.75 883.57 2.5913 2.4890 3.2112 531.09 0.0033308 45.349 0.082500 345.00 0.0028986 791.75 883.57 2.5913 2.4890 3.2112 531.09 0.0033308 45.349 0.082500
237.38 4622.1 undefined 794.24 886.61 2.5962 345.00 0.0028986 794.24 886.61 2.5962 2.4925 3.2118 532.30 0.0032734 45.373 0.082635 345.00 0.0028986 794.24 886.61 2.5962 2.4925 3.2118 532.30 0.0032734 45.373 0.082635
238.38 4649.9 undefined 796.74 889.67 2.6011 345.00 0.0028986 796.74 889.67 2.6011 2.4961 3.2125 533.51 0.0032167 45.398 0.082771 345.00 0.0028986 796.74 889.67 2.6011 2.4961 3.2125 533.51 0.0032167 45.398 0.082771
239.38 4677.8 undefined 799.24 892.72 2.6059 345.00 0.0028986 799.24 892.72 2.6059 2.4996 3.2132 534.71 0.0031605 45.422 0.082906 345.00 0.0028986 799.24 892.72 2.6059 2.4996 3.2132 534.71 0.0031605 45.422 0.082906
240.38 4705.6 undefined 801.74 895.78 2.6108 345.00 0.0028986 801.74 895.78 2.6108 2.5031 3.2139 535.90 0.0031050 45.447 0.083042 345.00 0.0028986 801.74 895.78 2.6108 2.5031 3.2139 535.90 0.0031050 45.447 0.083042
241.38 4733.5 undefined 804.24 898.84 2.6157 345.00 0.0028986 804.24 898.84 2.6157 2.5067 3.2147 537.10 0.0030501 45.471 0.083178 345.00 0.0028986 804.24 898.84 2.6157 2.5067 3.2147 537.10 0.0030501 45.471 0.083178
242.38 4761.3 undefined 806.75 901.90 2.6206 345.00 0.0028986 806.75 901.90 2.6206 2.5102 3.2154 538.29 0.0029958 45.496 0.083315 345.00 0.0028986 806.75 901.90 2.6206 2.5102 3.2154 538.29 0.0029958 45.496 0.083315
243.38 4789.1 undefined 809.26 904.97 2.6254 345.00 0.0028986 809.26 904.97 2.6254 2.5137 3.2162 539.47 0.0029420 45.520 0.083451 345.00 0.0028986 809.26 904.97 2.6254 2.5137 3.2162 539.47 0.0029420 45.520 0.083451
244.38 4817.0 undefined 811.78 908.04 2.6303 345.00 0.0028986 811.78 908.04 2.6303 2.5173 3.2171 540.65 0.0028889 45.544 0.083588 345.00 0.0028986 811.78 908.04 2.6303 2.5173 3.2171 540.65 0.0028889 45.544 0.083588
245.38 4844.8 undefined 814.30 911.12 2.6352 345.00 0.0028986 814.30 911.12 2.6352 2.5208 3.2179 541.83 0.0028363 45.569 0.083725 345.00 0.0028986 814.30 911.12 2.6352 2.5208 3.2179 541.83 0.0028363 45.569 0.083725
246.38 4872.6 undefined 816.82 914.20 2.6400 345.00 0.0028986 816.82 914.20 2.6400 2.5243 3.2188 543.01 0.0027843 45.593 0.083862 345.00 0.0028986 816.82 914.20 2.6400 2.5243 3.2188 543.01 0.0027843 45.593 0.083862
247.38 4900.4 undefined 819.34 917.28 2.6449 345.00 0.0028986 819.34 917.28 2.6449 2.5278 3.2197 544.18 0.0027328 45.617 0.084000 345.00 0.0028986 819.34 917.28 2.6449 2.5278 3.2197 544.18 0.0027328 45.617 0.084000
248.38 4928.3 undefined 821.87 920.36 2.6497 345.00 0.0028986 821.87 920.36 2.6497 2.5313 3.2206 545.35 0.0026819 45.642 0.084137 345.00 0.0028986 821.87 920.36 2.6497 2.5313 3.2206 545.35 0.0026819 45.642 0.084137
249.38 4956.1 undefined 824.41 923.45 2.6546 345.00 0.0028986 824.41 923.45 2.6546 2.5348 3.2216 546.52 0.0026315 45.666 0.084275 345.00 0.0028986 824.41 923.45 2.6546 2.5348 3.2216 546.52 0.0026315 45.666 0.084275
250.38 4983.9 undefined 826.94 926.55 2.6594 345.00 0.0028986 826.94 926.55 2.6594 2.5384 3.2226 547.68 0.0025817 45.690 0.084413 345.00 0.0028986 826.94 926.55 2.6594 2.5384 3.2226 547.68 0.0025817 45.690 0.084413
251.38 5011.7 undefined 829.48 929.64 2.6643 345.00 0.0028986 829.48 929.64 2.6643 2.5419 3.2235 548.84 0.0025324 45.714 0.084552 345.00 0.0028986 829.48 929.64 2.6643 2.5419 3.2235 548.84 0.0025324 45.714 0.084552
252.38 5039.5 undefined 832.03 932.74 2.6691 345.00 0.0028986 832.03 932.74 2.6691 2.5454 3.2246 550.00 0.0024836 45.739 0.084690 345.00 0.0028986 832.03 932.74 2.6691 2.5454 3.2246 550.00 0.0024836 45.739 0.084690
253.38 5067.3 undefined 834.58 935.84 2.6740 345.00 0.0028986 834.58 935.84 2.6740 2.5489 3.2256 551.15 0.0024353 45.763 0.084829 345.00 0.0028986 834.58 935.84 2.6740 2.5489 3.2256 551.15 0.0024353 45.763 0.084829
254.38 5095.1 undefined 837.13 938.95 2.6788 345.00 0.0028986 837.13 938.95 2.6788 2.5524 3.2267 552.30 0.0023875 45.787 0.084973 345.00 0.0028986 837.13 938.95 2.6788 2.5524 3.2267 552.30 0.0023875 45.787 0.084973
255.38 5122.9 undefined 839.68 942.06 2.6836 345.00 0.0028986 839.68 942.06 2.6836 2.5559 3.2277 553.44 0.0023402 45.811 0.085123 345.00 0.0028986 839.68 942.06 2.6836 2.5559 3.2277 553.44 0.0023402 45.811 0.085123
256.38 5150.6 undefined 842.24 945.17 2.6885 345.00 0.0028986 842.24 945.17 2.6885 2.5594 3.2288 554.59 0.0022935 45.835 0.085272 345.00 0.0028986 842.24 945.17 2.6885 2.5594 3.2288 554.59 0.0022935 45.835 0.085272
257.38 5178.4 undefined 844.80 948.29 2.6933 345.00 0.0028986 844.80 948.29 2.6933 2.5629 3.2300 555.73 0.0022472 45.859 0.085422 345.00 0.0028986 844.80 948.29 2.6933 2.5629 3.2300 555.73 0.0022472 45.859 0.085422
258.38 5206.2 undefined 847.36 951.41 2.6981 345.00 0.0028986 847.36 951.41 2.6981 2.5663 3.2311 556.86 0.0022013 45.883 0.085572 345.00 0.0028986 847.36 951.41 2.6981 2.5663 3.2311 556.86 0.0022013 45.883 0.085572
259.38 5234.0 undefined 849.93 954.53 2.7030 345.00 0.0028986 849.93 954.53 2.7030 2.5698 3.2322 558.00 0.0021560 45.907 0.085723 345.00 0.0028986 849.93 954.53 2.7030 2.5698 3.2322 558.00 0.0021560 45.907 0.085723
260.38 5261.7 undefined 852.50 957.66 2.7078 345.00 0.0028986 852.50 957.66 2.7078 2.5733 3.2334 559.13 0.0021111 45.931 0.085873 345.00 0.0028986 852.50 957.66 2.7078 2.5733 3.2334 559.13 0.0021111 45.931 0.085873
261.38 5289.5 undefined 855.08 960.79 2.7126 345.00 0.0028986 855.08 960.79 2.7126 2.5768 3.2346 560.26 0.0020667 45.956 0.086024 345.00 0.0028986 855.08 960.79 2.7126 2.5768 3.2346 560.26 0.0020667 45.956 0.086024
262.38 5317.2 undefined 857.66 963.92 2.7174 345.00 0.0028986 857.66 963.92 2.7174 2.5803 3.2358 561.38 0.0020227 45.980 0.086176 345.00 0.0028986 857.66 963.92 2.7174 2.5803 3.2358 561.38 0.0020227 45.980 0.086176
263.38 5345.0 undefined 860.24 967.06 2.7223 345.00 0.0028986 860.24 967.06 2.7223 2.5838 3.2371 562.50 0.0019792 46.004 0.086327 345.00 0.0028986 860.24 967.06 2.7223 2.5838 3.2371 562.50 0.0019792 46.004 0.086327
264.38 5372.7 undefined 862.82 970.20 2.7271 345.00 0.0028986 862.82 970.20 2.7271 2.5872 3.2383 563.62 0.0019361 46.027 0.086479 345.00 0.0028986 862.82 970.20 2.7271 2.5872 3.2383 563.62 0.0019361 46.027 0.086479
265.38 5400.5 undefined 865.41 973.34 2.7319 345.00 0.0028986 865.41 973.34 2.7319 2.5907 3.2396 564.74 0.0018934 46.051 0.086631 345.00 0.0028986 865.41 973.34 2.7319 2.5907 3.2396 564.74 0.0018934 46.051 0.086631
266.38 5428.2 undefined 868.01 976.49 2.7367 345.00 0.0028986 868.01 976.49 2.7367 2.5942 3.2409 565.85 0.0018512 46.075 0.086784 345.00 0.0028986 868.01 976.49 2.7367 2.5942 3.2409 565.85 0.0018512 46.075 0.086784
267.38 5455.9 undefined 870.60 979.64 2.7415 345.00 0.0028986 870.60 979.64 2.7415 2.5976 3.2422 566.96 0.0018094 46.099 0.086937 345.00 0.0028986 870.60 979.64 2.7415 2.5976 3.2422 566.96 0.0018094 46.099 0.086937
268.38 5483.7 undefined 873.20 982.79 2.7463 345.00 0.0028986 873.20 982.79 2.7463 2.6011 3.2435 568.07 0.0017680 46.123 0.087090 345.00 0.0028986 873.20 982.79 2.7463 2.6011 3.2435 568.07 0.0017680 46.123 0.087090
269.38 5511.4 undefined 875.80 985.95 2.7511 345.00 0.0028986 875.80 985.95 2.7511 2.6045 3.2448 569.17 0.0017271 46.147 0.087243 345.00 0.0028986 875.80 985.95 2.7511 2.6045 3.2448 569.17 0.0017271 46.147 0.087243
270.38 5539.1 undefined 878.41 989.11 2.7559 345.00 0.0028986 878.41 989.11 2.7559 2.6080 3.2462 570.27 0.0016865 46.171 0.087397 345.00 0.0028986 878.41 989.11 2.7559 2.6080 3.2462 570.27 0.0016865 46.171 0.087397
271.38 5566.8 undefined 881.02 992.27 2.7607 345.00 0.0028986 881.02 992.27 2.7607 2.6114 3.2475 571.37 0.0016464 46.195 0.087551 345.00 0.0028986 881.02 992.27 2.7607 2.6114 3.2475 571.37 0.0016464 46.195 0.087551
272.38 5594.5 undefined 883.63 995.44 2.7655 345.00 0.0028986 883.63 995.44 2.7655 2.6149 3.2489 572.47 0.0016066 46.219 0.087705 345.00 0.0028986 883.63 995.44 2.7655 2.6149 3.2489 572.47 0.0016066 46.219 0.087705
273.38 5622.2 undefined 886.25 998.61 2.7703 345.00 0.0028986 886.25 998.61 2.7703 2.6183 3.2503 573.56 0.0015672 46.242 0.087860 345.00 0.0028986 886.25 998.61 2.7703 2.6183 3.2503 573.56 0.0015672 46.242 0.087860
274.38 5649.9 undefined 888.87 1001.8 2.7751 345.00 0.0028986 888.87 1001.8 2.7751 2.6218 3.2517 574.65 0.0015283 46.266 0.088015 345.00 0.0028986 888.87 1001.8 2.7751 2.6218 3.2517 574.65 0.0015283 46.266 0.088015
275.38 5677.6 undefined 891.49 1005.0 2.7799 345.00 0.0028986 891.49 1005.0 2.7799 2.6252 3.2531 575.74 0.0014897 46.290 0.088170 345.00 0.0028986 891.49 1005.0 2.7799 2.6252 3.2531 575.74 0.0014897 46.290 0.088170
276.38 5705.3 undefined 894.12 1008.1 2.7846 345.00 0.0028986 894.12 1008.1 2.7846 2.6287 3.2546 576.82 0.0014515 46.314 0.088325 345.00 0.0028986 894.12 1008.1 2.7846 2.6287 3.2546 576.82 0.0014515 46.314 0.088325
277.38 5733.0 undefined 896.75 1011.3 2.7894 345.00 0.0028986 896.75 1011.3 2.7894 2.6321 3.2560 577.90 0.0014136 46.337 0.088481 345.00 0.0028986 896.75 1011.3 2.7894 2.6321 3.2560 577.90 0.0014136 46.337 0.088481
278.38 5760.7 undefined 899.38 1014.5 2.7942 345.00 0.0028986 899.38 1014.5 2.7942 2.6355 3.2575 578.98 0.0013762 46.361 0.088637 345.00 0.0028986 899.38 1014.5 2.7942 2.6355 3.2575 578.98 0.0013762 46.361 0.088637
279.38 5788.3 undefined 902.02 1017.7 2.7990 345.00 0.0028986 902.02 1017.7 2.7990 2.6389 3.2590 580.06 0.0013391 46.385 0.088793 345.00 0.0028986 902.02 1017.7 2.7990 2.6389 3.2590 580.06 0.0013391 46.385 0.088793
280.38 5816.0 undefined 904.66 1020.9 2.8038 345.00 0.0028986 904.66 1020.9 2.8038 2.6424 3.2605 581.13 0.0013023 46.408 0.088950 345.00 0.0028986 904.66 1020.9 2.8038 2.6424 3.2605 581.13 0.0013023 46.408 0.088950
281.38 5843.7 undefined 907.31 1024.1 2.8085 345.00 0.0028986 907.31 1024.1 2.8085 2.6458 3.2620 582.20 0.0012659 46.432 0.089107 345.00 0.0028986 907.31 1024.1 2.8085 2.6458 3.2620 582.20 0.0012659 46.432 0.089107
282.38 5871.3 undefined 909.95 1027.3 2.8133 345.00 0.0028986 909.95 1027.3 2.8133 2.6492 3.2635 583.27 0.0012299 46.455 0.088752 345.00 0.0028986 909.95 1027.3 2.8133 2.6492 3.2635 583.27 0.0012299 46.455 0.088752
283.38 5899.0 undefined 912.60 1030.5 2.8181 345.00 0.0028986 912.60 1030.5 2.8181 2.6526 3.2650 584.34 0.0011942 46.479 0.088909 345.00 0.0028986 912.60 1030.5 2.8181 2.6526 3.2650 584.34 0.0011942 46.479 0.088909
284.38 5926.6 undefined 915.26 1033.7 2.8228 345.00 0.0028986 915.26 1033.7 2.8228 2.6560 3.2666 585.40 0.0011589 46.503 0.089066 345.00 0.0028986 915.26 1033.7 2.8228 2.6560 3.2666 585.40 0.0011589 46.503 0.089066
285.38 5954.2 undefined 917.92 1036.9 2.8276 345.00 0.0028986 917.92 1036.9 2.8276 2.6594 3.2681 586.46 0.0011239 46.526 0.089223 345.00 0.0028986 917.92 1036.9 2.8276 2.6594 3.2681 586.46 0.0011239 46.526 0.089223
286.38 5981.9 undefined 920.58 1040.1 2.8324 345.00 0.0028986 920.58 1040.1 2.8324 2.6628 3.2697 587.52 0.0010892 46.550 0.089380 345.00 0.0028986 920.58 1040.1 2.8324 2.6628 3.2697 587.52 0.0010892 46.550 0.089380
287.38 6009.5 undefined 923.24 1043.3 2.8371 345.00 0.0028986 923.24 1043.3 2.8371 2.6662 3.2713 588.58 0.0010548 46.573 0.089538 345.00 0.0028986 923.24 1043.3 2.8371 2.6662 3.2713 588.58 0.0010548 46.573 0.089538
288.38 6037.1 undefined 925.91 1046.6 2.8419 345.00 0.0028986 925.91 1046.6 2.8419 2.6696 3.2728 589.63 0.0010208 46.597 0.089696 345.00 0.0028986 925.91 1046.6 2.8419 2.6696 3.2728 589.63 0.0010208 46.597 0.089696
289.38 6064.7 undefined 928.58 1049.8 2.8466 345.00 0.0028986 928.58 1049.8 2.8466 2.6730 3.2744 590.68 0.00098713 46.620 0.089855 345.00 0.0028986 928.58 1049.8 2.8466 2.6730 3.2744 590.68 0.00098713 46.620 0.089855
290.38 6092.3 undefined 931.26 1053.0 2.8514 345.00 0.0028986 931.26 1053.0 2.8514 2.6764 3.2761 591.73 0.00095376 46.644 0.090013 345.00 0.0028986 931.26 1053.0 2.8514 2.6764 3.2761 591.73 0.00095376 46.644 0.090013
291.38 6119.9 undefined 933.93 1056.2 2.8561 345.00 0.0028986 933.93 1056.2 2.8561 2.6798 3.2777 592.78 0.00092069 46.667 0.090172 345.00 0.0028986 933.93 1056.2 2.8561 2.6798 3.2777 592.78 0.00092069 46.667 0.090172
292.38 6147.5 undefined 936.62 1059.5 2.8609 345.00 0.0028986 936.62 1059.5 2.8609 2.6832 3.2793 593.82 0.00088794 46.690 0.090332 345.00 0.0028986 936.62 1059.5 2.8609 2.6832 3.2793 593.82 0.00088794 46.690 0.090332
293.38 6175.1 undefined 939.30 1062.7 2.8656 345.00 0.0028986 939.30 1062.7 2.8656 2.6866 3.2810 594.86 0.00085550 46.714 0.090491 345.00 0.0028986 939.30 1062.7 2.8656 2.6866 3.2810 594.86 0.00085550 46.714 0.090491
294.38 6202.7 undefined 941.99 1065.9 2.8704 345.00 0.0028986 941.99 1065.9 2.8704 2.6900 3.2826 595.90 0.00082336 46.737 0.090651 345.00 0.0028986 941.99 1065.9 2.8704 2.6900 3.2826 595.90 0.00082336 46.737 0.090651
295.38 6230.3 undefined 944.68 1069.2 2.8751 345.00 0.0028986 944.68 1069.2 2.8751 2.6933 3.2843 596.94 0.00079153 46.761 0.090811 345.00 0.0028986 944.68 1069.2 2.8751 2.6933 3.2843 596.94 0.00079153 46.761 0.090811
296.38 6257.9 undefined 947.38 1072.4 2.8798 345.00 0.0028986 947.38 1072.4 2.8798 2.6967 3.2860 597.97 0.00075999 46.784 0.090972 345.00 0.0028986 947.38 1072.4 2.8798 2.6967 3.2860 597.97 0.00075999 46.784 0.090972
297.38 6285.4 undefined 950.07 1075.7 2.8846 345.00 0.0028986 950.07 1075.7 2.8846 2.7001 3.2877 599.00 0.00072874 46.807 0.091132 345.00 0.0028986 950.07 1075.7 2.8846 2.7001 3.2877 599.00 0.00072874 46.807 0.091132
298.38 6313.0 undefined 952.78 1078.9 2.8893 345.00 0.0028986 952.78 1078.9 2.8893 2.7034 3.2894 600.03 0.00069778 46.830 0.091293 345.00 0.0028986 952.78 1078.9 2.8893 2.7034 3.2894 600.03 0.00069778 46.830 0.091293
299.38 6340.6 undefined 955.48 1082.2 2.8940 345.00 0.0028986 955.48 1082.2 2.8940 2.7068 3.2911 601.06 0.00066711 46.854 0.091455 345.00 0.0028986 955.48 1082.2 2.8940 2.7068 3.2911 601.06 0.00066711 46.854 0.091455
300.38 6368.1 undefined 958.19 1085.5 2.8988 345.00 0.0028986 958.19 1085.5 2.8988 2.7102 3.2928 602.08 0.00063672 46.877 0.091616 345.00 0.0028986 958.19 1085.5 2.8988 2.7102 3.2928 602.08 0.00063672 46.877 0.091616