Temperature (C) Pressure (psia) Quality (l+v) Internal Energy (l+v, kJ/kg) Enthalpy (l+v, kJ/kg) Entropy (l+v, J/g*K) Density (l, kg/m3) Volume (l, m3/kg) Internal Energy (l, kJ/kg) Enthalpy (l, kJ/kg) Entropy (l, J/g*K) Cv (l, J/g*K) Cp (l, J/g*K) Sound Spd. (l, m/s) Joule-Thomson (l, F/psia) Viscosity (l, uPa*s) Therm. Cond. (l, W/m*K) Density (v, kg/m3) Volume (v, m3/kg) Internal Energy (v, kJ/kg) Enthalpy (v, kJ/kg) Entropy (v, J/g*K) Cv (v, J/g*K) Cp (v, J/g*K) Sound Spd. (v, m/s) Joule-Thomson (v, F/psia) Viscosity (v, uPa*s) Therm. Cond. (v, W/m*K)
-187.62 2.4953e-08 2.5217e-10 -196.64 -196.64 -1.3959 733.13 0.0013640 -196.64 -196.64 -1.3959 1.3553 1.9158 2136.4 -0.0077592 10960. 0.20792 1.0669e-08 9.3732e+07 350.13 366.26 5.1858 0.69067 0.87923 143.28 6.1051 2.3259 0.0017061
-186.62 3.7339e-08 3.7294e-10 -194.73 -194.73 -1.3736 732.08 0.0013660 -194.73 -194.73 -1.3736 1.3539 1.9166 2129.6 -0.0077546 10073. 0.20765 1.5780e-08 6.3371e+07 350.82 367.14 5.1200 0.69462 0.88317 144.03 5.9178 2.3534 0.0017533
-185.62 5.5322e-08 5.4619e-10 -192.81 -192.81 -1.3516 731.04 0.0013679 -192.81 -192.81 -1.3516 1.3525 1.9174 2122.9 -0.0077498 9276.1 0.20737 2.3112e-08 4.3267e+07 351.52 368.02 5.0561 0.69857 0.88713 144.77 5.7383 2.3808 0.0018007
-184.62 8.1182e-08 7.9240e-10 -190.89 -190.89 -1.3298 730.00 0.0013699 -190.89 -190.89 -1.3298 1.3513 1.9182 2116.1 -0.0077448 8557.8 0.20708 3.3533e-08 2.9821e+07 352.22 368.91 4.9939 0.70253 0.89108 145.51 5.5662 2.4083 0.0018485
-183.62 1.1803e-07 1.1391e-09 -188.97 -188.97 -1.3083 728.96 0.0013718 -188.97 -188.97 -1.3083 1.3501 1.9191 2109.3 -0.0077395 7909.8 0.20678 4.8211e-08 2.0742e+07 352.92 369.81 4.9333 0.70648 0.89504 146.24 5.4011 2.4357 0.0018965
-182.62 1.7009e-07 1.6232e-09 -187.05 -187.05 -1.2869 727.92 0.0013738 -187.05 -187.05 -1.2869 1.3490 1.9201 2102.5 -0.0077340 7324.3 0.20647 6.8704e-08 1.4555e+07 353.63 370.70 4.8744 0.71043 0.89899 146.97 5.2426 2.4632 0.0019448
-181.62 2.4299e-07 2.2934e-09 -185.13 -185.13 -1.2658 726.88 0.0013757 -185.13 -185.13 -1.2658 1.3480 1.9210 2095.7 -0.0077283 6794.5 0.20616 9.7079e-08 1.0301e+07 354.35 371.60 4.8170 0.71438 0.90294 147.69 5.0904 2.4906 0.0019934
-180.62 3.4425e-07 3.2138e-09 -183.21 -183.21 -1.2450 725.85 0.0013777 -183.21 -183.21 -1.2450 1.3470 1.9220 2088.9 -0.0077225 6314.4 0.20584 1.3605e-07 7.3504e+06 355.06 372.51 4.7612 0.71833 0.90688 148.41 4.9442 2.5181 0.0020423
-179.62 4.8378e-07 4.4678e-09 -181.29 -181.29 -1.2243 724.81 0.0013797 -181.29 -181.29 -1.2243 1.3461 1.9231 2082.0 -0.0077164 5878.8 0.20551 1.8915e-07 5.2868e+06 355.78 373.42 4.7068 0.72227 0.91082 149.13 4.8038 2.5456 0.0020915
-178.62 6.7459e-07 6.1635e-09 -179.37 -179.37 -1.2038 723.78 0.0013816 -179.37 -179.37 -1.2038 1.3453 1.9241 2075.2 -0.0077102 5482.9 0.20517 2.6096e-07 3.8320e+06 356.51 374.33 4.6538 0.72620 0.91475 149.84 4.6688 2.5731 0.0021410
-177.62 9.3358e-07 8.4397e-09 -177.44 -177.44 -1.1836 722.75 0.0013836 -177.44 -177.44 -1.1836 1.3445 1.9252 2068.4 -0.0077039 5122.6 0.20483 3.5737e-07 2.7982e+06 357.23 375.25 4.6022 0.73012 0.91867 150.54 4.5390 2.6005 0.0021907
-176.62 1.2826e-06 1.1474e-08 -175.52 -175.52 -1.1635 721.72 0.0013856 -175.52 -175.52 -1.1635 1.3437 1.9263 2061.5 -0.0076973 4794.1 0.20447 4.8588e-07 2.0581e+06 357.97 376.17 4.5519 0.73403 0.92258 151.25 4.4142 2.6280 0.0022408
-175.62 1.7496e-06 1.5490e-08 -173.59 -173.59 -1.1437 720.69 0.0013876 -173.59 -173.59 -1.1437 1.3430 1.9274 2054.7 -0.0076907 4494.3 0.20411 6.5601e-07 1.5244e+06 358.70 377.09 4.5029 0.73792 0.92648 151.95 4.2941 2.6555 0.0022912
-174.62 2.3705e-06 2.0772e-08 -171.66 -171.66 -1.1240 719.66 0.0013895 -171.66 -171.66 -1.1240 1.3423 1.9286 2047.9 -0.0076838 4220.2 0.20375 8.7976e-07 1.1367e+06 359.44 378.02 4.4551 0.74181 0.93036 152.64 4.1784 2.6830 0.0023418
-173.62 3.1903e-06 2.7672e-08 -169.73 -169.73 -1.1045 718.64 0.0013915 -169.73 -169.73 -1.1045 1.3417 1.9298 2041.0 -0.0076769 3969.3 0.20338 1.1721e-06 8.5314e+05 360.19 378.95 4.4085 0.74568 0.93423 153.33 4.0671 2.7105 0.0023928
-172.62 4.2661e-06 3.6633e-08 -167.80 -167.80 -1.0852 717.61 0.0013935 -167.80 -167.80 -1.0852 1.3411 1.9310 2034.2 -0.0076698 3739.3 0.20300 1.5518e-06 6.4441e+05 360.93 379.89 4.3631 0.74953 0.93809 154.02 3.9599 2.7379 0.0024440
-171.62 5.6692e-06 4.8198e-08 -165.87 -165.87 -1.0661 716.58 0.0013955 -165.87 -165.87 -1.0661 1.3405 1.9322 2027.3 -0.0076625 3528.0 0.20261 2.0419e-06 4.8974e+05 361.69 380.83 4.3188 0.75337 0.94193 154.71 3.8566 2.7654 0.0024955
-170.62 7.4884e-06 6.3037e-08 -163.94 -163.94 -1.0472 715.56 0.0013975 -163.94 -163.94 -1.0472 1.3400 1.9334 2020.5 -0.0076552 3333.8 0.20222 2.6708e-06 3.7442e+05 362.44 381.77 4.2755 0.75720 0.94575 155.39 3.7570 2.7929 0.0025473
-169.62 9.8334e-06 8.1971e-08 -162.00 -162.00 -1.0284 714.54 0.0013995 -162.00 -162.00 -1.0284 1.3395 1.9347 2013.6 -0.0076477 3154.9 0.20182 3.4733e-06 2.8791e+05 363.20 382.72 4.2334 0.76100 0.94956 156.07 3.6609 2.8204 0.0025994
-168.62 1.2839e-05 1.0600e-07 -160.07 -160.07 -1.0098 713.52 0.0014015 -160.07 -160.07 -1.0098 1.3390 1.9359 2006.8 -0.0076401 2989.9 0.20141 4.4917e-06 2.2263e+05 363.96 383.67 4.1922 0.76479 0.95335 156.74 3.5683 2.8479 0.0026518
-167.62 1.6672e-05 1.3632e-07 -158.13 -158.13 -0.99134 712.49 0.0014035 -158.13 -158.13 -0.99134 1.3386 1.9372 2000.0 -0.0076323 2837.5 0.20100 5.7771e-06 1.7310e+05 364.73 384.63 4.1521 0.76856 0.95712 157.41 3.4790 2.8754 0.0027045
-166.62 2.1533e-05 1.7440e-07 -156.19 -156.19 -0.97306 711.47 0.0014055 -156.19 -156.19 -0.97306 1.3382 1.9385 1993.1 -0.0076245 2696.5 0.20058 7.3914e-06 1.3529e+05 365.50 385.59 4.1129 0.77232 0.96087 158.08 3.3927 2.9029 0.0027575
-165.62 2.7666e-05 2.2197e-07 -154.25 -154.25 -0.95494 710.45 0.0014075 -154.25 -154.25 -0.95494 1.3378 1.9398 1986.3 -0.0076165 2566.0 0.20016 9.4084e-06 1.0629e+05 366.27 386.55 4.0746 0.77605 0.96460 158.75 3.3095 2.9304 0.0028108
-164.62 3.5367e-05 2.8111e-07 -152.31 -152.31 -0.93698 709.44 0.0014096 -152.31 -152.31 -0.93698 1.3375 1.9411 1979.4 -0.0076084 2444.9 0.19973 1.1916e-05 83918. 367.05 387.52 4.0372 0.77976 0.96832 159.41 3.2291 2.9579 0.0028643
-163.62 4.4989e-05 3.5430e-07 -150.37 -150.37 -0.91917 708.42 0.0014116 -150.37 -150.37 -0.91917 1.3371 1.9424 1972.6 -0.0076002 2332.3 0.19930 1.5020e-05 66577. 367.83 388.49 4.0008 0.78346 0.97201 160.07 3.1514 2.9854 0.0029182
-162.62 5.6956e-05 4.4445e-07 -148.43 -148.43 -0.90151 707.40 0.0014136 -148.43 -148.43 -0.90151 1.3368 1.9437 1965.8 -0.0075919 2227.7 0.19886 1.8844e-05 53068. 368.62 389.46 3.9651 0.78713 0.97569 160.72 3.0764 3.0129 0.0029723
-161.62 7.1773e-05 5.5500e-07 -146.48 -146.48 -0.88399 706.38 0.0014157 -146.48 -146.48 -0.88400 1.3365 1.9451 1959.0 -0.0075834 2130.2 0.19841 2.3533e-05 42494. 369.41 390.44 3.9304 0.79079 0.97935 161.38 3.0038 3.0404 0.0030268
-160.62 9.0036e-05 6.8998e-07 -144.54 -144.54 -0.86662 705.37 0.0014177 -144.54 -144.54 -0.86663 1.3363 1.9465 1952.1 -0.0075748 2039.2 0.19796 2.9258e-05 34178. 370.20 391.42 3.8964 0.79443 0.98298 162.03 2.9337 3.0679 0.0030815
-159.62 0.00011245 8.5409e-07 -142.59 -142.59 -0.84940 704.35 0.0014197 -142.59 -142.59 -0.84940 1.3360 1.9478 1945.3 -0.0075661 1954.2 0.19751 3.6221e-05 27609. 371.00 392.40 3.8632 0.79805 0.98660 162.68 2.8658 3.0955 0.0031365
-158.62 0.00013985 1.0528e-06 -140.64 -140.64 -0.83231 703.34 0.0014218 -140.64 -140.64 -0.83231 1.3358 1.9492 1938.5 -0.0075573 1874.8 0.19705 4.4652e-05 22395. 371.80 393.39 3.8307 0.80164 0.99020 163.32 2.8002 3.1230 0.0031918
-157.62 0.00017320 1.2925e-06 -138.69 -138.69 -0.81535 702.32 0.0014238 -138.69 -138.69 -0.81536 1.3356 1.9506 1931.7 -0.0075484 1800.3 0.19658 5.4822e-05 18241. 372.60 394.38 3.7990 0.80522 0.99378 163.96 2.7367 3.1505 0.0032474
-156.62 0.00021364 1.5804e-06 -136.74 -136.74 -0.79853 701.31 0.0014259 -136.74 -136.74 -0.79854 1.3354 1.9520 1924.9 -0.0075393 1730.5 0.19611 6.7040e-05 14916. 373.41 395.38 3.7680 0.80878 0.99734 164.60 2.6752 3.1780 0.0033033
-155.62 0.00026248 1.9250e-06 -134.79 -134.79 -0.78185 700.30 0.0014280 -134.79 -134.79 -0.78185 1.3352 1.9534 1918.1 -0.0075302 1664.9 0.19564 8.1666e-05 12245. 374.22 396.38 3.7377 0.81232 1.0009 165.24 2.6157 3.2055 0.0033595
-154.62 0.00032125 2.3360e-06 -132.83 -132.83 -0.76529 699.29 0.0014300 -132.83 -132.83 -0.76530 1.3350 1.9548 1911.3 -0.0075209 1603.3 0.19516 9.9109e-05 10090. 375.03 397.38 3.7081 0.81585 1.0044 165.87 2.5580 3.2330 0.0034160
-153.62 0.00039171 2.8243e-06 -130.88 -130.88 -0.74886 698.27 0.0014321 -130.88 -130.88 -0.74887 1.3349 1.9563 1904.5 -0.0075114 1545.3 0.19468 0.00011984 8344.6 375.85 398.39 3.6792 0.81935 1.0079 166.50 2.5022 3.2606 0.0034727
-152.62 0.00047590 3.4026e-06 -128.92 -128.92 -0.73255 697.26 0.0014342 -128.92 -128.92 -0.73256 1.3348 1.9577 1897.8 -0.0075019 1490.6 0.19419 0.00014439 6925.9 376.67 399.40 3.6509 0.82284 1.0114 167.13 2.4481 3.2881 0.0035298
-151.62 0.00057613 4.0849e-06 -126.96 -126.96 -0.71636 696.25 0.0014363 -126.96 -126.96 -0.71638 1.3346 1.9592 1891.0 -0.0074922 1438.9 0.19370 0.00017336 5768.4 377.49 400.41 3.6232 0.82631 1.0149 167.76 2.3957 3.3156 0.0035872
-150.62 0.00069507 4.8876e-06 -125.00 -125.00 -0.70030 695.24 0.0014384 -125.00 -125.00 -0.70032 1.3345 1.9606 1884.2 -0.0074824 1390.2 0.19320 0.00020744 4820.7 378.32 401.42 3.5962 0.82976 1.0183 168.38 2.3448 3.3431 0.0036448
-149.62 0.00083574 5.8287e-06 -123.04 -123.04 -0.68435 694.23 0.0014404 -123.04 -123.04 -0.68438 1.3345 1.9621 1877.4 -0.0074724 1344.0 0.19270 0.00024740 4042.0 379.15 402.44 3.5697 0.83319 1.0218 169.00 2.2956 3.3706 0.0037027
-148.62 0.0010016 6.9287e-06 -121.08 -121.08 -0.66852 693.22 0.0014425 -121.08 -121.08 -0.66855 1.3344 1.9636 1870.7 -0.0074623 1300.3 0.19220 0.00029412 3400.0 379.99 403.47 3.5438 0.83661 1.0252 169.62 2.2478 3.3982 0.0037610
-147.62 0.0011965 8.2104e-06 -119.11 -119.11 -0.65280 692.21 0.0014447 -119.11 -119.11 -0.65284 1.3343 1.9651 1863.9 -0.0074521 1258.9 0.19169 0.00034856 2869.0 380.83 404.49 3.5185 0.84001 1.0286 170.24 2.2014 3.4257 0.0038195
-146.62 0.0014249 9.6995e-06 -117.14 -117.14 -0.63720 691.20 0.0014468 -117.15 -117.15 -0.63724 1.3343 1.9666 1857.2 -0.0074417 1219.6 0.19117 0.00041181 2428.3 381.67 405.52 3.4938 0.84340 1.0320 170.85 2.1565 3.4532 0.0038783
-145.62 0.0016917 1.1425e-05 -115.18 -115.18 -0.62170 690.19 0.0014489 -115.18 -115.18 -0.62175 1.3343 1.9682 1850.4 -0.0074312 1182.3 0.19066 0.00048510 2061.4 382.51 406.56 3.4695 0.84677 1.0353 171.46 2.1128 3.4807 0.0039374
-144.62 0.0020026 1.3417e-05 -113.21 -113.21 -0.60632 689.18 0.0014510 -113.21 -113.21 -0.60637 1.3343 1.9697 1843.7 -0.0074206 1146.8 0.19014 0.00056976 1755.1 383.36 407.59 3.4458 0.85012 1.0387 172.07 2.0705 3.5082 0.0039967
-143.62 0.0023637 1.5713e-05 -111.23 -111.23 -0.59104 688.17 0.0014531 -111.24 -111.24 -0.59110 1.3343 1.9713 1836.9 -0.0074098 1113.0 0.18962 0.00066731 1498.6 384.21 408.63 3.4226 0.85346 1.0420 172.68 2.0294 3.5358 0.0040564
-142.62 0.0027820 1.8351e-05 -109.26 -109.26 -0.57586 687.16 0.0014553 -109.27 -109.27 -0.57593 1.3343 1.9728 1830.2 -0.0073988 1080.8 0.18909 0.00077939 1283.1 385.07 409.68 3.3999 0.85679 1.0454 173.28 1.9896 3.5633 0.0041164
-141.62 0.0032653 2.1373e-05 -107.29 -107.29 -0.56078 686.15 0.0014574 -107.30 -107.30 -0.56087 1.3343 1.9744 1823.5 -0.0073878 1050.1 0.18856 0.00090784 1101.5 385.93 410.72 3.3777 0.86011 1.0487 173.88 1.9508 3.5908 0.0041766
-140.62 0.0038222 2.4828e-05 -105.31 -105.31 -0.54581 685.14 0.0014596 -105.32 -105.32 -0.54591 1.3344 1.9760 1816.7 -0.0073765 1020.7 0.18803 0.0010547 948.16 386.79 411.77 3.3560 0.86341 1.0520 174.48 1.9133 3.6183 0.0042372
-139.62 0.0044623 2.8766e-05 -103.33 -103.33 -0.53094 684.13 0.0014617 -103.34 -103.34 -0.53105 1.3344 1.9776 1810.0 -0.0073651 992.74 0.18749 0.0012221 818.26 387.65 412.83 3.3347 0.86670 1.0553 175.08 1.8768 3.6459 0.0042980
-138.62 0.0051963 3.3246e-05 -101.35 -101.35 -0.51616 683.12 0.0014639 -101.37 -101.37 -0.51629 1.3345 1.9792 1803.3 -0.0073536 965.97 0.18695 0.0014125 707.94 388.52 413.88 3.3139 0.86998 1.0586 175.67 1.8413 3.6734 0.0043592
-137.62 0.0060358 3.8329e-05 -99.367 -99.366 -0.50148 682.11 0.0014660 -99.386 -99.386 -0.50162 1.3346 1.9808 1796.6 -0.0073419 940.35 0.18641 0.0016287 614.00 389.39 414.94 3.2935 0.87325 1.0619 176.26 1.8069 3.7009 0.0044206
-136.62 0.0069938 4.4083e-05 -97.383 -97.382 -0.48689 681.10 0.0014682 -97.404 -97.404 -0.48705 1.3347 1.9825 1789.9 -0.0073301 915.81 0.18586 0.0018733 533.80 390.26 416.00 3.2735 0.87650 1.0651 176.85 1.7734 3.7284 0.0044823
-135.62 0.0080843 5.0583e-05 -95.397 -95.395 -0.47239 680.09 0.0014704 -95.421 -95.421 -0.47258 1.3348 1.9841 1783.2 -0.0073180 892.30 0.18531 0.0021497 465.17 391.14 417.07 3.2540 0.87975 1.0684 177.44 1.7409 3.7559 0.0045443
-134.62 0.0093230 5.7907e-05 -93.408 -93.406 -0.45798 679.08 0.0014726 -93.436 -93.436 -0.45820 1.3350 1.9858 1776.5 -0.0073059 869.75 0.18476 0.0024613 406.30 392.02 418.14 3.2348 0.88299 1.0716 178.02 1.7093 3.7834 0.0046066
-133.62 0.010727 6.6145e-05 -91.417 -91.416 -0.44367 678.07 0.0014748 -91.450 -91.449 -0.44391 1.3351 1.9875 1769.8 -0.0072935 848.11 0.18421 0.0028116 355.67 392.91 419.21 3.2161 0.88622 1.0749 178.61 1.6786 3.8109 0.0046691
-132.62 0.012315 7.5388e-05 -89.425 -89.423 -0.42943 677.06 0.0014770 -89.461 -89.461 -0.42971 1.3353 1.9892 1763.1 -0.0072810 827.32 0.18365 0.0032049 312.03 393.79 420.29 3.1977 0.88944 1.0781 179.19 1.6488 3.8385 0.0047320
-131.62 0.014106 8.5740e-05 -87.430 -87.427 -0.41529 676.04 0.0014792 -87.471 -87.471 -0.41560 1.3354 1.9909 1756.4 -0.0072684 807.34 0.18309 0.0036453 274.33 394.68 421.36 3.1798 0.89266 1.0813 179.76 1.6197 3.8660 0.0047951
-130.62 0.016124 9.7309e-05 -85.433 -85.430 -0.40123 675.03 0.0014814 -85.479 -85.479 -0.40157 1.3356 1.9926 1749.7 -0.0072555 788.12 0.18253 0.0041375 241.69 395.58 422.44 3.1622 0.89586 1.0846 180.34 1.5915 3.8935 0.0048586
-129.62 0.018392 0.00011021 -83.433 -83.430 -0.38725 674.02 0.0014836 -83.486 -83.486 -0.38763 1.3358 1.9944 1743.0 -0.0072425 769.63 0.18196 0.0046867 213.37 396.47 423.53 3.1450 0.89906 1.0878 180.91 1.5641 3.9210 0.0049223
-128.62 0.020935 0.00012458 -81.431 -81.427 -0.37334 673.01 0.0014859 -81.491 -81.490 -0.37378 1.3360 1.9961 1736.3 -0.0072294 751.83 0.18140 0.0052981 188.75 397.37 424.62 3.1281 0.90226 1.0910 181.48 1.5374 3.9485 0.0049863
-127.62 0.023783 0.00014055 -79.426 -79.422 -0.35952 672.00 0.0014881 -79.494 -79.493 -0.36001 1.3363 1.9979 1729.6 -0.0072160 734.67 0.18083 0.0059776 167.29 398.27 425.71 3.1116 0.90545 1.0942 182.05 1.5114 3.9760 0.0050506
-126.62 0.026966 0.00015825 -77.419 -77.415 -0.34578 670.98 0.0014904 -77.495 -77.495 -0.34632 1.3365 1.9997 1722.9 -0.0072025 718.14 0.18025 0.0067313 148.56 399.18 426.80 3.0954 0.90863 1.0974 182.62 1.4861 4.0035 0.0051152
-125.62 0.030515 0.00017786 -75.410 -75.404 -0.33211 669.97 0.0014926 -75.494 -75.494 -0.33272 1.3368 2.0015 1716.2 -0.0071888 702.18 0.17968 0.0075660 132.17 400.09 427.89 3.0795 0.91181 1.1006 183.18 1.4615 4.0310 0.0051800
-124.62 0.034467 0.00019953 -73.397 -73.391 -0.31851 668.95 0.0014949 -73.492 -73.492 -0.31919 1.3371 2.0033 1709.5 -0.0071749 686.79 0.17910 0.0084885 117.81 401.00 428.99 3.0640 0.91499 1.1038 183.74 1.4375 4.0584 0.0052452
-123.62 0.038859 0.00022343 -71.382 -71.375 -0.30499 667.94 0.0014971 -71.488 -71.487 -0.30574 1.3374 2.0051 1702.8 -0.0071609 671.93 0.17852 0.0095065 105.19 401.91 430.10 3.0488 0.91816 1.1070 184.30 1.4141 4.0859 0.0053106
-122.62 0.043731 0.00024977 -69.364 -69.356 -0.29154 666.92 0.0014994 -69.482 -69.481 -0.29237 1.3377 2.0070 1696.2 -0.0071466 657.57 0.17794 0.010628 94.092 402.83 431.20 3.0339 0.92134 1.1102 184.86 1.3913 4.1134 0.0053764
-121.62 0.049128 0.00027872 -67.342 -67.334 -0.27815 665.91 0.0015017 -67.474 -67.473 -0.27907 1.3380 2.0089 1689.5 -0.0071322 643.70 0.17736 0.011861 84.309 403.75 432.31 3.0193 0.92451 1.1134 185.41 1.3691 4.1409 0.0054424
-120.62 0.055096 0.00031051 -65.318 -65.308 -0.26484 664.89 0.0015040 -65.464 -65.463 -0.26585 1.3384 2.0107 1682.8 -0.0071176 630.28 0.17678 0.013215 75.669 404.67 433.42 3.0050 0.92767 1.1166 185.96 1.3475 4.1683 0.0055087
-119.62 0.061684 0.00034536 -63.290 -63.280 -0.25159 663.87 0.0015063 -63.452 -63.452 -0.25271 1.3387 2.0126 1676.1 -0.0071028 617.30 0.17619 0.014700 68.027 405.60 434.53 2.9909 0.93084 1.1198 186.51 1.3264 4.1958 0.0055752
-118.62 0.068946 0.00038351 -61.259 -61.247 -0.23840 662.86 0.0015086 -61.439 -61.438 -0.23963 1.3391 2.0146 1669.4 -0.0070878 604.74 0.17560 0.016325 61.255 406.53 435.64 2.9772 0.93401 1.1231 187.06 1.3058 4.2233 0.0056421
-117.62 0.076937 0.00042519 -59.225 -59.211 -0.22528 661.84 0.0015109 -59.423 -59.422 -0.22663 1.3395 2.0165 1662.8 -0.0070726 592.58 0.17501 0.018101 55.245 407.46 436.76 2.9638 0.93718 1.1263 187.60 1.2857 4.2507 0.0057092
-116.62 0.085718 0.00047068 -57.186 -57.172 -0.21221 660.82 0.0015133 -57.406 -57.405 -0.21370 1.3400 2.0184 1656.1 -0.0070573 580.80 0.17442 0.020040 49.901 408.39 437.88 2.9506 0.94035 1.1295 188.14 1.2660 4.2782 0.0057767
-115.62 0.095353 0.00052025 -55.145 -55.128 -0.19921 659.80 0.0015156 -55.386 -55.385 -0.20084 1.3404 2.0204 1649.4 -0.0070417 569.38 0.17383 0.022152 45.142 409.33 439.01 2.9377 0.94352 1.1327 188.68 1.2468 4.3056 0.0058444
-114.62 0.10591 0.00057418 -53.099 -53.080 -0.18626 658.78 0.0015180 -53.365 -53.364 -0.18805 1.3409 2.0224 1642.7 -0.0070260 558.32 0.17323 0.024451 40.898 410.27 440.13 2.9250 0.94669 1.1360 189.22 1.2281 4.3330 0.0059123
-113.62 0.11746 0.00063279 -51.049 -51.029 -0.17337 657.76 0.0015203 -51.342 -51.340 -0.17533 1.3413 2.0244 1636.0 -0.0070100 547.59 0.17264 0.026949 37.107 411.21 441.26 2.9126 0.94987 1.1392 189.75 1.2097 4.3604 0.0059806
-112.62 0.13008 0.00069639 -48.995 -48.972 -0.16054 656.73 0.0015227 -49.316 -49.315 -0.16267 1.3418 2.0264 1629.3 -0.0069938 537.18 0.17204 0.029661 33.715 412.16 442.39 2.9005 0.95305 1.1424 190.28 1.1918 4.3879 0.0060491
-111.62 0.14384 0.00076531 -46.936 -46.912 -0.14775 655.71 0.0015251 -47.289 -47.287 -0.15008 1.3424 2.0285 1622.7 -0.0069774 527.08 0.17144 0.032600 30.675 413.10 443.53 2.8885 0.95623 1.1457 190.81 1.1742 4.4153 0.0061180
-110.62 0.15884 0.00083991 -44.873 -44.846 -0.13502 654.69 0.0015274 -45.259 -45.258 -0.13755 1.3429 2.0305 1616.0 -0.0069609 517.28 0.17084 0.035781 27.948 414.06 444.66 2.8769 0.95942 1.1490 191.34 1.1570 4.4427 0.0061871
-109.62 0.17516 0.00092054 -42.806 -42.776 -0.12234 653.66 0.0015298 -43.228 -43.226 -0.12509 1.3435 2.0326 1609.3 -0.0069441 507.76 0.17024 0.039220 25.497 415.01 445.80 2.8654 0.96261 1.1522 191.86 1.1402 4.4701 0.0062564
-108.62 0.19290 0.0010076 -40.733 -40.700 -0.10970 652.64 0.0015322 -41.194 -41.192 -0.11269 1.3441 2.0347 1602.6 -0.0069271 498.51 0.16964 0.042933 23.292 415.96 446.94 2.8542 0.96581 1.1555 192.38 1.1236 4.4974 0.0063261
-107.62 0.21215 0.0011015 -38.656 -38.619 -0.097115 651.61 0.0015347 -39.158 -39.156 -0.10036 1.3447 2.0369 1595.9 -0.0069098 489.52 0.16903 0.046937 21.305 416.92 448.09 2.8433 0.96901 1.1588 192.90 1.1075 4.5248 0.0063960
-106.62 0.23301 0.0012026 -36.573 -36.533 -0.084570 650.58 0.0015371 -37.120 -37.118 -0.088082 1.3453 2.0390 1589.2 -0.0068924 480.79 0.16843 0.051250 19.512 417.88 449.23 2.8325 0.97222 1.1621 193.41 1.0916 4.5522 0.0064662
-105.62 0.25561 0.0013113 -34.485 -34.441 -0.072068 649.55 0.0015395 -35.080 -35.078 -0.075868 1.3460 2.0412 1582.6 -0.0068747 472.30 0.16782 0.055891 17.892 418.85 450.38 2.8220 0.97544 1.1655 193.93 1.0760 4.5795 0.0065367
-104.62 0.28004 0.0014282 -32.391 -32.343 -0.059608 648.52 0.0015420 -33.038 -33.035 -0.063714 1.3467 2.0434 1575.9 -0.0068569 464.04 0.16721 0.060878 16.426 419.81 451.53 2.8116 0.97867 1.1688 194.44 1.0608 4.6069 0.0066074
-103.62 0.30643 0.0015536 -30.292 -30.239 -0.047186 647.49 0.0015444 -30.994 -30.991 -0.051619 1.3474 2.0456 1569.2 -0.0068387 456.00 0.16660 0.066231 15.099 420.78 452.68 2.8015 0.98191 1.1722 194.94 1.0458 4.6342 0.0066785
-102.62 0.33490 0.0016881 -28.186 -28.129 -0.034802 646.46 0.0015469 -28.947 -28.944 -0.039582 1.3481 2.0478 1562.5 -0.0068204 448.18 0.16600 0.071971 13.894 421.75 453.84 2.7916 0.98516 1.1755 195.44 1.0310 4.6615 0.0067498
-101.62 0.36558 0.0018322 -26.075 -26.012 -0.022454 645.43 0.0015494 -26.898 -26.894 -0.027602 1.3489 2.0501 1555.8 -0.0068018 440.57 0.16539 0.078120 12.801 422.73 454.99 2.7818 0.98841 1.1789 195.95 1.0166 4.6888 0.0068213
-100.62 0.39862 0.0019863 -23.956 -23.888 -0.010140 644.39 0.0015519 -24.847 -24.843 -0.015678 1.3497 2.0524 1549.1 -0.0067830 433.16 0.16478 0.084699 11.807 423.70 456.15 2.7723 0.99168 1.1823 196.44 1.0024 4.7161 0.0068932
-99.625 0.43414 0.0021510 -21.831 -21.756 0.0021411 643.36 0.0015544 -22.794 -22.789 -0.0038103 1.3505 2.0547 1542.4 -0.0067639 425.95 0.16416 0.091731 10.901 424.68 457.31 2.7630 0.99496 1.1858 196.94 0.98838 4.7434 0.0069653
-98.625 0.47230 0.0023269 -19.699 -19.618 0.014392 642.32 0.0015569 -20.738 -20.733 0.0080027 1.3514 2.0570 1535.7 -0.0067447 418.92 0.16355 0.099240 10.077 425.66 458.48 2.7538 0.99825 1.1892 197.43 0.97464 4.7707 0.0070377
-97.625 0.51325 0.0025144 -17.560 -17.472 0.026614 641.28 0.0015594 -18.680 -18.674 0.019762 1.3522 2.0594 1529.0 -0.0067251 412.07 0.16294 0.10725 9.3239 426.65 459.64 2.7448 1.0016 1.1927 197.92 0.96112 4.7979 0.0071103
-96.625 0.55714 0.0027143 -15.414 -15.318 0.038808 640.24 0.0015619 -16.620 -16.614 0.031467 1.3531 2.0618 1522.3 -0.0067053 405.39 0.16233 0.11579 8.6365 427.63 460.81 2.7360 1.0049 1.1962 198.40 0.94783 4.8251 0.0071832
-95.625 0.60416 0.0029272 -13.259 -13.155 0.050977 639.20 0.0015645 -14.557 -14.550 0.043120 1.3540 2.0642 1515.7 -0.0066853 398.88 0.16171 0.12488 8.0078 428.62 461.98 2.7274 1.0082 1.1997 198.88 0.93475 4.8524 0.0072564
-94.625 0.65446 0.0031535 -11.097 -10.984 0.063123 638.16 0.0015670 -12.491 -12.484 0.054721 1.3550 2.0667 1509.0 -0.0066650 392.53 0.16110 0.13455 7.4323 429.61 463.15 2.7189 1.0116 1.2032 199.36 0.92188 4.8796 0.0073299
-93.625 0.70822 0.0033940 -8.9268 -8.8048 0.075246 637.12 0.0015696 -10.424 -10.416 0.066271 1.3560 2.0691 1502.3 -0.0066444 386.34 0.16048 0.14482 6.9050 430.60 464.32 2.7107 1.0149 1.2068 199.83 0.90921 4.9068 0.0074036
-92.625 0.76564 0.0036494 -6.7480 -6.6160 0.087349 636.07 0.0015722 -8.3535 -8.3452 0.077771 1.3570 2.0716 1495.6 -0.0066236 380.31 0.15987 0.15573 6.4212 431.60 465.49 2.7025 1.0183 1.2104 200.30 0.89673 4.9340 0.0074776
-91.625 0.82689 0.0039203 -4.5603 -4.4178 0.099434 635.02 0.0015747 -6.2808 -6.2719 0.089220 1.3580 2.0742 1488.9 -0.0066025 374.41 0.15925 0.16731 5.9769 432.59 466.67 2.6946 1.0217 1.2140 200.77 0.88445 4.9611 0.0075518
-90.625 0.89218 0.0042075 -2.3636 -2.2098 0.11150 633.98 0.0015773 -4.2056 -4.1959 0.10062 1.3591 2.0767 1482.2 -0.0065811 368.66 0.15864 0.17958 5.5685 433.59 467.84 2.6868 1.0251 1.2177 201.24 0.87236 4.9883 0.0076263
-89.625 0.96172 0.0045115 -0.15760 0.0081663 0.12356 632.93 0.0015800 -2.1279 -2.1174 0.11197 1.3602 2.0793 1475.5 -0.0065595 363.05 0.15802 0.19258 5.1928 434.59 469.02 2.6791 1.0285 1.2213 201.70 0.86045 5.0154 0.0077011
-88.625 1.0357 0.0048332 2.0580 2.2366 0.13560 631.88 0.0015826 -0.047516 -0.036215 0.12328 1.3613 2.0819 1468.8 -0.0065375 357.56 0.15740 0.20633 4.8466 435.59 470.20 2.6717 1.0320 1.2250 202.15 0.84873 5.0425 0.0077761
-87.625 1.1144 0.0051734 4.2836 4.4757 0.14762 630.83 0.0015852 2.0355 2.0476 0.13454 1.3625 2.0846 1462.1 -0.0065153 352.21 0.15679 0.22087 4.5276 436.60 471.39 2.6643 1.0354 1.2288 202.61 0.83718 5.0696 0.0078514
-86.625 1.1979 0.0055328 6.5194 6.7259 0.15964 629.77 0.0015879 4.1211 4.1342 0.14575 1.3637 2.0873 1455.4 -0.0064928 346.98 0.15617 0.23623 4.2331 437.61 472.57 2.6571 1.0389 1.2325 203.06 0.82580 5.0967 0.0079270
-85.625 1.2866 0.0059121 8.7658 8.9876 0.17165 628.72 0.0015905 6.2094 6.2235 0.15691 1.3649 2.0900 1448.8 -0.0064701 341.87 0.15555 0.25245 3.9612 438.61 473.75 2.6501 1.0424 1.2363 203.50 0.81460 5.1237 0.0080028
-84.625 1.3806 0.0063123 11.023 11.261 0.18366 627.66 0.0015932 8.3004 8.3155 0.16803 1.3661 2.0927 1442.1 -0.0064470 336.87 0.15494 0.26956 3.7097 439.63 474.94 2.6432 1.0460 1.2402 203.95 0.80356 5.1508 0.0080789
-83.625 1.4803 0.0067340 13.291 13.547 0.19566 626.60 0.0015959 10.394 10.410 0.17911 1.3674 2.0955 1435.4 -0.0064236 331.99 0.15432 0.28760 3.4771 440.64 476.13 2.6364 1.0495 1.2440 204.38 0.79269 5.1778 0.0081553
-82.625 1.5858 0.0071783 15.571 15.845 0.20766 625.54 0.0015986 12.491 12.508 0.19014 1.3687 2.0983 1428.7 -0.0063999 327.22 0.15370 0.30659 3.2616 441.65 477.31 2.6298 1.0531 1.2479 204.82 0.78199 5.2048 0.0082319
-81.625 1.6975 0.0076458 17.863 18.156 0.21965 624.48 0.0016013 14.590 14.609 0.20113 1.3700 2.1012 1422.0 -0.0063759 322.55 0.15309 0.32659 3.0619 442.67 478.50 2.6233 1.0567 1.2519 205.25 0.77144 5.2318 0.0083088
-80.625 1.8155 0.0081376 20.167 20.480 0.23165 623.42 0.0016041 16.692 16.712 0.21208 1.3714 2.1041 1415.4 -0.0063516 317.99 0.15247 0.34763 2.8766 443.69 479.70 2.6169 1.0603 1.2558 205.67 0.76106 5.2587 0.0083860
-79.625 1.9402 0.0086545 22.483 22.818 0.24365 622.36 0.0016068 18.797 18.819 0.22299 1.3728 2.1070 1408.7 -0.0063270 313.52 0.15186 0.36974 2.7046 444.71 480.89 2.6106 1.0639 1.2598 206.10 0.75083 5.2857 0.0084634
-78.625 2.0718 0.0091974 24.812 25.169 0.25566 621.29 0.0016096 20.905 20.928 0.23385 1.3742 2.1099 1402.0 -0.0063021 309.15 0.15124 0.39296 2.5448 445.73 482.08 2.6045 1.0676 1.2639 206.51 0.74076 5.3126 0.0085411
-77.625 2.2107 0.0097673 27.155 27.536 0.26767 620.22 0.0016123 23.016 23.040 0.24468 1.3757 2.1129 1395.3 -0.0062768 304.88 0.15062 0.41735 2.3961 446.75 483.27 2.5985 1.0712 1.2680 206.93 0.73084 5.3395 0.0086190
-76.625 2.3571 0.010365 29.510 29.917 0.27968 619.15 0.0016151 25.130 25.156 0.25546 1.3772 2.1159 1388.7 -0.0062512 300.69 0.15001 0.44292 2.2577 447.78 484.47 2.5926 1.0749 1.2721 207.34 0.72107 5.3664 0.0086972
-75.625 2.5113 0.010992 31.880 32.313 0.29171 618.08 0.0016179 27.247 27.275 0.26620 1.3787 2.1190 1382.0 -0.0062253 296.59 0.14939 0.46974 2.1288 448.81 485.67 2.5869 1.0787 1.2762 207.74 0.71146 5.3933 0.0087757
-74.625 2.6736 0.011648 34.264 34.725 0.30375 617.01 0.0016207 29.366 29.396 0.27691 1.3802 2.1221 1375.4 -0.0061990 292.58 0.14878 0.49783 2.0087 449.83 486.86 2.5812 1.0824 1.2804 208.14 0.70200 5.4201 0.0088544
-73.625 2.8444 0.012336 36.663 37.153 0.31580 615.93 0.0016236 31.489 31.521 0.28758 1.3818 2.1252 1368.7 -0.0061724 288.65 0.14816 0.52725 1.8966 450.86 488.06 2.5757 1.0862 1.2847 208.54 0.69268 5.4469 0.0089334
-72.625 3.0240 0.013055 39.076 39.597 0.32787 614.85 0.0016264 33.615 33.649 0.29821 1.3834 2.1284 1362.0 -0.0061454 284.81 0.14755 0.55804 1.7920 451.90 489.26 2.5703 1.0900 1.2889 208.93 0.68351 5.4737 0.0090126
-71.625 3.2127 0.013808 41.505 42.059 0.33995 613.78 0.0016293 35.745 35.781 0.30880 1.3851 2.1316 1355.4 -0.0061181 281.03 0.14694 0.59024 1.6942 452.93 490.46 2.5650 1.0938 1.2932 209.32 0.67448 5.5005 0.0090922
-70.625 3.4108 0.014594 43.949 44.537 0.35205 612.69 0.0016321 37.877 37.915 0.31935 1.3867 2.1349 1348.7 -0.0060904 277.34 0.14632 0.62390 1.6028 453.96 491.66 2.5598 1.0976 1.2976 209.70 0.66560 5.5273 0.0091720
-69.625 3.6187 0.015416 46.410 47.034 0.36417 611.61 0.0016350 40.013 40.053 0.32987 1.3884 2.1382 1342.1 -0.0060624 273.72 0.14571 0.65906 1.5173 455.00 492.86 2.5547 1.1015 1.3020 210.08 0.65687 5.5540 0.0092520
-68.625 3.8367 0.016273 48.887 49.548 0.37631 610.53 0.0016379 42.152 42.195 0.34036 1.3902 2.1415 1335.5 -0.0060339 270.17 0.14510 0.69577 1.4372 456.04 494.06 2.5497 1.1054 1.3064 210.45 0.64827 5.5807 0.0093324
-67.625 4.0652 0.017168 51.381 52.081 0.38847 609.44 0.0016409 44.294 44.340 0.35080 1.3919 2.1449 1328.8 -0.0060051 266.69 0.14449 0.73408 1.3622 457.08 495.26 2.5448 1.1093 1.3109 210.82 0.63981 5.6074 0.0094130
-66.625 4.3046 0.018102 53.891 54.633 0.40066 608.35 0.0016438 46.439 46.488 0.36122 1.3937 2.1483 1322.2 -0.0059760 263.28 0.14388 0.77404 1.2919 458.12 496.46 2.5400 1.1133 1.3154 211.18 0.63150 5.6341 0.0094939
-65.625 4.5551 0.019075 56.420 57.205 0.41287 607.26 0.0016467 48.588 48.640 0.37160 1.3955 2.1518 1315.6 -0.0059464 259.93 0.14327 0.81570 1.2259 459.16 497.67 2.5353 1.1172 1.3200 211.54 0.62332 5.6608 0.0095750
-64.625 4.8173 0.020089 58.966 59.796 0.42511 606.16 0.0016497 50.740 50.795 0.38195 1.3974 2.1553 1308.9 -0.0059164 256.65 0.14266 0.85910 1.1640 460.21 498.87 2.5307 1.1212 1.3246 211.89 0.61527 5.6874 0.0096564
-63.625 5.0915 0.021144 61.531 62.408 0.43738 605.07 0.0016527 52.896 52.954 0.39226 1.3993 2.1588 1302.3 -0.0058861 253.42 0.14205 0.90429 1.1058 461.25 500.07 2.5262 1.1252 1.3293 212.24 0.60736 5.7140 0.0097382
-62.625 5.3781 0.022243 64.114 65.041 0.44968 603.97 0.0016557 55.055 55.117 0.40254 1.4012 2.1624 1295.7 -0.0058553 250.26 0.14144 0.95134 1.0511 462.30 501.28 2.5218 1.1293 1.3340 212.58 0.59958 5.7406 0.0098201
-61.625 5.6774 0.023387 66.716 67.695 0.46201 602.87 0.0016587 57.218 57.283 0.41279 1.4031 2.1660 1289.1 -0.0058241 247.16 0.14084 1.0003 0.99972 463.35 502.48 2.5175 1.1333 1.3387 212.92 0.59194 5.7672 0.0099024
-60.625 5.9899 0.024576 69.338 70.370 0.47438 601.77 0.0016618 59.385 59.453 0.42301 1.4051 2.1697 1282.5 -0.0057925 244.12 0.14023 1.0512 0.95131 464.40 503.68 2.5133 1.1374 1.3435 213.26 0.58442 5.7938 0.0099850
-59.625 6.3160 0.025812 71.980 73.068 0.48678 600.66 0.0016648 61.554 61.627 0.43320 1.4071 2.1734 1275.9 -0.0057605 241.13 0.13962 1.1041 0.90573 465.45 504.89 2.5091 1.1415 1.3483 213.58 0.57704 5.8203 0.010068
-58.625 6.6561 0.027096 74.641 75.789 0.49922 599.55 0.0016679 63.728 63.805 0.44335 1.4091 2.1772 1269.3 -0.0057280 238.19 0.13902 1.1591 0.86277 466.50 506.09 2.5051 1.1457 1.3532 213.90 0.56978 5.8468 0.010151
-57.625 7.0107 0.028429 77.324 78.532 0.51169 598.44 0.0016710 65.905 65.986 0.45348 1.4111 2.1810 1262.7 -0.0056951 235.31 0.13842 1.2161 0.82228 467.55 507.30 2.5011 1.1498 1.3581 214.22 0.56265 5.8733 0.010234
-56.625 7.3801 0.029813 80.027 81.299 0.52420 597.33 0.0016741 68.086 68.172 0.46358 1.4132 2.1848 1256.1 -0.0056617 232.48 0.13781 1.2754 0.78408 468.60 508.50 2.4972 1.1540 1.3631 214.53 0.55564 5.8998 0.010318
-55.625 7.7648 0.031250 82.752 84.090 0.53676 596.22 0.0016772 70.271 70.361 0.47364 1.4153 2.1887 1249.5 -0.0056279 229.69 0.13721 1.3369 0.74802 469.66 509.71 2.4934 1.1582 1.3681 214.84 0.54875 5.9263 0.010402
-54.625 8.1652 0.032739 85.498 86.906 0.54936 595.10 0.0016804 72.460 72.554 0.48368 1.4174 2.1927 1242.9 -0.0055937 226.96 0.13661 1.4006 0.71396 470.72 510.91 2.4897 1.1624 1.3731 215.14 0.54199 5.9527 0.010486
-53.625 8.5819 0.034284 88.267 89.746 0.56200 593.98 0.0016836 74.652 74.752 0.49369 1.4196 2.1967 1236.3 -0.0055589 224.27 0.13601 1.4667 0.68178 471.77 512.11 2.4860 1.1667 1.3782 215.43 0.53535 5.9792 0.010571
-52.625 9.0151 0.035885 91.058 92.612 0.57468 592.86 0.0016867 76.849 76.954 0.50368 1.4218 2.2007 1229.8 -0.0055237 221.63 0.13541 1.5353 0.65136 472.83 513.32 2.4824 1.1710 1.3834 215.72 0.52882 6.0056 0.010656
-51.625 9.4655 0.037543 93.873 95.504 0.58742 591.73 0.0016900 79.049 79.159 0.51363 1.4240 2.2048 1223.2 -0.0054880 219.04 0.13482 1.6062 0.62258 473.89 514.52 2.4789 1.1752 1.3886 216.00 0.52241 6.0320 0.010741
-50.625 9.9335 0.039261 96.710 98.422 0.60020 590.60 0.0016932 81.253 81.369 0.52356 1.4262 2.2089 1216.6 -0.0054519 216.48 0.13422 1.6797 0.59534 474.95 515.73 2.4755 1.1796 1.3938 216.28 0.51612 6.0584 0.010827
-49.625 10.419 0.041038 99.571 101.37 0.61303 589.47 0.0016964 83.462 83.584 0.53347 1.4285 2.2131 1210.1 -0.0054152 213.98 0.13363 1.7558 0.56954 476.01 516.93 2.4722 1.1839 1.3991 216.55 0.50994 6.0848 0.010913
-48.625 10.924 0.042878 102.46 104.34 0.62591 588.34 0.0016997 85.674 85.802 0.54334 1.4308 2.2173 1203.5 -0.0053780 211.51 0.13303 1.8345 0.54510 477.07 518.13 2.4689 1.1883 1.4044 216.82 0.50387 6.1112 0.010999
-47.625 11.448 0.044782 105.37 107.34 0.63884 587.20 0.0017030 87.891 88.025 0.55319 1.4331 2.2216 1196.9 -0.0053403 209.08 0.13244 1.9159 0.52194 478.14 519.33 2.4657 1.1927 1.4098 217.08 0.49792 6.1375 0.011085
-46.625 11.991 0.046750 108.30 110.37 0.65182 586.06 0.0017063 90.111 90.252 0.56302 1.4354 2.2259 1190.4 -0.0053020 206.69 0.13185 2.0001 0.49997 479.20 520.53 2.4625 1.1971 1.4153 217.33 0.49207 6.1639 0.011172
-45.625 12.554 0.048785 111.26 113.43 0.66486 584.92 0.0017096 92.336 92.484 0.57282 1.4378 2.2303 1183.8 -0.0052633 204.34 0.13126 2.0872 0.47912 480.27 521.74 2.4594 1.2015 1.4207 217.58 0.48633 6.1902 0.011259
-44.625 13.137 0.050888 114.25 116.51 0.67795 583.77 0.0017130 94.565 94.720 0.58260 1.4402 2.2347 1177.3 -0.0052240 202.03 0.13067 2.1771 0.45933 481.33 522.94 2.4564 1.2060 1.4263 217.82 0.48069 6.2165 0.011347
-43.625 13.741 0.053060 117.26 119.63 0.69110 582.62 0.0017164 96.799 96.961 0.59235 1.4426 2.2392 1170.7 -0.0051841 199.75 0.13008 2.2700 0.44053 482.40 524.14 2.4535 1.2104 1.4319 218.05 0.47516 6.2429 0.011435
-42.625 14.367 0.055304 120.30 122.77 0.70431 581.47 0.0017198 99.036 99.207 0.60208 1.4450 2.2437 1164.2 -0.0051437 197.51 0.12949 2.3659 0.42267 483.46 525.33 2.4506 1.2149 1.4375 218.28 0.46973 6.2692 0.011523
-41.625 15.015 0.057620 123.36 125.95 0.71758 580.32 0.0017232 101.28 101.46 0.61179 1.4475 2.2483 1157.7 -0.0051027 195.30 0.12891 2.4649 0.40569 484.53 526.53 2.4478 1.2195 1.4432 218.50 0.46440 6.2955 0.011612
-40.625 15.686 0.060011 126.45 129.16 0.73090 579.16 0.0017266 103.52 103.71 0.62147 1.4500 2.2529 1151.1 -0.0050611 193.13 0.12832 2.5671 0.38954 485.60 527.73 2.4450 1.2240 1.4489 218.72 0.45917 6.3218 0.011701
-39.625 16.380 0.062479 129.57 132.40 0.74429 578.00 0.0017301 105.78 105.97 0.63113 1.4525 2.2576 1144.6 -0.0050189 190.99 0.12774 2.6725 0.37418 486.67 528.93 2.4423 1.2286 1.4547 218.93 0.45403 6.3481 0.011790
-38.625 17.097 0.065023 132.72 135.67 0.75774 576.83 0.0017336 108.03 108.24 0.64077 1.4550 2.2623 1138.0 -0.0049761 188.88 0.12716 2.7813 0.35955 487.74 530.12 2.4397 1.2332 1.4606 219.13 0.44900 6.3744 0.011880
-37.625 17.838 0.067648 135.90 138.97 0.77126 575.66 0.0017371 110.29 110.51 0.65039 1.4576 2.2671 1131.5 -0.0049327 186.81 0.12658 2.8934 0.34562 488.81 531.32 2.4371 1.2378 1.4665 219.33 0.44405 6.4007 0.011970
-36.625 18.604 0.070354 139.10 142.31 0.78483 574.49 0.0017407 112.56 112.78 0.65999 1.4602 2.2719 1125.0 -0.0048887 184.76 0.12600 3.0089 0.33235 489.88 532.51 2.4346 1.2424 1.4724 219.52 0.43920 6.4270 0.012060
-35.625 19.395 0.073143 142.34 145.68 0.79848 573.32 0.0017442 114.83 115.06 0.66956 1.4628 2.2768 1118.5 -0.0048440 182.75 0.12542 3.1280 0.31969 490.95 533.70 2.4321 1.2471 1.4784 219.70 0.43444 6.4533 0.012151
-34.625 20.212 0.076017 145.60 149.08 0.81219 572.14 0.0017478 117.10 117.34 0.67912 1.4654 2.2818 1111.9 -0.0047987 180.76 0.12485 3.2506 0.30763 492.02 534.89 2.4297 1.2517 1.4845 219.88 0.42977 6.4797 0.012243
-33.625 21.056 0.078977 148.89 152.52 0.82597 570.96 0.0017514 119.38 119.63 0.68865 1.4681 2.2868 1105.4 -0.0047527 178.80 0.12427 3.3770 0.29612 493.09 536.08 2.4273 1.2564 1.4906 220.05 0.42519 6.5060 0.012334
-32.625 21.926 0.082026 152.22 156.00 0.83981 569.77 0.0017551 121.66 121.93 0.69817 1.4708 2.2918 1098.9 -0.0047061 176.87 0.12370 3.5071 0.28514 494.17 537.27 2.4250 1.2611 1.4968 220.21 0.42070 6.5323 0.012426
-31.625 22.823 0.085166 155.57 159.50 0.85373 568.58 0.0017588 123.95 124.23 0.70767 1.4735 2.2970 1092.3 -0.0046587 174.97 0.12313 3.6410 0.27465 495.24 538.46 2.4227 1.2659 1.5031 220.36 0.41629 6.5587 0.012519
-30.625 23.749 0.088397 158.96 163.05 0.86772 567.39 0.0017625 126.24 126.53 0.71714 1.4762 2.3021 1085.8 -0.0046107 173.09 0.12256 3.7787 0.26464 496.31 539.64 2.4205 1.2706 1.5094 220.51 0.41196 6.5850 0.012612
-29.625 24.703 0.091724 162.37 166.63 0.88178 566.19 0.0017662 128.54 128.84 0.72660 1.4790 2.3074 1079.3 -0.0045619 171.24 0.12200 3.9205 0.25507 497.38 540.83 2.4184 1.2754 1.5157 220.65 0.40772 6.6114 0.012706
-28.625 25.687 0.095146 165.82 170.25 0.89591 564.99 0.0017699 130.84 131.16 0.73604 1.4818 2.3126 1072.8 -0.0045124 169.42 0.12143 4.0663 0.24592 498.46 542.01 2.4162 1.2802 1.5222 220.79 0.40356 6.6378 0.012800
-27.625 26.700 0.098667 169.30 173.90 0.91011 563.78 0.0017737 133.15 133.48 0.74547 1.4846 2.3180 1066.2 -0.0044621 167.62 0.12087 4.2163 0.23717 499.53 543.19 2.4142 1.2850 1.5286 220.91 0.39947 6.6642 0.012894
-26.625 27.743 0.10229 172.81 177.60 0.92439 562.57 0.0017775 135.47 135.81 0.75487 1.4874 2.3234 1059.7 -0.0044111 165.84 0.12031 4.3705 0.22881 500.60 544.37 2.4122 1.2899 1.5352 221.03 0.39547 6.6906 0.012989
-25.625 28.817 0.10601 176.36 181.33 0.93875 561.36 0.0017814 137.78 138.14 0.76426 1.4902 2.3289 1053.2 -0.0043593 164.09 0.11975 4.5290 0.22080 501.68 545.55 2.4102 1.2947 1.5418 221.14 0.39154 6.7171 0.013084
-24.625 29.923 0.10984 179.94 185.10 0.95318 560.14 0.0017853 140.11 140.48 0.77363 1.4931 2.3344 1046.7 -0.0043067 162.36 0.11919 4.6918 0.21314 502.75 546.72 2.4083 1.2996 1.5485 221.25 0.38768 6.7436 0.013180
-23.625 31.061 0.11377 183.55 188.91 0.96768 558.92 0.0017892 142.44 142.82 0.78298 1.4960 2.3400 1040.1 -0.0042533 160.65 0.11863 4.8592 0.20580 503.82 547.90 2.4064 1.3045 1.5552 221.35 0.38391 6.7701 0.013277
-22.625 32.232 0.11782 187.20 192.75 0.98227 557.69 0.0017931 144.77 145.17 0.79232 1.4990 2.3457 1033.6 -0.0041990 158.97 0.11807 5.0311 0.19877 504.90 549.07 2.4045 1.3095 1.5621 221.44 0.38020 6.7967 0.013374
-21.625 33.435 0.12197 190.88 196.64 0.99693 556.46 0.0017971 147.11 147.52 0.80164 1.5019 2.3514 1027.1 -0.0041439 157.30 0.11752 5.2076 0.19203 505.97 550.24 2.4027 1.3144 1.5690 221.52 0.37656 6.8232 0.013471
-20.625 34.673 0.12624 194.60 200.57 1.0117 555.23 0.0018011 149.45 149.88 0.81095 1.5049 2.3572 1020.6 -0.0040879 155.66 0.11697 5.3889 0.18557 507.04 551.40 2.4010 1.3194 1.5759 221.59 0.37300 6.8499 0.013569
-19.625 35.946 0.13063 198.35 204.54 1.0265 553.99 0.0018051 151.80 152.25 0.82024 1.5079 2.3630 1014.0 -0.0040311 154.04 0.11642 5.5750 0.17937 508.11 552.57 2.3992 1.3244 1.5829 221.66 0.36950 6.8765 0.013668
-18.625 37.253 0.13513 202.13 208.55 1.0414 552.74 0.0018092 154.16 154.62 0.82952 1.5109 2.3689 1007.5 -0.0039733 152.44 0.11587 5.7660 0.17343 509.19 553.73 2.3976 1.3294 1.5901 221.72 0.36608 6.9032 0.013767
-17.625 38.596 0.13975 205.96 212.61 1.0564 551.49 0.0018133 156.52 157.00 0.83878 1.5140 2.3749 1001.0 -0.0039145 150.86 0.11532 5.9621 0.16773 510.26 554.89 2.3959 1.3345 1.5972 221.77 0.36272 6.9300 0.013867
-16.625 39.976 0.14450 209.81 216.70 1.0715 550.24 0.0018174 158.89 159.39 0.84803 1.5171 2.3810 994.44 -0.0038549 149.29 0.11478 6.1632 0.16225 511.33 556.05 2.3943 1.3395 1.6045 221.81 0.35942 6.9568 0.013968
-15.625 41.392 0.14937 213.71 220.84 1.0866 548.98 0.0018216 161.26 161.78 0.85726 1.5202 2.3871 987.91 -0.0037942 147.75 0.11423 6.3696 0.15700 512.40 557.20 2.3927 1.3446 1.6119 221.85 0.35619 6.9836 0.014069
-14.625 42.846 0.15437 217.64 225.03 1.1019 547.71 0.0018258 163.64 164.18 0.86649 1.5233 2.3933 981.37 -0.0037325 146.22 0.11369 6.5812 0.15195 513.47 558.36 2.3912 1.3497 1.6193 221.87 0.35302 7.0105 0.014170
-13.625 44.338 0.15950 221.61 229.25 1.1172 546.44 0.0018300 166.02 166.58 0.87569 1.5264 2.3996 974.83 -0.0036698 144.72 0.11315 6.7983 0.14710 514.54 559.51 2.3897 1.3549 1.6268 221.89 0.34992 7.0375 0.014273
-12.625 45.870 0.16476 225.62 233.52 1.1326 545.17 0.0018343 168.41 168.99 0.88489 1.5296 2.4059 968.29 -0.0036061 143.23 0.11261 7.0208 0.14243 515.61 560.65 2.3883 1.3600 1.6344 221.90 0.34688 7.0646 0.014376
-11.625 47.440 0.17017 229.66 237.84 1.1481 543.89 0.0018386 170.81 171.41 0.89407 1.5328 2.4124 961.75 -0.0035413 141.76 0.11208 7.2490 0.13795 516.68 561.80 2.3868 1.3652 1.6421 221.91 0.34389 7.0917 0.014479
-10.625 49.051 0.17571 233.74 242.20 1.1637 542.60 0.0018430 173.21 173.83 0.90324 1.5360 2.4189 955.20 -0.0034753 140.30 0.11154 7.4829 0.13364 517.75 562.94 2.3854 1.3704 1.6498 221.90 0.34097 7.1188 0.014584
-9.6250 50.703 0.18139 237.87 246.61 1.1793 541.31 0.0018474 175.61 176.26 0.91240 1.5393 2.4255 948.65 -0.0034082 138.86 0.11101 7.7226 0.12949 518.81 564.08 2.3841 1.3757 1.6577 221.88 0.33810 7.1461 0.014689
-8.6250 52.396 0.18721 242.03 251.06 1.1951 540.02 0.0018518 178.03 178.70 0.92154 1.5426 2.4321 942.10 -0.0033400 137.44 0.11048 7.9683 0.12550 519.88 565.21 2.3827 1.3809 1.6657 221.86 0.33529 7.1734 0.014795
-7.6250 54.131 0.19319 246.23 255.56 1.2109 538.72 0.0018563 180.45 181.14 0.93068 1.5459 2.4389 935.55 -0.0032705 136.03 0.10995 8.2200 0.12165 520.94 566.35 2.3814 1.3862 1.6737 221.83 0.33254 7.2008 0.014902
-6.6250 55.909 0.19932 250.47 260.10 1.2269 537.41 0.0018608 182.87 183.59 0.93980 1.5492 2.4457 928.99 -0.0031998 134.64 0.10942 8.4779 0.11795 522.01 567.48 2.3801 1.3915 1.6819 221.79 0.32984 7.2284 0.015009
-5.6250 57.730 0.20560 254.75 264.70 1.2429 536.10 0.0018653 185.30 186.05 0.94892 1.5525 2.4526 922.43 -0.0031279 133.27 0.10889 8.7420 0.11439 523.07 568.60 2.3789 1.3969 1.6902 221.74 0.32720 7.2560 0.015117
-4.6250 59.595 0.21203 259.07 269.34 1.2590 534.78 0.0018699 187.74 188.51 0.95802 1.5559 2.4596 915.87 -0.0030546 131.91 0.10837 9.0126 0.11096 524.13 569.72 2.3777 1.4022 1.6985 221.68 0.32461 7.2837 0.015226
-3.6250 61.505 0.21863 263.43 274.03 1.2752 533.45 0.0018746 190.19 190.98 0.96711 1.5593 2.4667 909.30 -0.0029800 130.56 0.10785 9.2896 0.10765 525.19 570.84 2.3765 1.4076 1.7070 221.62 0.32207 7.3115 0.015336
-2.6250 63.461 0.22540 267.83 278.77 1.2916 532.12 0.0018793 192.64 193.46 0.97620 1.5627 2.4739 902.73 -0.0029041 129.23 0.10733 9.5733 0.10446 526.25 571.96 2.3753 1.4131 1.7156 221.54 0.31958 7.3394 0.015447
-1.6250 65.462 0.23233 272.28 283.56 1.3080 530.78 0.0018840 195.10 195.95 0.98527 1.5662 2.4811 896.16 -0.0028267 127.91 0.10681 9.8638 0.10138 527.31 573.07 2.3742 1.4185 1.7243 221.45 0.31715 7.3674 0.015559
-0.62500 67.510 0.23943 276.76 288.40 1.3244 529.44 0.0018888 197.56 198.44 0.99434 1.5696 2.4885 889.58 -0.0027478 126.61 0.10629 10.161 0.098414 528.37 574.18 2.3731 1.4240 1.7331 221.36 0.31476 7.3956 0.015671
0.37500 69.606 0.24671 281.29 293.29 1.3410 528.09 0.0018936 200.03 200.94 1.0034 1.5731 2.4960 883.00 -0.0026675 125.32 0.10578 10.466 0.095552 529.42 575.28 2.3720 1.4295 1.7421 221.26 0.31242 7.4239 0.015785
1.3750 71.749 0.25417 285.87 298.23 1.3577 526.73 0.0018985 202.51 203.45 1.0124 1.5767 2.5035 876.42 -0.0025856 124.04 0.10527 10.777 0.092790 530.48 576.38 2.3709 1.4350 1.7512 221.14 0.31013 7.4523 0.015899
2.3750 73.941 0.26181 290.48 303.23 1.3745 525.37 0.0019034 204.99 205.96 1.0215 1.5802 2.5112 869.83 -0.0025022 122.78 0.10476 11.096 0.090123 531.53 577.47 2.3699 1.4406 1.7604 221.02 0.30789 7.4808 0.016015
3.3750 76.183 0.26963 295.14 308.27 1.3914 523.99 0.0019084 207.48 208.48 1.0305 1.5838 2.5190 863.24 -0.0024171 121.53 0.10425 11.422 0.087549 532.58 578.56 2.3688 1.4462 1.7697 220.89 0.30569 7.5095 0.016131
4.3750 78.475 0.27765 299.84 313.37 1.4083 522.62 0.0019134 209.98 211.01 1.0395 1.5874 2.5268 856.64 -0.0023303 120.29 0.10374 11.756 0.085062 533.63 579.65 2.3678 1.4518 1.7792 220.75 0.30354 7.5384 0.016249
5.3750 80.817 0.28587 304.59 318.52 1.4254 521.23 0.0019185 212.48 213.55 1.0486 1.5910 2.5348 850.04 -0.0022417 119.06 0.10324 12.098 0.082660 534.67 580.73 2.3669 1.4575 1.7888 220.60 0.30144 7.5674 0.016368
6.3750 83.211 0.29428 309.38 323.72 1.4426 519.84 0.0019237 215.00 216.10 1.0576 1.5946 2.5429 843.43 -0.0021514 117.85 0.10273 12.447 0.080340 535.72 581.81 2.3659 1.4632 1.7986 220.44 0.29938 7.5966 0.016487
7.3750 85.657 0.30290 314.21 328.98 1.4599 518.44 0.0019289 217.51 218.65 1.0666 1.5983 2.5511 836.82 -0.0020593 116.65 0.10223 12.805 0.078096 536.76 582.88 2.3650 1.4689 1.8085 220.27 0.29736 7.6259 0.016608
8.3750 88.156 0.31173 319.09 334.29 1.4772 517.03 0.0019341 220.04 221.22 1.0756 1.6020 2.5595 830.20 -0.0019652 115.46 0.10173 13.170 0.075928 537.80 583.95 2.3640 1.4746 1.8186 220.08 0.29538 7.6555 0.016730
9.3750 90.708 0.32077 324.02 339.66 1.4947 515.62 0.0019394 222.57 223.79 1.0846 1.6057 2.5679 823.58 -0.0018691 114.28 0.10124 13.545 0.073830 538.84 585.01 2.3631 1.4804 1.8288 219.89 0.29345 7.6852 0.016853
10.375 93.315 0.33003 328.99 345.08 1.5123 514.19 0.0019448 225.11 226.37 1.0936 1.6095 2.5765 816.96 -0.0017710 113.11 0.10074 13.927 0.071802 539.87 586.07 2.3622 1.4863 1.8392 219.69 0.29156 7.7151 0.016978
11.375 95.977 0.33952 334.01 350.56 1.5299 512.76 0.0019502 227.66 228.95 1.1025 1.6132 2.5852 810.32 -0.0016708 111.95 0.10025 14.319 0.069840 540.90 587.12 2.3614 1.4921 1.8498 219.48 0.28971 7.7452 0.017103
12.375 98.694 0.34924 339.08 356.09 1.5477 511.32 0.0019557 230.22 231.55 1.1115 1.6170 2.5940 803.68 -0.0015685 110.80 0.099756 14.719 0.067941 541.93 588.17 2.3605 1.4980 1.8605 219.26 0.28790 7.7756 0.017230
13.375 101.47 0.35919 344.19 361.68 1.5656 509.87 0.0019613 232.78 234.15 1.1205 1.6208 2.6030 797.04 -0.0014639 109.67 0.099267 15.128 0.066103 542.96 589.21 2.3597 1.5040 1.8715 219.03 0.28612 7.8061 0.017359
14.375 104.30 0.36938 349.36 367.33 1.5836 508.42 0.0019669 235.35 236.77 1.1295 1.6247 2.6121 790.39 -0.0013569 108.54 0.098779 15.547 0.064323 543.99 590.24 2.3588 1.5099 1.8826 218.79 0.28439 7.8369 0.017488
15.375 107.19 0.37982 354.56 373.04 1.6017 506.95 0.0019726 237.93 239.39 1.1384 1.6286 2.6214 783.73 -0.0012476 107.43 0.098294 15.974 0.062600 545.01 591.27 2.3580 1.5159 1.8940 218.53 0.28270 7.8680 0.017619
16.375 110.13 0.39051 359.82 378.81 1.6199 505.48 0.0019783 240.52 242.02 1.1474 1.6324 2.6308 777.07 -0.0011357 106.32 0.097810 16.412 0.060931 546.03 592.29 2.3572 1.5220 1.9055 218.27 0.28104 7.8993 0.017752
17.375 113.14 0.40147 365.13 384.63 1.6382 504.00 0.0019841 243.11 244.66 1.1564 1.6364 2.6403 770.40 -0.0010213 105.22 0.097328 16.859 0.059314 547.04 593.31 2.3564 1.5281 1.9172 217.99 0.27942 7.9308 0.017886
18.375 116.21 0.41268 370.49 390.52 1.6566 502.50 0.0019900 245.72 247.31 1.1653 1.6403 2.6501 763.72 -0.00090422 104.14 0.096848 17.317 0.057747 548.05 594.32 2.3557 1.5342 1.9292 217.71 0.27783 7.9626 0.018021
19.375 119.33 0.42418 375.89 396.46 1.6751 501.00 0.0019960 248.33 249.97 1.1743 1.6443 2.6599 757.04 -0.00078435 103.06 0.096371 17.785 0.056228 549.06 595.33 2.3549 1.5404 1.9414 217.41 0.27628 7.9947 0.018159
20.375 122.52 0.43595 381.35 402.47 1.6937 499.49 0.0020020 250.95 252.64 1.1832 1.6483 2.6700 750.35 -0.00066161 101.99 0.095895 18.263 0.054756 550.07 596.32 2.3541 1.5466 1.9538 217.10 0.27477 8.0272 0.018297
21.375 125.77 0.44801 386.85 408.53 1.7124 497.97 0.0020082 253.57 255.32 1.1922 1.6523 2.6802 743.64 -0.00053589 100.93 0.095420 18.752 0.053328 551.07 597.31 2.3534 1.5528 1.9665 216.78 0.27329 8.0599 0.018438
22.375 129.08 0.46037 392.41 414.66 1.7313 496.43 0.0020144 256.21 258.00 1.2012 1.6563 2.6906 736.94 -0.00040708 99.877 0.094948 19.252 0.051943 552.07 598.30 2.3526 1.5591 1.9795 216.45 0.27184 8.0929 0.018580
23.375 132.46 0.47303 398.02 420.85 1.7502 494.89 0.0020206 258.86 260.70 1.2101 1.6604 2.7012 730.22 -0.00027505 98.834 0.094478 19.763 0.050600 553.06 599.27 2.3519 1.5655 1.9927 216.11 0.27043 8.1263 0.018724
24.375 135.90 0.48600 403.68 427.11 1.7693 493.34 0.0020270 261.51 263.41 1.2191 1.6645 2.7120 723.49 -0.00013968 97.800 0.094009 20.285 0.049297 554.05 600.24 2.3512 1.5718 2.0061 215.75 0.26906 8.1600 0.018870
25.375 139.41 0.49929 409.40 433.43 1.7884 491.77 0.0020335 264.17 266.13 1.2280 1.6686 2.7230 716.76 -8.3775e-07 96.773 0.093543 20.820 0.048032 555.03 601.20 2.3504 1.5783 2.0199 215.39 0.26771 8.1941 0.019017
26.375 142.98 0.51292 415.16 439.81 1.8077 490.20 0.0020400 266.84 268.85 1.2370 1.6728 2.7342 710.01 0.00014161 95.755 0.093078 21.366 0.046804 556.01 602.15 2.3497 1.5847 2.0340 215.01 0.26640 8.2286 0.019167
27.375 146.62 0.52688 420.98 446.26 1.8271 488.61 0.0020466 269.52 271.59 1.2459 1.6770 2.7456 703.26 0.00028782 94.745 0.092615 21.924 0.045612 556.99 603.10 2.3490 1.5913 2.0484 214.62 0.26512 8.2634 0.019319
28.375 150.33 0.54119 426.86 452.77 1.8466 487.01 0.0020533 272.21 274.34 1.2549 1.6812 2.7573 696.49 0.00043793 93.742 0.092154 22.495 0.044454 557.96 604.03 2.3483 1.5978 2.0631 214.21 0.26387 8.2987 0.019472
29.375 154.10 0.55586 432.78 459.35 1.8663 485.40 0.0020601 274.91 277.10 1.2638 1.6854 2.7691 689.72 0.00059212 92.747 0.091695 23.079 0.043329 558.92 604.96 2.3476 1.6044 2.0781 213.80 0.26265 8.3344 0.019628
30.375 157.94 0.57090 438.77 465.99 1.8860 483.78 0.0020671 277.62 279.87 1.2728 1.6897 2.7813 682.93 0.00075055 91.760 0.091238 23.676 0.042237 559.88 605.88 2.3469 1.6111 2.0935 213.37 0.26147 8.3705 0.019786
31.375 161.86 0.58633 444.81 472.70 1.9059 482.15 0.0020741 280.34 282.66 1.2818 1.6939 2.7936 676.13 0.00091340 90.779 0.090782 24.287 0.041175 560.84 606.79 2.3462 1.6178 2.1092 212.93 0.26031 8.4071 0.019947
32.375 165.84 0.60215 450.90 479.49 1.9258 480.50 0.0020812 283.07 285.45 1.2908 1.6983 2.8063 669.32 0.0010809 89.806 0.090328 24.911 0.040143 561.79 607.69 2.3455 1.6246 2.1254 212.48 0.25919 8.4442 0.020110
33.375 169.90 0.61837 457.05 486.34 1.9459 478.83 0.0020884 285.81 288.26 1.2997 1.7026 2.8192 662.50 0.0012532 88.840 0.089876 25.549 0.039140 562.73 608.58 2.3448 1.6314 2.1419 212.01 0.25809 8.4818 0.020275
34.375 174.02 0.63502 463.26 493.25 1.9662 477.16 0.0020957 288.56 291.07 1.3087 1.7070 2.8324 655.67 0.0014305 87.880 0.089426 26.202 0.038164 563.67 609.46 2.3440 1.6383 2.1589 211.53 0.25702 8.5199 0.020443
35.375 178.22 0.65210 469.52 500.24 1.9865 475.47 0.0021032 291.32 293.90 1.3177 1.7114 2.8459 648.82 0.0016131 86.927 0.088977 26.870 0.037216 564.60 610.33 2.3433 1.6452 2.1763 211.04 0.25599 8.5586 0.020613
36.375 182.50 0.66962 475.85 507.30 2.0070 473.77 0.0021107 294.09 296.74 1.3267 1.7158 2.8597 641.96 0.0018012 85.980 0.088531 27.553 0.036293 565.52 611.19 2.3426 1.6522 2.1942 210.53 0.25498 8.5978 0.020786
37.375 186.84 0.68761 482.23 514.44 2.0276 472.05 0.0021184 296.87 299.60 1.3357 1.7203 2.8739 635.08 0.0019950 85.040 0.088085 28.252 0.035395 566.44 612.04 2.3419 1.6592 2.2125 210.01 0.25400 8.6376 0.020962
38.375 191.27 0.70608 488.67 521.64 2.0483 470.31 0.0021262 299.66 302.46 1.3447 1.7248 2.8884 628.19 0.0021949 84.105 0.087642 28.967 0.034522 567.35 612.88 2.3411 1.6663 2.2314 209.47 0.25305 8.6780 0.021141
39.375 195.77 0.72504 495.17 528.92 2.0691 468.56 0.0021342 302.46 305.34 1.3537 1.7293 2.9033 621.29 0.0024011 83.177 0.087200 29.699 0.033671 568.26 613.70 2.3404 1.6734 2.2508 208.92 0.25213 8.7190 0.021323
40.375 200.34 0.74452 501.74 536.27 2.0901 466.80 0.0021423 305.27 308.23 1.3627 1.7339 2.9185 614.37 0.0026140 82.254 0.086760 30.447 0.032844 569.15 614.52 2.3396 1.6806 2.2708 208.36 0.25123 8.7608 0.021508
41.375 205.00 0.76453 508.36 543.69 2.1112 465.01 0.0021505 308.10 311.14 1.3718 1.7385 2.9342 607.43 0.0028338 81.338 0.086322 31.214 0.032037 570.04 615.32 2.3389 1.6879 2.2913 207.78 0.25037 8.8032 0.021696
42.375 209.73 0.78510 515.05 551.20 2.1324 463.21 0.0021588 310.94 314.06 1.3808 1.7432 2.9502 600.47 0.0030609 80.426 0.085885 31.998 0.031252 570.92 616.11 2.3381 1.6952 2.3125 207.19 0.24953 8.8463 0.021888
43.375 214.54 0.80623 521.79 558.78 2.1537 461.40 0.0021673 313.79 316.99 1.3899 1.7478 2.9667 593.50 0.0032957 79.520 0.085449 32.800 0.030488 571.79 616.88 2.3373 1.7027 2.3344 206.58 0.24871 8.8902 0.022084
44.375 219.43 0.82796 528.61 566.43 2.1752 459.56 0.0021760 316.65 319.94 1.3989 1.7525 2.9837 586.51 0.0035386 78.619 0.085015 33.622 0.029742 572.65 617.65 2.3365 1.7101 2.3569 205.96 0.24793 8.9349 0.022283
45.375 224.41 0.85032 535.48 574.16 2.1968 457.71 0.0021848 319.52 322.90 1.4080 1.7573 3.0012 579.50 0.0037900 77.723 0.084583 34.463 0.029016 573.50 618.40 2.3357 1.7177 2.3802 205.32 0.24717 8.9805 0.022485
46.375 229.46 0.87331 542.43 581.98 2.2186 455.83 0.0021938 322.41 325.88 1.4171 1.7621 3.0192 572.46 0.0040504 76.832 0.084152 35.325 0.028308 574.34 619.13 2.3349 1.7253 2.4042 204.67 0.24644 9.0269 0.022692
47.375 234.60 0.89698 549.43 589.87 2.2405 453.94 0.0022029 325.31 328.87 1.4262 1.7669 3.0377 565.41 0.0043202 75.946 0.083723 36.208 0.027618 575.17 619.85 2.3340 1.7329 2.4291 204.00 0.24573 9.0742 0.022903
48.375 239.83 0.92135 556.51 597.85 2.2625 452.03 0.0022123 328.22 331.88 1.4353 1.7718 3.0569 558.34 0.0046000 75.064 0.083295 37.112 0.026945 576.00 620.55 2.3332 1.7407 2.4548 203.31 0.24505 9.1224 0.023119
49.375 245.13 0.94645 563.65 605.90 2.2847 450.09 0.0022218 331.15 334.90 1.4445 1.7767 3.0766 551.24 0.0048904 74.186 0.082868 38.039 0.026289 576.81 621.24 2.3323 1.7485 2.4815 202.61 0.24440 9.1716 0.023339
50.375 250.53 0.97231 570.86 614.05 2.3071 448.13 0.0022315 334.09 337.94 1.4536 1.7817 3.0970 544.13 0.0051920 73.313 0.082442 38.989 0.025648 577.61 621.91 2.3314 1.7564 2.5092 201.89 0.24377 9.2219 0.023564
51.375 256.01 0.99897 578.14 622.27 2.3295 446.15 0.0022414 337.04 341.00 1.4628 1.7867 3.1181 536.98 0.0055054 72.443 0.082018 39.962 0.025024 578.39 622.56 2.3304 1.7644 2.5379 201.16 0.24317 9.2733 0.023794
52.375 257.66 undefined 580.12 624.53 2.3356 40.000 0.025000 580.12 624.53 2.3356 1.7664 2.5297 201.83 0.23985 9.3051 0.023914 40.000 0.025000 580.12 624.53 2.3356 1.7664 2.5297 201.83 0.23985 9.3051 0.023914
53.375 259.16 undefined 581.89 626.56 2.3410 40.000 0.025000 581.89 626.56 2.3410 1.7683 2.5206 202.56 0.23649 9.3360 0.024030 40.000 0.025000 581.89 626.56 2.3410 1.7683 2.5206 202.56 0.23649 9.3360 0.024030
54.375 260.65 undefined 583.66 628.59 2.3464 40.000 0.025000 583.66 628.59 2.3464 1.7703 2.5120 203.28 0.23322 9.3670 0.024148 40.000 0.025000 583.66 628.59 2.3464 1.7703 2.5120 203.28 0.23322 9.3670 0.024148
55.375 262.14 undefined 585.43 630.61 2.3518 40.000 0.025000 585.43 630.61 2.3518 1.7723 2.5038 203.99 0.23003 9.3979 0.024266 40.000 0.025000 585.43 630.61 2.3518 1.7723 2.5038 203.99 0.23003 9.3979 0.024266
56.375 263.62 undefined 587.20 632.64 2.3572 40.000 0.025000 587.20 632.64 2.3572 1.7744 2.4961 204.71 0.22691 9.4288 0.024384 40.000 0.025000 587.20 632.64 2.3572 1.7744 2.4961 204.71 0.22691 9.4288 0.024384
57.375 265.10 undefined 588.98 634.67 2.3626 40.000 0.025000 588.98 634.67 2.3626 1.7765 2.4887 205.41 0.22386 9.4596 0.024504 40.000 0.025000 588.98 634.67 2.3626 1.7765 2.4887 205.41 0.22386 9.4596 0.024504
58.375 266.58 undefined 590.76 636.70 2.3680 40.000 0.025000 590.76 636.70 2.3680 1.7787 2.4818 206.12 0.22088 9.4904 0.024624 40.000 0.025000 590.76 636.70 2.3680 1.7787 2.4818 206.12 0.22088 9.4904 0.024624
59.375 268.05 undefined 592.54 638.74 2.3733 40.000 0.025000 592.54 638.74 2.3733 1.7810 2.4753 206.82 0.21797 9.5212 0.024745 40.000 0.025000 592.54 638.74 2.3733 1.7810 2.4753 206.82 0.21797 9.5212 0.024745
60.375 269.52 undefined 594.32 640.77 2.3787 40.000 0.025000 594.32 640.77 2.3787 1.7833 2.4691 207.51 0.21512 9.5519 0.024867 40.000 0.025000 594.32 640.77 2.3787 1.7833 2.4691 207.51 0.21512 9.5519 0.024867
61.375 270.98 undefined 596.10 642.81 2.3840 40.000 0.025000 596.10 642.81 2.3840 1.7857 2.4633 208.21 0.21233 9.5826 0.024989 40.000 0.025000 596.10 642.81 2.3840 1.7857 2.4633 208.21 0.21233 9.5826 0.024989
62.375 272.44 undefined 597.89 644.85 2.3894 40.000 0.025000 597.89 644.85 2.3894 1.7881 2.4578 208.89 0.20961 9.6133 0.025112 40.000 0.025000 597.89 644.85 2.3894 1.7881 2.4578 208.89 0.20961 9.6133 0.025112
63.375 273.90 undefined 599.68 646.89 2.3947 40.000 0.025000 599.68 646.89 2.3947 1.7906 2.4527 209.58 0.20693 9.6440 0.025235 40.000 0.025000 599.68 646.89 2.3947 1.7906 2.4527 209.58 0.20693 9.6440 0.025235
64.375 275.36 undefined 601.47 648.93 2.4000 40.000 0.025000 601.47 648.93 2.4000 1.7932 2.4478 210.26 0.20432 9.6746 0.025360 40.000 0.025000 601.47 648.93 2.4000 1.7932 2.4478 210.26 0.20432 9.6746 0.025360
65.375 276.81 undefined 603.26 650.98 2.4053 40.000 0.025000 603.26 650.98 2.4053 1.7958 2.4433 210.93 0.20176 9.7052 0.025484 40.000 0.025000 603.26 650.98 2.4053 1.7958 2.4433 210.93 0.20176 9.7052 0.025484
66.375 278.26 undefined 605.06 653.03 2.4106 40.000 0.025000 605.06 653.03 2.4106 1.7985 2.4390 211.61 0.19924 9.7357 0.025610 40.000 0.025000 605.06 653.03 2.4106 1.7985 2.4390 211.61 0.19924 9.7357 0.025610
67.375 279.71 undefined 606.86 655.07 2.4159 40.000 0.025000 606.86 655.07 2.4159 1.8012 2.4349 212.27 0.19678 9.7662 0.025735 40.000 0.025000 606.86 655.07 2.4159 1.8012 2.4349 212.27 0.19678 9.7662 0.025735
68.375 281.15 undefined 608.66 657.13 2.4212 40.000 0.025000 608.66 657.13 2.4212 1.8040 2.4312 212.94 0.19437 9.7967 0.025862 40.000 0.025000 608.66 657.13 2.4212 1.8040 2.4312 212.94 0.19437 9.7967 0.025862
69.375 282.59 undefined 610.47 659.18 2.4265 40.000 0.025000 610.47 659.18 2.4265 1.8068 2.4276 213.60 0.19200 9.8272 0.025989 40.000 0.025000 610.47 659.18 2.4265 1.8068 2.4276 213.60 0.19200 9.8272 0.025989
70.375 284.03 undefined 612.28 661.24 2.4317 40.000 0.025000 612.28 661.24 2.4317 1.8097 2.4243 214.26 0.18968 9.8576 0.026116 40.000 0.025000 612.28 661.24 2.4317 1.8097 2.4243 214.26 0.18968 9.8576 0.026116
71.375 285.46 undefined 614.09 663.29 2.4370 40.000 0.025000 614.09 663.29 2.4370 1.8126 2.4212 214.91 0.18741 9.8880 0.026244 40.000 0.025000 614.09 663.29 2.4370 1.8126 2.4212 214.91 0.18741 9.8880 0.026244
72.375 286.90 undefined 615.90 665.36 2.4423 40.000 0.025000 615.90 665.36 2.4423 1.8155 2.4183 215.56 0.18517 9.9184 0.026373 40.000 0.025000 615.90 665.36 2.4423 1.8155 2.4183 215.56 0.18517 9.9184 0.026373
73.375 288.33 undefined 617.72 667.42 2.4475 40.000 0.025000 617.72 667.42 2.4475 1.8185 2.4156 216.21 0.18298 9.9487 0.026502 40.000 0.025000 617.72 667.42 2.4475 1.8185 2.4156 216.21 0.18298 9.9487 0.026502
74.375 289.75 undefined 619.54 669.48 2.4528 40.000 0.025000 619.54 669.48 2.4528 1.8215 2.4130 216.86 0.18083 9.9790 0.026631 40.000 0.025000 619.54 669.48 2.4528 1.8215 2.4130 216.86 0.18083 9.9790 0.026631
75.375 291.18 undefined 621.36 671.55 2.4580 40.000 0.025000 621.36 671.55 2.4580 1.8245 2.4107 217.50 0.17873 10.009 0.026761 40.000 0.025000 621.36 671.55 2.4580 1.8245 2.4107 217.50 0.17873 10.009 0.026761
76.375 292.60 undefined 623.19 673.62 2.4632 40.000 0.025000 623.19 673.62 2.4632 1.8276 2.4085 218.14 0.17666 10.040 0.026892 40.000 0.025000 623.19 673.62 2.4632 1.8276 2.4085 218.14 0.17666 10.040 0.026892
77.375 294.02 undefined 625.02 675.70 2.4685 40.000 0.025000 625.02 675.70 2.4685 1.8307 2.4065 218.77 0.17462 10.070 0.027023 40.000 0.025000 625.02 675.70 2.4685 1.8307 2.4065 218.77 0.17462 10.070 0.027023
78.375 295.44 undefined 626.85 677.78 2.4737 40.000 0.025000 626.85 677.78 2.4737 1.8338 2.4046 219.41 0.17263 10.100 0.027154 40.000 0.025000 626.85 677.78 2.4737 1.8338 2.4046 219.41 0.17263 10.100 0.027154
79.375 296.85 undefined 628.69 679.85 2.4789 40.000 0.025000 628.69 679.85 2.4789 1.8369 2.4029 220.04 0.17067 10.130 0.027286 40.000 0.025000 628.69 679.85 2.4789 1.8369 2.4029 220.04 0.17067 10.130 0.027286
80.375 298.27 undefined 630.52 681.94 2.4841 40.000 0.025000 630.52 681.94 2.4841 1.8400 2.4013 220.67 0.16875 10.160 0.027418 40.000 0.025000 630.52 681.94 2.4841 1.8400 2.4013 220.67 0.16875 10.160 0.027418
81.375 299.68 undefined 632.37 684.02 2.4893 40.000 0.025000 632.37 684.02 2.4893 1.8432 2.3999 221.29 0.16686 10.190 0.027551 40.000 0.025000 632.37 684.02 2.4893 1.8432 2.3999 221.29 0.16686 10.190 0.027551
82.375 301.09 undefined 634.21 686.11 2.4945 40.000 0.025000 634.21 686.11 2.4945 1.8464 2.3986 221.91 0.16500 10.220 0.027684 40.000 0.025000 634.21 686.11 2.4945 1.8464 2.3986 221.91 0.16500 10.220 0.027684
83.375 302.49 undefined 636.06 688.20 2.4997 40.000 0.025000 636.06 688.20 2.4997 1.8496 2.3974 222.53 0.16318 10.250 0.027818 40.000 0.025000 636.06 688.20 2.4997 1.8496 2.3974 222.53 0.16318 10.250 0.027818
84.375 303.90 undefined 637.91 690.29 2.5049 40.000 0.025000 637.91 690.29 2.5049 1.8529 2.3963 223.15 0.16138 10.280 0.027952 40.000 0.025000 637.91 690.29 2.5049 1.8529 2.3963 223.15 0.16138 10.280 0.027952
85.375 305.30 undefined 639.76 692.39 2.5101 40.000 0.025000 639.76 692.39 2.5101 1.8561 2.3954 223.76 0.15962 10.310 0.028086 40.000 0.025000 639.76 692.39 2.5101 1.8561 2.3954 223.76 0.15962 10.310 0.028086
86.375 306.70 undefined 641.62 694.49 2.5152 40.000 0.025000 641.62 694.49 2.5152 1.8594 2.3946 224.38 0.15789 10.340 0.028221 40.000 0.025000 641.62 694.49 2.5152 1.8594 2.3946 224.38 0.15789 10.340 0.028221
87.375 308.10 undefined 643.48 696.59 2.5204 40.000 0.025000 643.48 696.59 2.5204 1.8627 2.3939 224.98 0.15619 10.370 0.028356 40.000 0.025000 643.48 696.59 2.5204 1.8627 2.3939 224.98 0.15619 10.370 0.028356
88.375 309.50 undefined 645.35 698.70 2.5256 40.000 0.025000 645.35 698.70 2.5256 1.8660 2.3934 225.59 0.15451 10.400 0.028492 40.000 0.025000 645.35 698.70 2.5256 1.8660 2.3934 225.59 0.15451 10.400 0.028492
89.375 310.89 undefined 647.22 700.80 2.5307 40.000 0.025000 647.22 700.80 2.5307 1.8694 2.3929 226.20 0.15287 10.430 0.028628 40.000 0.025000 647.22 700.80 2.5307 1.8694 2.3929 226.20 0.15287 10.430 0.028628
90.375 312.28 undefined 649.09 702.91 2.5359 40.000 0.025000 649.09 702.91 2.5359 1.8728 2.3925 226.80 0.15125 10.460 0.028765 40.000 0.025000 649.09 702.91 2.5359 1.8728 2.3925 226.80 0.15125 10.460 0.028765
91.375 313.67 undefined 650.96 705.03 2.5410 40.000 0.025000 650.96 705.03 2.5410 1.8761 2.3923 227.40 0.14966 10.489 0.028902 40.000 0.025000 650.96 705.03 2.5410 1.8761 2.3923 227.40 0.14966 10.489 0.028902
92.375 315.06 undefined 652.84 707.15 2.5462 40.000 0.025000 652.84 707.15 2.5462 1.8795 2.3921 227.99 0.14809 10.519 0.029039 40.000 0.025000 652.84 707.15 2.5462 1.8795 2.3921 227.99 0.14809 10.519 0.029039
93.375 316.45 undefined 654.72 709.27 2.5513 40.000 0.025000 654.72 709.27 2.5513 1.8829 2.3920 228.59 0.14655 10.549 0.029177 40.000 0.025000 654.72 709.27 2.5513 1.8829 2.3920 228.59 0.14655 10.549 0.029177
94.375 317.84 undefined 656.60 711.39 2.5564 40.000 0.025000 656.60 711.39 2.5564 1.8864 2.3920 229.18 0.14503 10.579 0.029315 40.000 0.025000 656.60 711.39 2.5564 1.8864 2.3920 229.18 0.14503 10.579 0.029315
95.375 319.22 undefined 658.49 713.52 2.5616 40.000 0.025000 658.49 713.52 2.5616 1.8898 2.3921 229.77 0.14353 10.608 0.029453 40.000 0.025000 658.49 713.52 2.5616 1.8898 2.3921 229.77 0.14353 10.608 0.029453
96.375 320.60 undefined 660.38 715.65 2.5667 40.000 0.025000 660.38 715.65 2.5667 1.8933 2.3923 230.36 0.14206 10.638 0.029592 40.000 0.025000 660.38 715.65 2.5667 1.8933 2.3923 230.36 0.14206 10.638 0.029592
97.375 321.98 undefined 662.28 717.78 2.5718 40.000 0.025000 662.28 717.78 2.5718 1.8968 2.3926 230.95 0.14062 10.667 0.029731 40.000 0.025000 662.28 717.78 2.5718 1.8968 2.3926 230.95 0.14062 10.667 0.029731
98.375 323.36 undefined 664.18 719.92 2.5769 40.000 0.025000 664.18 719.92 2.5769 1.9003 2.3929 231.53 0.13919 10.697 0.029871 40.000 0.025000 664.18 719.92 2.5769 1.9003 2.3929 231.53 0.13919 10.697 0.029871
99.375 324.74 undefined 666.08 722.06 2.5821 40.000 0.025000 666.08 722.06 2.5821 1.9038 2.3933 232.11 0.13779 10.727 0.030011 40.000 0.025000 666.08 722.06 2.5821 1.9038 2.3933 232.11 0.13779 10.727 0.030011
100.38 326.12 undefined 667.99 724.20 2.5872 40.000 0.025000 667.99 724.20 2.5872 1.9073 2.3938 232.69 0.13641 10.756 0.030151 40.000 0.025000 667.99 724.20 2.5872 1.9073 2.3938 232.69 0.13641 10.756 0.030151
101.38 327.49 undefined 669.89 726.34 2.5923 40.000 0.025000 669.89 726.34 2.5923 1.9108 2.3944 233.27 0.13505 10.786 0.030292 40.000 0.025000 669.89 726.34 2.5923 1.9108 2.3944 233.27 0.13505 10.786 0.030292
102.38 328.86 undefined 671.81 728.49 2.5974 40.000 0.025000 671.81 728.49 2.5974 1.9144 2.3950 233.85 0.13371 10.815 0.030433 40.000 0.025000 671.81 728.49 2.5974 1.9144 2.3950 233.85 0.13371 10.815 0.030433
103.38 330.24 undefined 673.72 730.65 2.6025 40.000 0.025000 673.72 730.65 2.6025 1.9179 2.3957 234.42 0.13239 10.844 0.030574 40.000 0.025000 673.72 730.65 2.6025 1.9179 2.3957 234.42 0.13239 10.844 0.030574
104.38 331.61 undefined 675.64 732.80 2.6076 40.000 0.025000 675.64 732.80 2.6076 1.9215 2.3965 234.99 0.13108 10.874 0.030716 40.000 0.025000 675.64 732.80 2.6076 1.9215 2.3965 234.99 0.13108 10.874 0.030716
105.38 332.97 undefined 677.57 734.96 2.6126 40.000 0.025000 677.57 734.96 2.6126 1.9251 2.3973 235.56 0.12980 10.903 0.030858 40.000 0.025000 677.57 734.96 2.6126 1.9251 2.3973 235.56 0.12980 10.903 0.030858
106.38 334.34 undefined 679.49 737.12 2.6177 40.000 0.025000 679.49 737.12 2.6177 1.9287 2.3982 236.13 0.12854 10.933 0.031001 40.000 0.025000 679.49 737.12 2.6177 1.9287 2.3982 236.13 0.12854 10.933 0.031001
107.38 335.71 undefined 681.42 739.29 2.6228 40.000 0.025000 681.42 739.29 2.6228 1.9323 2.3992 236.69 0.12730 10.962 0.031144 40.000 0.025000 681.42 739.29 2.6228 1.9323 2.3992 236.69 0.12730 10.962 0.031144
108.38 337.07 undefined 683.36 741.46 2.6279 40.000 0.025000 683.36 741.46 2.6279 1.9359 2.4002 237.26 0.12607 10.991 0.031287 40.000 0.025000 683.36 741.46 2.6279 1.9359 2.4002 237.26 0.12607 10.991 0.031287
109.38 338.43 undefined 685.30 743.63 2.6330 40.000 0.025000 685.30 743.63 2.6330 1.9395 2.4012 237.82 0.12486 11.020 0.031431 40.000 0.025000 685.30 743.63 2.6330 1.9395 2.4012 237.82 0.12486 11.020 0.031431
110.38 339.80 undefined 687.24 745.81 2.6380 40.000 0.025000 687.24 745.81 2.6380 1.9431 2.4024 238.38 0.12367 11.050 0.031575 40.000 0.025000 687.24 745.81 2.6380 1.9431 2.4024 238.38 0.12367 11.050 0.031575
111.38 341.16 undefined 689.18 747.99 2.6431 40.000 0.025000 689.18 747.99 2.6431 1.9468 2.4035 238.94 0.12250 11.079 0.031719 40.000 0.025000 689.18 747.99 2.6431 1.9468 2.4035 238.94 0.12250 11.079 0.031719
112.38 342.52 undefined 691.13 750.17 2.6481 40.000 0.025000 691.13 750.17 2.6481 1.9504 2.4048 239.49 0.12134 11.108 0.031864 40.000 0.025000 691.13 750.17 2.6481 1.9504 2.4048 239.49 0.12134 11.108 0.031864
113.38 343.87 undefined 693.08 752.36 2.6532 40.000 0.025000 693.08 752.36 2.6532 1.9540 2.4060 240.05 0.12020 11.137 0.032009 40.000 0.025000 693.08 752.36 2.6532 1.9540 2.4060 240.05 0.12020 11.137 0.032009
114.38 345.23 undefined 695.04 754.55 2.6583 40.000 0.025000 695.04 754.55 2.6583 1.9577 2.4074 240.60 0.11907 11.166 0.032154 40.000 0.025000 695.04 754.55 2.6583 1.9577 2.4074 240.60 0.11907 11.166 0.032154
115.38 346.59 undefined 697.00 756.74 2.6633 40.000 0.025000 697.00 756.74 2.6633 1.9614 2.4087 241.15 0.11797 11.195 0.032300 40.000 0.025000 697.00 756.74 2.6633 1.9614 2.4087 241.15 0.11797 11.195 0.032300
116.38 347.94 undefined 698.96 758.94 2.6684 40.000 0.025000 698.96 758.94 2.6684 1.9650 2.4101 241.70 0.11687 11.224 0.032446 40.000 0.025000 698.96 758.94 2.6684 1.9650 2.4101 241.70 0.11687 11.224 0.032446
117.38 349.29 undefined 700.93 761.14 2.6734 40.000 0.025000 700.93 761.14 2.6734 1.9687 2.4116 242.25 0.11579 11.253 0.032592 40.000 0.025000 700.93 761.14 2.6734 1.9687 2.4116 242.25 0.11579 11.253 0.032592
118.38 350.64 undefined 702.90 763.34 2.6784 40.000 0.025000 702.90 763.34 2.6784 1.9724 2.4131 242.79 0.11473 11.282 0.032739 40.000 0.025000 702.90 763.34 2.6784 1.9724 2.4131 242.79 0.11473 11.282 0.032739
119.38 351.99 undefined 704.87 765.55 2.6835 40.000 0.025000 704.87 765.55 2.6835 1.9761 2.4147 243.34 0.11368 11.311 0.032886 40.000 0.025000 704.87 765.55 2.6835 1.9761 2.4147 243.34 0.11368 11.311 0.032886
120.38 353.34 undefined 706.85 767.76 2.6885 40.000 0.025000 706.85 767.76 2.6885 1.9798 2.4162 243.88 0.11265 11.340 0.033033 40.000 0.025000 706.85 767.76 2.6885 1.9798 2.4162 243.88 0.11265 11.340 0.033033
121.38 354.69 undefined 708.83 769.97 2.6935 40.000 0.025000 708.83 769.97 2.6935 1.9835 2.4179 244.42 0.11163 11.369 0.033181 40.000 0.025000 708.83 769.97 2.6935 1.9835 2.4179 244.42 0.11163 11.369 0.033181
122.38 356.04 undefined 710.82 772.19 2.6986 40.000 0.025000 710.82 772.19 2.6986 1.9872 2.4195 244.96 0.11062 11.398 0.033329 40.000 0.025000 710.82 772.19 2.6986 1.9872 2.4195 244.96 0.11062 11.398 0.033329
123.38 357.39 undefined 712.81 774.41 2.7036 40.000 0.025000 712.81 774.41 2.7036 1.9909 2.4212 245.50 0.10963 11.427 0.033477 40.000 0.025000 712.81 774.41 2.7036 1.9909 2.4212 245.50 0.10963 11.427 0.033477
124.38 358.73 undefined 714.80 776.63 2.7086 40.000 0.025000 714.80 776.63 2.7086 1.9947 2.4230 246.04 0.10865 11.456 0.033626 40.000 0.025000 714.80 776.63 2.7086 1.9947 2.4230 246.04 0.10865 11.456 0.033626
125.38 360.07 undefined 716.80 778.86 2.7136 40.000 0.025000 716.80 778.86 2.7136 1.9984 2.4248 246.57 0.10768 11.485 0.033775 40.000 0.025000 716.80 778.86 2.7136 1.9984 2.4248 246.57 0.10768 11.485 0.033775
126.38 361.42 undefined 718.80 781.09 2.7186 40.000 0.025000 718.80 781.09 2.7186 2.0021 2.4266 247.10 0.10672 11.513 0.033924 40.000 0.025000 718.80 781.09 2.7186 2.0021 2.4266 247.10 0.10672 11.513 0.033924
127.38 362.76 undefined 720.80 783.33 2.7236 40.000 0.025000 720.80 783.33 2.7236 2.0059 2.4284 247.63 0.10578 11.542 0.034074 40.000 0.025000 720.80 783.33 2.7236 2.0059 2.4284 247.63 0.10578 11.542 0.034074
128.38 364.10 undefined 722.81 785.57 2.7286 40.000 0.025000 722.81 785.57 2.7286 2.0096 2.4303 248.16 0.10485 11.571 0.034224 40.000 0.025000 722.81 785.57 2.7286 2.0096 2.4303 248.16 0.10485 11.571 0.034224
129.38 365.44 undefined 724.82 787.81 2.7336 40.000 0.025000 724.82 787.81 2.7336 2.0134 2.4322 248.69 0.10394 11.599 0.034374 40.000 0.025000 724.82 787.81 2.7336 2.0134 2.4322 248.69 0.10394 11.599 0.034374
130.38 366.78 undefined 726.84 790.06 2.7386 40.000 0.025000 726.84 790.06 2.7386 2.0171 2.4342 249.22 0.10303 11.628 0.034525 40.000 0.025000 726.84 790.06 2.7386 2.0171 2.4342 249.22 0.10303 11.628 0.034525
131.38 368.11 undefined 728.85 792.31 2.7436 40.000 0.025000 728.85 792.31 2.7436 2.0209 2.4362 249.74 0.10214 11.657 0.034676 40.000 0.025000 728.85 792.31 2.7436 2.0209 2.4362 249.74 0.10214 11.657 0.034676
132.38 369.45 undefined 730.88 794.56 2.7486 40.000 0.025000 730.88 794.56 2.7486 2.0246 2.4382 250.27 0.10126 11.685 0.034827 40.000 0.025000 730.88 794.56 2.7486 2.0246 2.4382 250.27 0.10126 11.685 0.034827
133.38 370.79 undefined 732.90 796.82 2.7536 40.000 0.025000 732.90 796.82 2.7536 2.0284 2.4402 250.79 0.10039 11.714 0.034979 40.000 0.025000 732.90 796.82 2.7536 2.0284 2.4402 250.79 0.10039 11.714 0.034979
134.38 372.12 undefined 734.93 799.08 2.7586 40.000 0.025000 734.93 799.08 2.7586 2.0322 2.4423 251.31 0.099526 11.742 0.035131 40.000 0.025000 734.93 799.08 2.7586 2.0322 2.4423 251.31 0.099526 11.742 0.035131
135.38 373.46 undefined 736.97 801.34 2.7636 40.000 0.025000 736.97 801.34 2.7636 2.0359 2.4444 251.83 0.098678 11.771 0.035283 40.000 0.025000 736.97 801.34 2.7636 2.0359 2.4444 251.83 0.098678 11.771 0.035283
136.38 374.79 undefined 739.01 803.61 2.7686 40.000 0.025000 739.01 803.61 2.7686 2.0397 2.4466 252.35 0.097840 11.799 0.035436 40.000 0.025000 739.01 803.61 2.7686 2.0397 2.4466 252.35 0.097840 11.799 0.035436
137.38 376.12 undefined 741.05 805.88 2.7736 40.000 0.025000 741.05 805.88 2.7736 2.0435 2.4487 252.87 0.097013 11.828 0.035589 40.000 0.025000 741.05 805.88 2.7736 2.0435 2.4487 252.87 0.097013 11.828 0.035589
138.38 377.45 undefined 743.09 808.15 2.7785 40.000 0.025000 743.09 808.15 2.7785 2.0473 2.4509 253.38 0.096196 11.856 0.035742 40.000 0.025000 743.09 808.15 2.7785 2.0473 2.4509 253.38 0.096196 11.856 0.035742
139.38 378.78 undefined 745.14 810.43 2.7835 40.000 0.025000 745.14 810.43 2.7835 2.0511 2.4531 253.90 0.095390 11.885 0.035896 40.000 0.025000 745.14 810.43 2.7835 2.0511 2.4531 253.90 0.095390 11.885 0.035896
140.38 380.11 undefined 747.19 812.71 2.7885 40.000 0.025000 747.19 812.71 2.7885 2.0548 2.4553 254.41 0.094593 11.913 0.036050 40.000 0.025000 747.19 812.71 2.7885 2.0548 2.4553 254.41 0.094593 11.913 0.036050
141.38 381.44 undefined 749.25 815.00 2.7935 40.000 0.025000 749.25 815.00 2.7935 2.0586 2.4576 254.92 0.093807 11.942 0.036204 40.000 0.025000 749.25 815.00 2.7935 2.0586 2.4576 254.92 0.093807 11.942 0.036204
142.38 382.77 undefined 751.31 817.29 2.7984 40.000 0.025000 751.31 817.29 2.7984 2.0624 2.4599 255.43 0.093030 11.970 0.036359 40.000 0.025000 751.31 817.29 2.7984 2.0624 2.4599 255.43 0.093030 11.970 0.036359
143.38 384.09 undefined 753.38 819.58 2.8034 40.000 0.025000 753.38 819.58 2.8034 2.0662 2.4622 255.94 0.092263 11.998 0.036513 40.000 0.025000 753.38 819.58 2.8034 2.0662 2.4622 255.94 0.092263 11.998 0.036513
144.38 385.42 undefined 755.44 821.88 2.8083 40.000 0.025000 755.44 821.88 2.8083 2.0700 2.4645 256.45 0.091505 12.026 0.036669 40.000 0.025000 755.44 821.88 2.8083 2.0700 2.4645 256.45 0.091505 12.026 0.036669
145.38 386.74 undefined 757.52 824.18 2.8133 40.000 0.025000 757.52 824.18 2.8133 2.0738 2.4669 256.95 0.090756 12.055 0.036824 40.000 0.025000 757.52 824.18 2.8133 2.0738 2.4669 256.95 0.090756 12.055 0.036824
146.38 388.07 undefined 759.59 826.48 2.8182 40.000 0.025000 759.59 826.48 2.8182 2.0776 2.4693 257.46 0.090017 12.083 0.036980 40.000 0.025000 759.59 826.48 2.8182 2.0776 2.4693 257.46 0.090017 12.083 0.036980
147.38 389.39 undefined 761.67 828.79 2.8232 40.000 0.025000 761.67 828.79 2.8232 2.0814 2.4717 257.96 0.089286 12.111 0.037136 40.000 0.025000 761.67 828.79 2.8232 2.0814 2.4717 257.96 0.089286 12.111 0.037136
148.38 390.71 undefined 763.75 831.10 2.8281 40.000 0.025000 763.75 831.10 2.8281 2.0852 2.4741 258.46 0.088564 12.139 0.037292 40.000 0.025000 763.75 831.10 2.8281 2.0852 2.4741 258.46 0.088564 12.139 0.037292
149.38 392.04 undefined 765.84 833.42 2.8331 40.000 0.025000 765.84 833.42 2.8331 2.0890 2.4765 258.96 0.087851 12.167 0.037449 40.000 0.025000 765.84 833.42 2.8331 2.0890 2.4765 258.96 0.087851 12.167 0.037449
150.38 393.36 undefined 767.93 835.74 2.8380 40.000 0.025000 767.93 835.74 2.8380 2.0929 2.4790 259.46 0.087147 12.195 0.037606 40.000 0.025000 767.93 835.74 2.8380 2.0929 2.4790 259.46 0.087147 12.195 0.037606
151.38 394.68 undefined 770.03 838.06 2.8430 40.000 0.025000 770.03 838.06 2.8430 2.0967 2.4815 259.96 0.086450 12.224 0.037764 40.000 0.025000 770.03 838.06 2.8430 2.0967 2.4815 259.96 0.086450 12.224 0.037764
152.38 396.00 undefined 772.13 840.38 2.8479 40.000 0.025000 772.13 840.38 2.8479 2.1005 2.4840 260.46 0.085763 12.252 0.037921 40.000 0.025000 772.13 840.38 2.8479 2.1005 2.4840 260.46 0.085763 12.252 0.037921
153.38 397.32 undefined 774.23 842.71 2.8529 40.000 0.025000 774.23 842.71 2.8529 2.1043 2.4865 260.96 0.085083 12.280 0.038079 40.000 0.025000 774.23 842.71 2.8529 2.1043 2.4865 260.96 0.085083 12.280 0.038079
154.38 398.63 undefined 776.33 845.05 2.8578 40.000 0.025000 776.33 845.05 2.8578 2.1081 2.4890 261.45 0.084411 12.308 0.038238 40.000 0.025000 776.33 845.05 2.8578 2.1081 2.4890 261.45 0.084411 12.308 0.038238
155.38 399.95 undefined 778.44 847.38 2.8627 40.000 0.025000 778.44 847.38 2.8627 2.1119 2.4916 261.94 0.083747 12.336 0.038396 40.000 0.025000 778.44 847.38 2.8627 2.1119 2.4916 261.94 0.083747 12.336 0.038396
156.38 401.27 undefined 780.56 849.72 2.8676 40.000 0.025000 780.56 849.72 2.8676 2.1158 2.4942 262.44 0.083091 12.363 0.038555 40.000 0.025000 780.56 849.72 2.8676 2.1158 2.4942 262.44 0.083091 12.363 0.038555
157.38 402.58 undefined 782.68 852.07 2.8726 40.000 0.025000 782.68 852.07 2.8726 2.1196 2.4968 262.93 0.082442 12.391 0.038714 40.000 0.025000 782.68 852.07 2.8726 2.1196 2.4968 262.93 0.082442 12.391 0.038714
158.38 403.90 undefined 784.80 854.42 2.8775 40.000 0.025000 784.80 854.42 2.8775 2.1234 2.4994 263.42 0.081801 12.419 0.038874 40.000 0.025000 784.80 854.42 2.8775 2.1234 2.4994 263.42 0.081801 12.419 0.038874
159.38 405.21 undefined 786.92 856.77 2.8824 40.000 0.025000 786.92 856.77 2.8824 2.1272 2.5020 263.91 0.081168 12.447 0.039034 40.000 0.025000 786.92 856.77 2.8824 2.1272 2.5020 263.91 0.081168 12.447 0.039034
160.38 406.53 undefined 789.05 859.12 2.8873 40.000 0.025000 789.05 859.12 2.8873 2.1310 2.5046 264.39 0.080542 12.475 0.039194 40.000 0.025000 789.05 859.12 2.8873 2.1310 2.5046 264.39 0.080542 12.475 0.039194
161.38 407.84 undefined 791.19 861.48 2.8922 40.000 0.025000 791.19 861.48 2.8922 2.1349 2.5073 264.88 0.079922 12.503 0.039354 40.000 0.025000 791.19 861.48 2.8922 2.1349 2.5073 264.88 0.079922 12.503 0.039354
162.38 409.15 undefined 793.32 863.85 2.8971 40.000 0.025000 793.32 863.85 2.8971 2.1387 2.5100 265.37 0.079310 12.531 0.039515 40.000 0.025000 793.32 863.85 2.8971 2.1387 2.5100 265.37 0.079310 12.531 0.039515
163.38 410.46 undefined 795.46 866.21 2.9021 40.000 0.025000 795.46 866.21 2.9021 2.1425 2.5127 265.85 0.078705 12.558 0.039676 40.000 0.025000 795.46 866.21 2.9021 2.1425 2.5127 265.85 0.078705 12.558 0.039676
164.38 411.77 undefined 797.61 868.58 2.9070 40.000 0.025000 797.61 868.58 2.9070 2.1463 2.5154 266.33 0.078107 12.586 0.039838 40.000 0.025000 797.61 868.58 2.9070 2.1463 2.5154 266.33 0.078107 12.586 0.039838
165.38 413.09 undefined 799.76 870.96 2.9119 40.000 0.025000 799.76 870.96 2.9119 2.1502 2.5181 266.82 0.077516 12.614 0.039999 40.000 0.025000 799.76 870.96 2.9119 2.1502 2.5181 266.82 0.077516 12.614 0.039999
166.38 414.40 undefined 801.91 873.34 2.9168 40.000 0.025000 801.91 873.34 2.9168 2.1540 2.5208 267.30 0.076931 12.641 0.040161 40.000 0.025000 801.91 873.34 2.9168 2.1540 2.5208 267.30 0.076931 12.641 0.040161
167.38 415.70 undefined 804.06 875.72 2.9217 40.000 0.025000 804.06 875.72 2.9217 2.1578 2.5235 267.78 0.076353 12.669 0.040324 40.000 0.025000 804.06 875.72 2.9217 2.1578 2.5235 267.78 0.076353 12.669 0.040324
168.38 417.01 undefined 806.22 878.10 2.9266 40.000 0.025000 806.22 878.10 2.9266 2.1616 2.5263 268.26 0.075781 12.697 0.040486 40.000 0.025000 806.22 878.10 2.9266 2.1616 2.5263 268.26 0.075781 12.697 0.040486
169.38 418.32 undefined 808.39 880.49 2.9315 40.000 0.025000 808.39 880.49 2.9315 2.1655 2.5291 268.74 0.075215 12.724 0.040649 40.000 0.025000 808.39 880.49 2.9315 2.1655 2.5291 268.74 0.075215 12.724 0.040649
170.38 419.63 undefined 810.55 882.88 2.9364 40.000 0.025000 810.55 882.88 2.9364 2.1693 2.5319 269.21 0.074656 12.752 0.040813 40.000 0.025000 810.55 882.88 2.9364 2.1693 2.5319 269.21 0.074656 12.752 0.040813
171.38 420.94 undefined 812.73 885.28 2.9412 40.000 0.025000 812.73 885.28 2.9412 2.1731 2.5347 269.69 0.074103 12.779 0.040976 40.000 0.025000 812.73 885.28 2.9412 2.1731 2.5347 269.69 0.074103 12.779 0.040976
172.38 422.24 undefined 814.90 887.68 2.9461 40.000 0.025000 814.90 887.68 2.9461 2.1770 2.5375 270.16 0.073556 12.807 0.041140 40.000 0.025000 814.90 887.68 2.9461 2.1770 2.5375 270.16 0.073556 12.807 0.041140
173.38 423.55 undefined 817.08 890.09 2.9510 40.000 0.025000 817.08 890.09 2.9510 2.1808 2.5403 270.64 0.073015 12.834 0.041304 40.000 0.025000 817.08 890.09 2.9510 2.1808 2.5403 270.64 0.073015 12.834 0.041304
174.38 424.85 undefined 819.26 892.49 2.9559 40.000 0.025000 819.26 892.49 2.9559 2.1846 2.5431 271.11 0.072480 12.862 0.041469 40.000 0.025000 819.26 892.49 2.9559 2.1846 2.5431 271.11 0.072480 12.862 0.041469
175.38 426.16 undefined 821.45 894.90 2.9608 40.000 0.025000 821.45 894.90 2.9608 2.1884 2.5460 271.58 0.071951 12.889 0.041633 40.000 0.025000 821.45 894.90 2.9608 2.1884 2.5460 271.58 0.071951 12.889 0.041633
176.38 427.46 undefined 823.64 897.32 2.9657 40.000 0.025000 823.64 897.32 2.9657 2.1923 2.5488 272.05 0.071427 12.917 0.041798 40.000 0.025000 823.64 897.32 2.9657 2.1923 2.5488 272.05 0.071427 12.917 0.041798
177.38 428.76 undefined 825.83 899.74 2.9705 40.000 0.025000 825.83 899.74 2.9705 2.1961 2.5517 272.52 0.070909 12.944 0.041964 40.000 0.025000 825.83 899.74 2.9705 2.1961 2.5517 272.52 0.070909 12.944 0.041964
178.38 430.07 undefined 828.03 902.16 2.9754 40.000 0.025000 828.03 902.16 2.9754 2.1999 2.5546 272.99 0.070397 12.971 0.042129 40.000 0.025000 828.03 902.16 2.9754 2.1999 2.5546 272.99 0.070397 12.971 0.042129
179.38 431.37 undefined 830.23 904.59 2.9803 40.000 0.025000 830.23 904.59 2.9803 2.2037 2.5574 273.46 0.069890 12.999 0.042295 40.000 0.025000 830.23 904.59 2.9803 2.2037 2.5574 273.46 0.069890 12.999 0.042295
180.38 432.67 undefined 832.44 907.02 2.9851 40.000 0.025000 832.44 907.02 2.9851 2.2075 2.5603 273.93 0.069389 13.026 0.042462 40.000 0.025000 832.44 907.02 2.9851 2.2075 2.5603 273.93 0.069389 13.026 0.042462
181.38 433.97 undefined 834.65 909.45 2.9900 40.000 0.025000 834.65 909.45 2.9900 2.2114 2.5632 274.39 0.068893 13.053 0.042628 40.000 0.025000 834.65 909.45 2.9900 2.2114 2.5632 274.39 0.068893 13.053 0.042628
182.38 435.27 undefined 836.86 911.89 2.9949 40.000 0.025000 836.86 911.89 2.9949 2.2152 2.5662 274.86 0.068402 13.081 0.042795 40.000 0.025000 836.86 911.89 2.9949 2.2152 2.5662 274.86 0.068402 13.081 0.042795
183.38 436.57 undefined 839.08 914.33 2.9997 40.000 0.025000 839.08 914.33 2.9997 2.2190 2.5691 275.32 0.067916 13.108 0.042962 40.000 0.025000 839.08 914.33 2.9997 2.2190 2.5691 275.32 0.067916 13.108 0.042962
184.38 437.87 undefined 841.30 916.77 3.0046 40.000 0.025000 841.30 916.77 3.0046 2.2228 2.5720 275.78 0.067436 13.135 0.043130 40.000 0.025000 841.30 916.77 3.0046 2.2228 2.5720 275.78 0.067436 13.135 0.043130
185.38 439.17 undefined 843.52 919.22 3.0095 40.000 0.025000 843.52 919.22 3.0095 2.2266 2.5750 276.25 0.066960 13.162 0.043298 40.000 0.025000 843.52 919.22 3.0095 2.2266 2.5750 276.25 0.066960 13.162 0.043298
186.38 440.47 undefined 845.75 921.68 3.0143 40.000 0.025000 845.75 921.68 3.0143 2.2305 2.5779 276.71 0.066490 13.189 0.043466 40.000 0.025000 845.75 921.68 3.0143 2.2305 2.5779 276.71 0.066490 13.189 0.043466
187.38 441.77 undefined 847.98 924.13 3.0192 40.000 0.025000 847.98 924.13 3.0192 2.2343 2.5809 277.17 0.066024 13.216 0.043634 40.000 0.025000 847.98 924.13 3.0192 2.2343 2.5809 277.17 0.066024 13.216 0.043634
188.38 443.07 undefined 850.22 926.59 3.0240 40.000 0.025000 850.22 926.59 3.0240 2.2381 2.5838 277.63 0.065563 13.244 0.043803 40.000 0.025000 850.22 926.59 3.0240 2.2381 2.5838 277.63 0.065563 13.244 0.043803
189.38 444.36 undefined 852.46 929.06 3.0289 40.000 0.025000 852.46 929.06 3.0289 2.2419 2.5868 278.09 0.065107 13.271 0.043972 40.000 0.025000 852.46 929.06 3.0289 2.2419 2.5868 278.09 0.065107 13.271 0.043972
190.38 445.66 undefined 854.70 931.52 3.0337 40.000 0.025000 854.70 931.52 3.0337 2.2457 2.5898 278.54 0.064656 13.298 0.044141 40.000 0.025000 854.70 931.52 3.0337 2.2457 2.5898 278.54 0.064656 13.298 0.044141
191.38 446.96 undefined 856.95 933.99 3.0386 40.000 0.025000 856.95 933.99 3.0386 2.2495 2.5928 279.00 0.064209 13.325 0.044310 40.000 0.025000 856.95 933.99 3.0386 2.2495 2.5928 279.00 0.064209 13.325 0.044310
192.38 448.25 undefined 859.20 936.47 3.0434 40.000 0.025000 859.20 936.47 3.0434 2.2533 2.5958 279.46 0.063767 13.352 0.044480 40.000 0.025000 859.20 936.47 3.0434 2.2533 2.5958 279.46 0.063767 13.352 0.044480
193.38 449.55 undefined 861.46 938.95 3.0482 40.000 0.025000 861.46 938.95 3.0482 2.2571 2.5988 279.91 0.063330 13.379 0.044651 40.000 0.025000 861.46 938.95 3.0482 2.2571 2.5988 279.91 0.063330 13.379 0.044651
194.38 450.84 undefined 863.72 941.43 3.0531 40.000 0.025000 863.72 941.43 3.0531 2.2610 2.6018 280.36 0.062896 13.406 0.044821 40.000 0.025000 863.72 941.43 3.0531 2.2610 2.6018 280.36 0.062896 13.406 0.044821
195.38 452.14 undefined 865.98 943.92 3.0579 40.000 0.025000 865.98 943.92 3.0579 2.2648 2.6048 280.82 0.062468 13.433 0.044992 40.000 0.025000 865.98 943.92 3.0579 2.2648 2.6048 280.82 0.062468 13.433 0.044992
196.38 453.43 undefined 868.25 946.40 3.0627 40.000 0.025000 868.25 946.40 3.0627 2.2686 2.6079 281.27 0.062043 13.459 0.045163 40.000 0.025000 868.25 946.40 3.0627 2.2686 2.6079 281.27 0.062043 13.459 0.045163
197.38 454.72 undefined 870.52 948.90 3.0676 40.000 0.025000 870.52 948.90 3.0676 2.2724 2.6109 281.72 0.061623 13.486 0.045334 40.000 0.025000 870.52 948.90 3.0676 2.2724 2.6109 281.72 0.061623 13.486 0.045334
198.38 456.02 undefined 872.79 951.40 3.0724 40.000 0.025000 872.79 951.40 3.0724 2.2762 2.6139 282.17 0.061207 13.513 0.045506 40.000 0.025000 872.79 951.40 3.0724 2.2762 2.6139 282.17 0.061207 13.513 0.045506
199.38 457.31 undefined 875.07 953.90 3.0772 40.000 0.025000 875.07 953.90 3.0772 2.2800 2.6170 282.62 0.060795 13.540 0.045678 40.000 0.025000 875.07 953.90 3.0772 2.2800 2.6170 282.62 0.060795 13.540 0.045678
200.38 458.60 undefined 877.35 956.40 3.0820 40.000 0.025000 877.35 956.40 3.0820 2.2837 2.6200 283.07 0.060387 13.567 0.045850 40.000 0.025000 877.35 956.40 3.0820 2.2837 2.6200 283.07 0.060387 13.567 0.045850
201.38 459.89 undefined 879.64 958.91 3.0869 40.000 0.025000 879.64 958.91 3.0869 2.2875 2.6231 283.52 0.059983 13.593 0.046023 40.000 0.025000 879.64 958.91 3.0869 2.2875 2.6231 283.52 0.059983 13.593 0.046023
202.38 461.19 undefined 881.93 961.42 3.0917 40.000 0.025000 881.93 961.42 3.0917 2.2913 2.6262 283.96 0.059584 13.620 0.046196 40.000 0.025000 881.93 961.42 3.0917 2.2913 2.6262 283.96 0.059584 13.620 0.046196
203.38 462.48 undefined 884.22 963.94 3.0965 40.000 0.025000 884.22 963.94 3.0965 2.2951 2.6292 284.41 0.059188 13.647 0.046369 40.000 0.025000 884.22 963.94 3.0965 2.2951 2.6292 284.41 0.059188 13.647 0.046369
204.38 463.77 undefined 886.52 966.46 3.1013 40.000 0.025000 886.52 966.46 3.1013 2.2989 2.6323 284.86 0.058796 13.674 0.046542 40.000 0.025000 886.52 966.46 3.1013 2.2989 2.6323 284.86 0.058796 13.674 0.046542
205.38 465.06 undefined 888.82 968.98 3.1061 40.000 0.025000 888.82 968.98 3.1061 2.3027 2.6354 285.30 0.058408 13.700 0.046716 40.000 0.025000 888.82 968.98 3.1061 2.3027 2.6354 285.30 0.058408 13.700 0.046716
206.38 466.35 undefined 891.12 971.51 3.1109 40.000 0.025000 891.12 971.51 3.1109 2.3065 2.6385 285.75 0.058023 13.727 0.046890 40.000 0.025000 891.12 971.51 3.1109 2.3065 2.6385 285.75 0.058023 13.727 0.046890
207.38 467.64 undefined 893.43 974.04 3.1158 40.000 0.025000 893.43 974.04 3.1158 2.3103 2.6415 286.19 0.057643 13.753 0.047064 40.000 0.025000 893.43 974.04 3.1158 2.3103 2.6415 286.19 0.057643 13.753 0.047064
208.38 468.93 undefined 895.74 976.57 3.1206 40.000 0.025000 895.74 976.57 3.1206 2.3140 2.6446 286.63 0.057266 13.780 0.047239 40.000 0.025000 895.74 976.57 3.1206 2.3140 2.6446 286.63 0.057266 13.780 0.047239
209.38 470.21 undefined 898.06 979.11 3.1254 40.000 0.025000 898.06 979.11 3.1254 2.3178 2.6477 287.07 0.056892 13.807 0.047414 40.000 0.025000 898.06 979.11 3.1254 2.3178 2.6477 287.07 0.056892 13.807 0.047414
210.38 471.50 undefined 900.38 981.65 3.1302 40.000 0.025000 900.38 981.65 3.1302 2.3216 2.6508 287.51 0.056523 13.833 0.047589 40.000 0.025000 900.38 981.65 3.1302 2.3216 2.6508 287.51 0.056523 13.833 0.047589
211.38 472.79 undefined 902.70 984.20 3.1350 40.000 0.025000 902.70 984.20 3.1350 2.3254 2.6539 287.95 0.056156 13.860 0.047765 40.000 0.025000 902.70 984.20 3.1350 2.3254 2.6539 287.95 0.056156 13.860 0.047765
212.38 474.08 undefined 905.03 986.75 3.1398 40.000 0.025000 905.03 986.75 3.1398 2.3291 2.6571 288.39 0.055794 13.886 0.047940 40.000 0.025000 905.03 986.75 3.1398 2.3291 2.6571 288.39 0.055794 13.886 0.047940
213.38 475.37 undefined 907.36 989.30 3.1446 40.000 0.025000 907.36 989.30 3.1446 2.3329 2.6602 288.83 0.055434 13.913 0.048117 40.000 0.025000 907.36 989.30 3.1446 2.3329 2.6602 288.83 0.055434 13.913 0.048117
214.38 476.65 undefined 909.70 991.86 3.1494 40.000 0.025000 909.70 991.86 3.1494 2.3366 2.6633 289.27 0.055079 13.939 0.048293 40.000 0.025000 909.70 991.86 3.1494 2.3366 2.6633 289.27 0.055079 13.939 0.048293
215.38 477.94 undefined 912.03 994.42 3.1541 40.000 0.025000 912.03 994.42 3.1541 2.3404 2.6664 289.70 0.054726 13.965 0.048470 40.000 0.025000 912.03 994.42 3.1541 2.3404 2.6664 289.70 0.054726 13.965 0.048470
216.38 479.23 undefined 914.38 996.98 3.1589 40.000 0.025000 914.38 996.98 3.1589 2.3442 2.6695 290.14 0.054377 13.992 0.048647 40.000 0.025000 914.38 996.98 3.1589 2.3442 2.6695 290.14 0.054377 13.992 0.048647
217.38 480.51 undefined 916.72 999.55 3.1637 40.000 0.025000 916.72 999.55 3.1637 2.3479 2.6727 290.57 0.054031 14.018 0.048824 40.000 0.025000 916.72 999.55 3.1637 2.3479 2.6727 290.57 0.054031 14.018 0.048824
218.38 481.80 undefined 919.07 1002.1 3.1685 40.000 0.025000 919.07 1002.1 3.1685 2.3517 2.6758 291.01 0.053688 14.044 0.049002 40.000 0.025000 919.07 1002.1 3.1685 2.3517 2.6758 291.01 0.053688 14.044 0.049002
219.38 483.08 undefined 921.43 1004.7 3.1733 40.000 0.025000 921.43 1004.7 3.1733 2.3554 2.6789 291.44 0.053349 14.071 0.049179 40.000 0.025000 921.43 1004.7 3.1733 2.3554 2.6789 291.44 0.053349 14.071 0.049179
220.38 484.37 undefined 923.78 1007.3 3.1781 40.000 0.025000 923.78 1007.3 3.1781 2.3592 2.6821 291.88 0.053012 14.097 0.049358 40.000 0.025000 923.78 1007.3 3.1781 2.3592 2.6821 291.88 0.053012 14.097 0.049358
221.38 485.65 undefined 926.14 1009.9 3.1829 40.000 0.025000 926.14 1009.9 3.1829 2.3629 2.6852 292.31 0.052679 14.123 0.049536 40.000 0.025000 926.14 1009.9 3.1829 2.3629 2.6852 292.31 0.052679 14.123 0.049536
222.38 486.93 undefined 928.51 1012.4 3.1876 40.000 0.025000 928.51 1012.4 3.1876 2.3667 2.6883 292.74 0.052349 14.149 0.049715 40.000 0.025000 928.51 1012.4 3.1876 2.3667 2.6883 292.74 0.052349 14.149 0.049715
223.38 488.22 undefined 930.88 1015.0 3.1924 40.000 0.025000 930.88 1015.0 3.1924 2.3704 2.6915 293.17 0.052022 14.176 0.049894 40.000 0.025000 930.88 1015.0 3.1924 2.3704 2.6915 293.17 0.052022 14.176 0.049894
224.38 489.50 undefined 933.25 1017.6 3.1972 40.000 0.025000 933.25 1017.6 3.1972 2.3741 2.6946 293.60 0.051698 14.202 0.050073 40.000 0.025000 933.25 1017.6 3.1972 2.3741 2.6946 293.60 0.051698 14.202 0.050073
225.38 490.78 undefined 935.63 1020.2 3.2019 40.000 0.025000 935.63 1020.2 3.2019 2.3779 2.6978 294.03 0.051376 14.228 0.050253 40.000 0.025000 935.63 1020.2 3.2019 2.3779 2.6978 294.03 0.051376 14.228 0.050253
226.38 492.07 undefined 938.01 1022.8 3.2067 40.000 0.025000 938.01 1022.8 3.2067 2.3816 2.7009 294.46 0.051058 14.254 0.050433 40.000 0.025000 938.01 1022.8 3.2067 2.3816 2.7009 294.46 0.051058 14.254 0.050433
227.38 493.35 undefined 940.39 1025.4 3.2115 40.000 0.025000 940.39 1025.4 3.2115 2.3853 2.7041 294.89 0.050743 14.280 0.050613 40.000 0.025000 940.39 1025.4 3.2115 2.3853 2.7041 294.89 0.050743 14.280 0.050613
228.38 494.63 undefined 942.78 1028.0 3.2162 40.000 0.025000 942.78 1028.0 3.2162 2.3890 2.7073 295.31 0.050430 14.306 0.050793 40.000 0.025000 942.78 1028.0 3.2162 2.3890 2.7073 295.31 0.050430 14.306 0.050793
229.38 495.91 undefined 945.17 1030.6 3.2210 40.000 0.025000 945.17 1030.6 3.2210 2.3928 2.7104 295.74 0.050120 14.332 0.050974 40.000 0.025000 945.17 1030.6 3.2210 2.3928 2.7104 295.74 0.050120 14.332 0.050974
230.38 497.20 undefined 947.56 1033.3 3.2258 40.000 0.025000 947.56 1033.3 3.2258 2.3965 2.7136 296.17 0.049813 14.358 0.051155 40.000 0.025000 947.56 1033.3 3.2258 2.3965 2.7136 296.17 0.049813 14.358 0.051155
231.38 498.48 undefined 949.96 1035.9 3.2305 40.000 0.025000 949.96 1035.9 3.2305 2.4002 2.7167 296.59 0.049509 14.384 0.051337 40.000 0.025000 949.96 1035.9 3.2305 2.4002 2.7167 296.59 0.049509 14.384 0.051337
232.38 499.76 undefined 952.36 1038.5 3.2353 40.000 0.025000 952.36 1038.5 3.2353 2.4039 2.7199 297.01 0.049208 14.410 0.051518 40.000 0.025000 952.36 1038.5 3.2353 2.4039 2.7199 297.01 0.049208 14.410 0.051518
233.38 501.04 undefined 954.77 1041.1 3.2400 40.000 0.025000 954.77 1041.1 3.2400 2.4076 2.7231 297.44 0.048909 14.436 0.051700 40.000 0.025000 954.77 1041.1 3.2400 2.4076 2.7231 297.44 0.048909 14.436 0.051700
234.38 502.32 undefined 957.18 1043.8 3.2448 40.000 0.025000 957.18 1043.8 3.2448 2.4113 2.7262 297.86 0.048612 14.462 0.051883 40.000 0.025000 957.18 1043.8 3.2448 2.4113 2.7262 297.86 0.048612 14.462 0.051883
235.38 503.60 undefined 959.59 1046.4 3.2495 40.000 0.025000 959.59 1046.4 3.2495 2.4150 2.7294 298.28 0.048319 14.488 0.052065 40.000 0.025000 959.59 1046.4 3.2495 2.4150 2.7294 298.28 0.048319 14.488 0.052065
236.38 504.88 undefined 962.01 1049.0 3.2543 40.000 0.025000 962.01 1049.0 3.2543 2.4187 2.7326 298.70 0.048028 14.514 0.052248 40.000 0.025000 962.01 1049.0 3.2543 2.4187 2.7326 298.70 0.048028 14.514 0.052248
237.38 506.16 undefined 964.43 1051.7 3.2590 40.000 0.025000 964.43 1051.7 3.2590 2.4224 2.7358 299.13 0.047739 14.540 0.052431 40.000 0.025000 964.43 1051.7 3.2590 2.4224 2.7358 299.13 0.047739 14.540 0.052431
238.38 507.44 undefined 966.85 1054.3 3.2638 40.000 0.025000 966.85 1054.3 3.2638 2.4261 2.7389 299.55 0.047453 14.566 0.052615 40.000 0.025000 966.85 1054.3 3.2638 2.4261 2.7389 299.55 0.047453 14.566 0.052615
239.38 508.72 undefined 969.28 1057.0 3.2685 40.000 0.025000 969.28 1057.0 3.2685 2.4298 2.7421 299.97 0.047170 14.591 0.052798 40.000 0.025000 969.28 1057.0 3.2685 2.4298 2.7421 299.97 0.047170 14.591 0.052798
240.38 509.99 undefined 971.71 1059.6 3.2733 40.000 0.025000 971.71 1059.6 3.2733 2.4335 2.7453 300.38 0.046889 14.617 0.052982 40.000 0.025000 971.71 1059.6 3.2733 2.4335 2.7453 300.38 0.046889 14.617 0.052982
241.38 511.27 undefined 974.15 1062.3 3.2780 40.000 0.025000 974.15 1062.3 3.2780 2.4372 2.7485 300.80 0.046610 14.643 0.053167 40.000 0.025000 974.15 1062.3 3.2780 2.4372 2.7485 300.80 0.046610 14.643 0.053167
242.38 512.55 undefined 976.59 1064.9 3.2827 40.000 0.025000 976.59 1064.9 3.2827 2.4408 2.7516 301.22 0.046334 14.669 0.053351 40.000 0.025000 976.59 1064.9 3.2827 2.4408 2.7516 301.22 0.046334 14.669 0.053351
243.38 513.83 undefined 979.03 1067.6 3.2875 40.000 0.025000 979.03 1067.6 3.2875 2.4445 2.7548 301.64 0.046061 14.694 0.053536 40.000 0.025000 979.03 1067.6 3.2875 2.4445 2.7548 301.64 0.046061 14.694 0.053536
244.38 515.11 undefined 981.47 1070.3 3.2922 40.000 0.025000 981.47 1070.3 3.2922 2.4482 2.7580 302.05 0.045789 14.720 0.053721 40.000 0.025000 981.47 1070.3 3.2922 2.4482 2.7580 302.05 0.045789 14.720 0.053721
245.38 516.38 undefined 983.92 1072.9 3.2969 40.000 0.025000 983.92 1072.9 3.2969 2.4518 2.7612 302.47 0.045520 14.746 0.053907 40.000 0.025000 983.92 1072.9 3.2969 2.4518 2.7612 302.47 0.045520 14.746 0.053907
246.38 517.66 undefined 986.38 1075.6 3.3017 40.000 0.025000 986.38 1075.6 3.3017 2.4555 2.7643 302.88 0.045253 14.771 0.054092 40.000 0.025000 986.38 1075.6 3.3017 2.4555 2.7643 302.88 0.045253 14.771 0.054092
247.38 518.94 undefined 988.84 1078.3 3.3064 40.000 0.025000 988.84 1078.3 3.3064 2.4592 2.7675 303.30 0.044989 14.797 0.054278 40.000 0.025000 988.84 1078.3 3.3064 2.4592 2.7675 303.30 0.044989 14.797 0.054278
248.38 520.21 undefined 991.30 1081.0 3.3111 40.000 0.025000 991.30 1081.0 3.3111 2.4628 2.7707 303.71 0.044726 14.822 0.054465 40.000 0.025000 991.30 1081.0 3.3111 2.4628 2.7707 303.71 0.044726 14.822 0.054465
249.38 521.49 undefined 993.76 1083.7 3.3158 40.000 0.025000 993.76 1083.7 3.3158 2.4665 2.7739 304.12 0.044466 14.848 0.054651 40.000 0.025000 993.76 1083.7 3.3158 2.4665 2.7739 304.12 0.044466 14.848 0.054651
250.38 522.77 undefined 996.23 1086.3 3.3205 40.000 0.025000 996.23 1086.3 3.3205 2.4701 2.7771 304.54 0.044208 14.873 0.054838 40.000 0.025000 996.23 1086.3 3.3205 2.4701 2.7771 304.54 0.044208 14.873 0.054838
251.38 524.04 undefined 998.70 1089.0 3.3253 40.000 0.025000 998.70 1089.0 3.3253 2.4738 2.7802 304.95 0.043952 14.899 0.055025 40.000 0.025000 998.70 1089.0 3.3253 2.4738 2.7802 304.95 0.043952 14.899 0.055025
252.38 525.32 undefined 1001.2 1091.7 3.3300 40.000 0.025000 1001.2 1091.7 3.3300 2.4774 2.7834 305.36 0.043699 14.924 0.055212 40.000 0.025000 1001.2 1091.7 3.3300 2.4774 2.7834 305.36 0.043699 14.924 0.055212
253.38 526.59 undefined 1003.7 1094.4 3.3347 40.000 0.025000 1003.7 1094.4 3.3347 2.4810 2.7866 305.77 0.043447 14.950 0.055400 40.000 0.025000 1003.7 1094.4 3.3347 2.4810 2.7866 305.77 0.043447 14.950 0.055400
254.38 527.87 undefined 1006.1 1097.1 3.3394 40.000 0.025000 1006.1 1097.1 3.3394 2.4847 2.7898 306.18 0.043198 14.975 0.055588 40.000 0.025000 1006.1 1097.1 3.3394 2.4847 2.7898 306.18 0.043198 14.975 0.055588
255.38 529.14 undefined 1008.6 1099.8 3.3441 40.000 0.025000 1008.6 1099.8 3.3441 2.4883 2.7930 306.59 0.042950 15.001 0.055776 40.000 0.025000 1008.6 1099.8 3.3441 2.4883 2.7930 306.59 0.042950 15.001 0.055776
256.38 530.42 undefined 1011.1 1102.5 3.3488 40.000 0.025000 1011.1 1102.5 3.3488 2.4919 2.7961 307.00 0.042705 15.026 0.055965 40.000 0.025000 1011.1 1102.5 3.3488 2.4919 2.7961 307.00 0.042705 15.026 0.055965
257.38 531.69 undefined 1013.6 1105.3 3.3535 40.000 0.025000 1013.6 1105.3 3.3535 2.4956 2.7993 307.41 0.042462 15.051 0.056154 40.000 0.025000 1013.6 1105.3 3.3535 2.4956 2.7993 307.41 0.042462 15.051 0.056154
258.38 532.97 undefined 1016.1 1108.0 3.3582 40.000 0.025000 1016.1 1108.0 3.3582 2.4992 2.8025 307.81 0.042220 15.077 0.056343 40.000 0.025000 1016.1 1108.0 3.3582 2.4992 2.8025 307.81 0.042220 15.077 0.056343
259.38 534.24 undefined 1018.6 1110.7 3.3629 40.000 0.025000 1018.6 1110.7 3.3629 2.5028 2.8057 308.22 0.041981 15.102 0.056532 40.000 0.025000 1018.6 1110.7 3.3629 2.5028 2.8057 308.22 0.041981 15.102 0.056532
260.38 535.51 undefined 1021.1 1113.4 3.3676 40.000 0.025000 1021.1 1113.4 3.3676 2.5064 2.8089 308.63 0.041744 15.127 0.056722 40.000 0.025000 1021.1 1113.4 3.3676 2.5064 2.8089 308.63 0.041744 15.127 0.056722
261.38 536.79 undefined 1023.6 1116.1 3.3723 40.000 0.025000 1023.6 1116.1 3.3723 2.5100 2.8120 309.03 0.041508 15.152 0.056912 40.000 0.025000 1023.6 1116.1 3.3723 2.5100 2.8120 309.03 0.041508 15.152 0.056912
262.38 538.06 undefined 1026.1 1118.9 3.3770 40.000 0.025000 1026.1 1118.9 3.3770 2.5136 2.8152 309.44 0.041274 15.178 0.057102 40.000 0.025000 1026.1 1118.9 3.3770 2.5136 2.8152 309.44 0.041274 15.178 0.057102
263.38 539.33 undefined 1028.6 1121.6 3.3817 40.000 0.025000 1028.6 1121.6 3.3817 2.5172 2.8184 309.84 0.041043 15.203 0.057292 40.000 0.025000 1028.6 1121.6 3.3817 2.5172 2.8184 309.84 0.041043 15.203 0.057292
264.38 540.60 undefined 1031.2 1124.4 3.3864 40.000 0.025000 1031.2 1124.4 3.3864 2.5208 2.8216 310.25 0.040813 15.228 0.057483 40.000 0.025000 1031.2 1124.4 3.3864 2.5208 2.8216 310.25 0.040813 15.228 0.057483
265.38 541.88 undefined 1033.7 1127.1 3.3911 40.000 0.025000 1033.7 1127.1 3.3911 2.5244 2.8248 310.65 0.040585 15.253 0.057674 40.000 0.025000 1033.7 1127.1 3.3911 2.5244 2.8248 310.65 0.040585 15.253 0.057674
266.38 543.15 undefined 1036.2 1129.8 3.3958 40.000 0.025000 1036.2 1129.8 3.3958 2.5280 2.8279 311.05 0.040359 15.278 0.057865 40.000 0.025000 1036.2 1129.8 3.3958 2.5280 2.8279 311.05 0.040359 15.278 0.057865
267.38 544.42 undefined 1038.7 1132.6 3.4005 40.000 0.025000 1038.7 1132.6 3.4005 2.5316 2.8311 311.45 0.040134 15.303 0.058057 40.000 0.025000 1038.7 1132.6 3.4005 2.5316 2.8311 311.45 0.040134 15.303 0.058057
268.38 545.69 undefined 1041.3 1135.3 3.4051 40.000 0.025000 1041.3 1135.3 3.4051 2.5352 2.8343 311.86 0.039912 15.328 0.058249 40.000 0.025000 1041.3 1135.3 3.4051 2.5352 2.8343 311.86 0.039912 15.328 0.058249
269.38 546.97 undefined 1043.8 1138.1 3.4098 40.000 0.025000 1043.8 1138.1 3.4098 2.5387 2.8375 312.26 0.039691 15.353 0.058441 40.000 0.025000 1043.8 1138.1 3.4098 2.5387 2.8375 312.26 0.039691 15.353 0.058441
270.38 548.24 undefined 1046.4 1140.9 3.4145 40.000 0.025000 1046.4 1140.9 3.4145 2.5423 2.8406 312.66 0.039472 15.378 0.058633 40.000 0.025000 1046.4 1140.9 3.4145 2.5423 2.8406 312.66 0.039472 15.378 0.058633
271.38 549.51 undefined 1048.9 1143.6 3.4192 40.000 0.025000 1048.9 1143.6 3.4192 2.5459 2.8438 313.06 0.039254 15.403 0.058825 40.000 0.025000 1048.9 1143.6 3.4192 2.5459 2.8438 313.06 0.039254 15.403 0.058825
272.38 550.78 undefined 1051.4 1146.4 3.4239 40.000 0.025000 1051.4 1146.4 3.4239 2.5494 2.8470 313.46 0.039039 15.428 0.059018 40.000 0.025000 1051.4 1146.4 3.4239 2.5494 2.8470 313.46 0.039039 15.428 0.059018
273.38 552.05 undefined 1054.0 1149.2 3.4285 40.000 0.025000 1054.0 1149.2 3.4285 2.5530 2.8501 313.85 0.038825 15.453 0.059211 40.000 0.025000 1054.0 1149.2 3.4285 2.5530 2.8501 313.85 0.038825 15.453 0.059211
274.38 553.32 undefined 1056.6 1151.9 3.4332 40.000 0.025000 1056.6 1151.9 3.4332 2.5565 2.8533 314.25 0.038612 15.478 0.059404 40.000 0.025000 1056.6 1151.9 3.4332 2.5565 2.8533 314.25 0.038612 15.478 0.059404
275.38 554.59 undefined 1059.1 1154.7 3.4379 40.000 0.025000 1059.1 1154.7 3.4379 2.5601 2.8565 314.65 0.038402 15.503 0.059597 40.000 0.025000 1059.1 1154.7 3.4379 2.5601 2.8565 314.65 0.038402 15.503 0.059597
276.38 555.86 undefined 1061.7 1157.5 3.4425 40.000 0.025000 1061.7 1157.5 3.4425 2.5636 2.8596 315.05 0.038193 15.528 0.059791 40.000 0.025000 1061.7 1157.5 3.4425 2.5636 2.8596 315.05 0.038193 15.528 0.059791
277.38 557.13 undefined 1064.2 1160.3 3.4472 40.000 0.025000 1064.2 1160.3 3.4472 2.5672 2.8628 315.44 0.037985 15.553 0.059984 40.000 0.025000 1064.2 1160.3 3.4472 2.5672 2.8628 315.44 0.037985 15.553 0.059984
278.38 558.40 undefined 1066.8 1163.1 3.4519 40.000 0.025000 1066.8 1163.1 3.4519 2.5707 2.8660 315.84 0.037780 15.578 0.060178 40.000 0.025000 1066.8 1163.1 3.4519 2.5707 2.8660 315.84 0.037780 15.578 0.060178
279.38 559.67 undefined 1069.4 1165.9 3.4565 40.000 0.025000 1069.4 1165.9 3.4565 2.5743 2.8691 316.24 0.037575 15.602 0.060371 40.000 0.025000 1069.4 1165.9 3.4565 2.5743 2.8691 316.24 0.037575 15.602 0.060371
280.38 560.94 undefined 1072.0 1168.6 3.4612 40.000 0.025000 1072.0 1168.6 3.4612 2.5778 2.8723 316.63 0.037373 15.627 0.060564 40.000 0.025000 1072.0 1168.6 3.4612 2.5778 2.8723 316.63 0.037373 15.627 0.060564
281.38 562.21 undefined 1074.5 1171.4 3.4658 40.000 0.025000 1074.5 1171.4 3.4658 2.5813 2.8754 317.02 0.037172 15.652 0.060755 40.000 0.025000 1074.5 1171.4 3.4658 2.5813 2.8754 317.02 0.037172 15.652 0.060755
282.38 563.48 undefined 1077.1 1174.2 3.4705 40.000 0.025000 1077.1 1174.2 3.4705 2.5848 2.8786 317.42 0.036972 15.677 0.060948 40.000 0.025000 1077.1 1174.2 3.4705 2.5848 2.8786 317.42 0.036972 15.677 0.060948
283.38 564.75 undefined 1079.7 1177.1 3.4751 40.000 0.025000 1079.7 1177.1 3.4751 2.5884 2.8818 317.81 0.036774 15.701 0.061145 40.000 0.025000 1079.7 1177.1 3.4751 2.5884 2.8818 317.81 0.036774 15.701 0.061145
284.38 566.02 undefined 1082.3 1179.9 3.4798 40.000 0.025000 1082.3 1179.9 3.4798 2.5919 2.8849 318.20 0.036577 15.726 0.061343 40.000 0.025000 1082.3 1179.9 3.4798 2.5919 2.8849 318.20 0.036577 15.726 0.061343
285.38 567.28 undefined 1084.9 1182.7 3.4844 40.000 0.025000 1084.9 1182.7 3.4844 2.5954 2.8881 318.60 0.036382 15.751 0.061541 40.000 0.025000 1084.9 1182.7 3.4844 2.5954 2.8881 318.60 0.036382 15.751 0.061541
286.38 568.55 undefined 1087.5 1185.5 3.4891 40.000 0.025000 1087.5 1185.5 3.4891 2.5989 2.8912 318.99 0.036189 15.775 0.061740 40.000 0.025000 1087.5 1185.5 3.4891 2.5989 2.8912 318.99 0.036189 15.775 0.061740
287.38 569.82 undefined 1090.1 1188.3 3.4937 40.000 0.025000 1090.1 1188.3 3.4937 2.6024 2.8944 319.38 0.035996 15.800 0.061938 40.000 0.025000 1090.1 1188.3 3.4937 2.6024 2.8944 319.38 0.035996 15.800 0.061938
288.38 571.09 undefined 1092.7 1191.1 3.4984 40.000 0.025000 1092.7 1191.1 3.4984 2.6059 2.8975 319.77 0.035806 15.825 0.062137 40.000 0.025000 1092.7 1191.1 3.4984 2.6059 2.8975 319.77 0.035806 15.825 0.062137
289.38 572.36 undefined 1095.3 1194.0 3.5030 40.000 0.025000 1095.3 1194.0 3.5030 2.6094 2.9006 320.16 0.035616 15.849 0.062337 40.000 0.025000 1095.3 1194.0 3.5030 2.6094 2.9006 320.16 0.035616 15.849 0.062337
290.38 573.62 undefined 1097.9 1196.8 3.5076 40.000 0.025000 1097.9 1196.8 3.5076 2.6129 2.9038 320.55 0.035429 15.874 0.062536 40.000 0.025000 1097.9 1196.8 3.5076 2.6129 2.9038 320.55 0.035429 15.874 0.062536
291.38 574.89 undefined 1100.5 1199.6 3.5123 40.000 0.025000 1100.5 1199.6 3.5123 2.6164 2.9069 320.94 0.035242 15.898 0.062736 40.000 0.025000 1100.5 1199.6 3.5123 2.6164 2.9069 320.94 0.035242 15.898 0.062736
292.38 576.16 undefined 1103.1 1202.5 3.5169 40.000 0.025000 1103.1 1202.5 3.5169 2.6198 2.9101 321.33 0.035057 15.923 0.062936 40.000 0.025000 1103.1 1202.5 3.5169 2.6198 2.9101 321.33 0.035057 15.923 0.062936
293.38 577.42 undefined 1105.8 1205.3 3.5215 40.000 0.025000 1105.8 1205.3 3.5215 2.6233 2.9132 321.71 0.034873 15.947 0.063137 40.000 0.025000 1105.8 1205.3 3.5215 2.6233 2.9132 321.71 0.034873 15.947 0.063137
294.38 578.69 undefined 1108.4 1208.1 3.5262 40.000 0.025000 1108.4 1208.1 3.5262 2.6268 2.9163 322.10 0.034691 15.972 0.063337 40.000 0.025000 1108.4 1208.1 3.5262 2.6268 2.9163 322.10 0.034691 15.972 0.063337
295.38 579.96 undefined 1111.0 1211.0 3.5308 40.000 0.025000 1111.0 1211.0 3.5308 2.6303 2.9195 322.49 0.034510 15.996 0.063538 40.000 0.025000 1111.0 1211.0 3.5308 2.6303 2.9195 322.49 0.034510 15.996 0.063538
296.38 581.23 undefined 1113.7 1213.8 3.5354 40.000 0.025000 1113.7 1213.8 3.5354 2.6337 2.9226 322.87 0.034330 16.020 0.063740 40.000 0.025000 1113.7 1213.8 3.5354 2.6337 2.9226 322.87 0.034330 16.020 0.063740
297.38 582.49 undefined 1116.3 1216.7 3.5401 40.000 0.025000 1116.3 1216.7 3.5401 2.6372 2.9257 323.26 0.034152 16.045 0.063941 40.000 0.025000 1116.3 1216.7 3.5401 2.6372 2.9257 323.26 0.034152 16.045 0.063941
298.38 583.76 undefined 1118.9 1219.5 3.5447 40.000 0.025000 1118.9 1219.5 3.5447 2.6406 2.9289 323.65 0.033974 16.069 0.064143 40.000 0.025000 1118.9 1219.5 3.5447 2.6406 2.9289 323.65 0.033974 16.069 0.064143
299.38 585.02 undefined 1121.6 1222.4 3.5493 40.000 0.025000 1121.6 1222.4 3.5493 2.6441 2.9320 324.03 0.033799 16.093 0.064346 40.000 0.025000 1121.6 1222.4 3.5493 2.6441 2.9320 324.03 0.033799 16.093 0.064346
300.38 586.29 undefined 1124.2 1225.3 3.5539 40.000 0.025000 1124.2 1225.3 3.5539 2.6475 2.9351 324.41 0.033624 16.118 0.064548 40.000 0.025000 1124.2 1225.3 3.5539 2.6475 2.9351 324.41 0.033624 16.118 0.064548