Temperature (C) Pressure (psia) Quality (l+v) Internal Energy (l+v, kJ/kg) Enthalpy (l+v, kJ/kg) Entropy (l+v, J/g*K) Density (l, kg/m3) Volume (l, m3/kg) Internal Energy (l, kJ/kg) Enthalpy (l, kJ/kg) Entropy (l, J/g*K) Cv (l, J/g*K) Cp (l, J/g*K) Sound Spd. (l, m/s) Joule-Thomson (l, F/psia) Viscosity (l, uPa*s) Therm. Cond. (l, W/m*K) Density (v, kg/m3) Volume (v, m3/kg) Internal Energy (v, kJ/kg) Enthalpy (v, kJ/kg) Entropy (v, J/g*K) Cv (v, J/g*K) Cp (v, J/g*K) Sound Spd. (v, m/s) Joule-Thomson (v, F/psia) Viscosity (v, uPa*s) Therm. Cond. (v, W/m*K)
-187.62 2.4953e-08 1.0550e-11 -196.64 -196.64 -1.3959 733.13 0.0013640 -196.64 -196.64 -1.3959 1.3553 1.9158 2136.4 -0.0077592 10960. 0.20792 1.0669e-08 9.3732e+07 350.13 366.26 5.1858 0.69067 0.87923 143.28 6.1051 2.3259 0.0017061
-186.62 3.7339e-08 1.5574e-11 -194.73 -194.73 -1.3736 732.08 0.0013660 -194.73 -194.73 -1.3736 1.3539 1.9166 2129.6 -0.0077546 10073. 0.20765 1.5780e-08 6.3371e+07 350.82 367.14 5.1200 0.69462 0.88317 144.03 5.9178 2.3534 0.0017533
-185.62 5.5322e-08 2.2766e-11 -192.81 -192.81 -1.3516 731.04 0.0013679 -192.81 -192.81 -1.3516 1.3525 1.9174 2122.9 -0.0077498 9276.1 0.20737 2.3112e-08 4.3267e+07 351.52 368.02 5.0561 0.69857 0.88713 144.77 5.7383 2.3808 0.0018007
-184.62 8.1182e-08 3.2966e-11 -190.89 -190.89 -1.3298 730.00 0.0013699 -190.89 -190.89 -1.3298 1.3513 1.9182 2116.1 -0.0077448 8557.8 0.20708 3.3533e-08 2.9821e+07 352.22 368.91 4.9939 0.70253 0.89108 145.51 5.5662 2.4083 0.0018485
-183.62 1.1803e-07 4.7301e-11 -188.97 -188.97 -1.3083 728.96 0.0013718 -188.97 -188.97 -1.3083 1.3501 1.9191 2109.3 -0.0077395 7909.8 0.20678 4.8211e-08 2.0742e+07 352.92 369.81 4.9333 0.70648 0.89504 146.24 5.4011 2.4357 0.0018965
-182.62 1.7009e-07 6.7273e-11 -187.05 -187.05 -1.2869 727.92 0.0013738 -187.05 -187.05 -1.2869 1.3490 1.9201 2102.5 -0.0077340 7324.3 0.20647 6.8704e-08 1.4555e+07 353.63 370.70 4.8744 0.71043 0.89899 146.97 5.2426 2.4632 0.0019448
-181.62 2.4299e-07 9.4866e-11 -185.13 -185.13 -1.2658 726.88 0.0013757 -185.13 -185.13 -1.2658 1.3480 1.9210 2095.7 -0.0077283 6794.5 0.20616 9.7079e-08 1.0301e+07 354.35 371.60 4.8170 0.71438 0.90294 147.69 5.0904 2.4906 0.0019934
-180.62 3.4425e-07 1.3268e-10 -183.21 -183.21 -1.2450 725.85 0.0013777 -183.21 -183.21 -1.2450 1.3470 1.9220 2088.9 -0.0077225 6314.4 0.20584 1.3605e-07 7.3504e+06 355.06 372.51 4.7612 0.71833 0.90688 148.41 4.9442 2.5181 0.0020423
-179.62 4.8378e-07 1.8409e-10 -181.29 -181.29 -1.2243 724.81 0.0013797 -181.29 -181.29 -1.2243 1.3461 1.9231 2082.0 -0.0077164 5878.8 0.20551 1.8915e-07 5.2868e+06 355.78 373.42 4.7068 0.72227 0.91082 149.13 4.8038 2.5456 0.0020915
-178.62 6.7459e-07 2.5347e-10 -179.37 -179.37 -1.2038 723.78 0.0013816 -179.37 -179.37 -1.2038 1.3453 1.9241 2075.2 -0.0077102 5482.9 0.20517 2.6096e-07 3.8320e+06 356.51 374.33 4.6538 0.72620 0.91475 149.84 4.6688 2.5731 0.0021410
-177.62 9.3358e-07 3.4641e-10 -177.44 -177.44 -1.1836 722.75 0.0013836 -177.44 -177.44 -1.1836 1.3445 1.9252 2068.4 -0.0077039 5122.6 0.20483 3.5737e-07 2.7982e+06 357.23 375.25 4.6022 0.73012 0.91867 150.54 4.5390 2.6005 0.0021907
-176.62 1.2826e-06 4.7002e-10 -175.52 -175.52 -1.1635 721.72 0.0013856 -175.52 -175.52 -1.1635 1.3437 1.9263 2061.5 -0.0076973 4794.1 0.20447 4.8588e-07 2.0581e+06 357.97 376.17 4.5519 0.73403 0.92258 151.25 4.4142 2.6280 0.0022408
-175.62 1.7496e-06 6.3330e-10 -173.59 -173.59 -1.1437 720.69 0.0013876 -173.59 -173.59 -1.1437 1.3430 1.9274 2054.7 -0.0076907 4494.3 0.20411 6.5601e-07 1.5244e+06 358.70 377.09 4.5029 0.73792 0.92648 151.95 4.2941 2.6555 0.0022912
-174.62 2.3705e-06 8.4756e-10 -171.66 -171.66 -1.1240 719.66 0.0013895 -171.66 -171.66 -1.1240 1.3423 1.9286 2047.9 -0.0076838 4220.2 0.20375 8.7976e-07 1.1367e+06 359.44 378.02 4.4551 0.74181 0.93036 152.64 4.1784 2.6830 0.0023418
-173.62 3.1903e-06 1.1269e-09 -169.73 -169.73 -1.1045 718.64 0.0013915 -169.73 -169.73 -1.1045 1.3417 1.9298 2041.0 -0.0076769 3969.3 0.20338 1.1721e-06 8.5314e+05 360.19 378.95 4.4085 0.74568 0.93423 153.33 4.0671 2.7105 0.0023928
-172.62 4.2661e-06 1.4888e-09 -167.80 -167.80 -1.0852 717.61 0.0013935 -167.80 -167.80 -1.0852 1.3411 1.9310 2034.2 -0.0076698 3739.3 0.20300 1.5518e-06 6.4441e+05 360.93 379.89 4.3631 0.74953 0.93809 154.02 3.9599 2.7379 0.0024440
-171.62 5.6692e-06 1.9550e-09 -165.87 -165.87 -1.0661 716.58 0.0013955 -165.87 -165.87 -1.0661 1.3405 1.9322 2027.3 -0.0076625 3528.0 0.20261 2.0419e-06 4.8974e+05 361.69 380.83 4.3188 0.75337 0.94193 154.71 3.8566 2.7654 0.0024955
-170.62 7.4884e-06 2.5518e-09 -163.94 -163.94 -1.0472 715.56 0.0013975 -163.94 -163.94 -1.0472 1.3400 1.9334 2020.5 -0.0076552 3333.8 0.20222 2.6708e-06 3.7442e+05 362.44 381.77 4.2755 0.75720 0.94575 155.39 3.7570 2.7929 0.0025473
-169.62 9.8334e-06 3.3115e-09 -162.00 -162.00 -1.0284 714.54 0.0013995 -162.00 -162.00 -1.0284 1.3395 1.9347 2013.6 -0.0076477 3154.9 0.20182 3.4733e-06 2.8791e+05 363.20 382.72 4.2334 0.76100 0.94956 156.07 3.6609 2.8204 0.0025994
-168.62 1.2839e-05 4.2735e-09 -160.07 -160.07 -1.0098 713.52 0.0014015 -160.07 -160.07 -1.0098 1.3390 1.9359 2006.8 -0.0076401 2989.9 0.20141 4.4917e-06 2.2263e+05 363.96 383.67 4.1922 0.76479 0.95335 156.74 3.5683 2.8479 0.0026518
-167.62 1.6672e-05 5.4849e-09 -158.13 -158.13 -0.99134 712.49 0.0014035 -158.13 -158.13 -0.99134 1.3386 1.9372 2000.0 -0.0076323 2837.5 0.20100 5.7771e-06 1.7310e+05 364.73 384.63 4.1521 0.76856 0.95712 157.41 3.4790 2.8754 0.0027045
-166.62 2.1533e-05 7.0027e-09 -156.19 -156.19 -0.97306 711.47 0.0014055 -156.19 -156.19 -0.97306 1.3382 1.9385 1993.1 -0.0076245 2696.5 0.20058 7.3914e-06 1.3529e+05 365.50 385.59 4.1129 0.77232 0.96087 158.08 3.3927 2.9029 0.0027575
-165.62 2.7666e-05 8.8946e-09 -154.25 -154.25 -0.95494 710.45 0.0014075 -154.25 -154.25 -0.95494 1.3378 1.9398 1986.3 -0.0076165 2566.0 0.20016 9.4084e-06 1.0629e+05 366.27 386.55 4.0746 0.77605 0.96460 158.75 3.3095 2.9304 0.0028108
-164.62 3.5367e-05 1.1242e-08 -152.31 -152.31 -0.93698 709.44 0.0014096 -152.31 -152.31 -0.93698 1.3375 1.9411 1979.4 -0.0076084 2444.9 0.19973 1.1916e-05 83918. 367.05 387.52 4.0372 0.77976 0.96832 159.41 3.2291 2.9579 0.0028643
-163.62 4.4989e-05 1.4139e-08 -150.37 -150.37 -0.91917 708.42 0.0014116 -150.37 -150.37 -0.91917 1.3371 1.9424 1972.6 -0.0076002 2332.3 0.19930 1.5020e-05 66577. 367.83 388.49 4.0008 0.78346 0.97201 160.07 3.1514 2.9854 0.0029182
-162.62 5.6956e-05 1.7700e-08 -148.43 -148.43 -0.90151 707.40 0.0014136 -148.43 -148.43 -0.90151 1.3368 1.9437 1965.8 -0.0075919 2227.7 0.19886 1.8844e-05 53068. 368.62 389.46 3.9651 0.78713 0.97569 160.72 3.0764 3.0129 0.0029723
-161.62 7.1773e-05 2.2057e-08 -146.48 -146.48 -0.88400 706.38 0.0014157 -146.48 -146.48 -0.88400 1.3365 1.9451 1959.0 -0.0075834 2130.2 0.19841 2.3533e-05 42494. 369.41 390.44 3.9304 0.79079 0.97935 161.38 3.0038 3.0404 0.0030268
-160.62 9.0036e-05 2.7364e-08 -144.54 -144.54 -0.86663 705.37 0.0014177 -144.54 -144.54 -0.86663 1.3363 1.9465 1952.1 -0.0075748 2039.2 0.19796 2.9258e-05 34178. 370.20 391.42 3.8964 0.79443 0.98298 162.03 2.9337 3.0679 0.0030815
-159.62 0.00011245 3.3801e-08 -142.59 -142.59 -0.84940 704.35 0.0014197 -142.59 -142.59 -0.84940 1.3360 1.9478 1945.3 -0.0075661 1954.2 0.19751 3.6221e-05 27609. 371.00 392.40 3.8632 0.79805 0.98660 162.68 2.8658 3.0955 0.0031365
-158.62 0.00013985 4.1578e-08 -140.64 -140.64 -0.83231 703.34 0.0014218 -140.64 -140.64 -0.83231 1.3358 1.9492 1938.5 -0.0075573 1874.8 0.19705 4.4652e-05 22395. 371.80 393.39 3.8307 0.80164 0.99020 163.32 2.8002 3.1230 0.0031918
-157.62 0.00017320 5.0935e-08 -138.69 -138.69 -0.81536 702.32 0.0014238 -138.69 -138.69 -0.81536 1.3356 1.9506 1931.7 -0.0075484 1800.3 0.19658 5.4822e-05 18241. 372.60 394.38 3.7990 0.80522 0.99378 163.96 2.7367 3.1505 0.0032474
-156.62 0.00021364 6.2149e-08 -136.74 -136.74 -0.79854 701.31 0.0014259 -136.74 -136.74 -0.79854 1.3354 1.9520 1924.9 -0.0075393 1730.5 0.19611 6.7040e-05 14916. 373.41 395.38 3.7680 0.80878 0.99734 164.60 2.6752 3.1780 0.0033033
-155.62 0.00026248 7.5540e-08 -134.79 -134.79 -0.78185 700.30 0.0014280 -134.79 -134.79 -0.78185 1.3352 1.9534 1918.1 -0.0075302 1664.9 0.19564 8.1666e-05 12245. 374.22 396.38 3.7377 0.81232 1.0009 165.24 2.6157 3.2055 0.0033595
-154.62 0.00032125 9.1469e-08 -132.83 -132.83 -0.76530 699.29 0.0014300 -132.83 -132.83 -0.76530 1.3350 1.9548 1911.3 -0.0075209 1603.3 0.19516 9.9109e-05 10090. 375.03 397.38 3.7081 0.81585 1.0044 165.87 2.5580 3.2330 0.0034160
-153.62 0.00039171 1.1035e-07 -130.88 -130.88 -0.74887 698.27 0.0014321 -130.88 -130.88 -0.74887 1.3349 1.9563 1904.5 -0.0075114 1545.3 0.19468 0.00011984 8344.6 375.85 398.39 3.6792 0.81935 1.0079 166.50 2.5022 3.2606 0.0034727
-152.62 0.00047590 1.3266e-07 -128.92 -128.92 -0.73256 697.26 0.0014342 -128.92 -128.92 -0.73256 1.3348 1.9577 1897.8 -0.0075019 1490.6 0.19419 0.00014439 6925.9 376.67 399.40 3.6509 0.82284 1.0114 167.13 2.4481 3.2881 0.0035298
-151.62 0.00057613 1.5891e-07 -126.96 -126.96 -0.71638 696.25 0.0014363 -126.96 -126.96 -0.71638 1.3346 1.9592 1891.0 -0.0074922 1438.9 0.19370 0.00017336 5768.4 377.49 400.41 3.6232 0.82631 1.0149 167.76 2.3957 3.3156 0.0035872
-150.62 0.00069507 1.8972e-07 -125.00 -125.00 -0.70032 695.24 0.0014384 -125.00 -125.00 -0.70032 1.3345 1.9606 1884.2 -0.0074824 1390.2 0.19320 0.00020744 4820.7 378.32 401.42 3.5962 0.82976 1.0183 168.38 2.3448 3.3431 0.0036448
-149.62 0.00083574 2.2575e-07 -123.04 -123.04 -0.68437 694.23 0.0014404 -123.04 -123.04 -0.68438 1.3345 1.9621 1877.4 -0.0074724 1344.0 0.19270 0.00024740 4042.0 379.15 402.44 3.5697 0.83319 1.0218 169.00 2.2956 3.3706 0.0037027
-148.62 0.0010016 2.6776e-07 -121.08 -121.08 -0.66855 693.22 0.0014425 -121.08 -121.08 -0.66855 1.3344 1.9636 1870.7 -0.0074623 1300.3 0.19220 0.00029412 3400.0 379.99 403.47 3.5438 0.83661 1.0252 169.62 2.2478 3.3982 0.0037610
-147.62 0.0011965 3.1659e-07 -119.11 -119.11 -0.65284 692.21 0.0014447 -119.11 -119.11 -0.65284 1.3343 1.9651 1863.9 -0.0074521 1258.9 0.19169 0.00034856 2869.0 380.83 404.49 3.5185 0.84001 1.0286 170.24 2.2014 3.4257 0.0038195
-146.62 0.0014249 3.7317e-07 -117.15 -117.15 -0.63724 691.20 0.0014468 -117.15 -117.15 -0.63724 1.3343 1.9666 1857.2 -0.0074417 1219.6 0.19117 0.00041181 2428.3 381.67 405.52 3.4938 0.84340 1.0320 170.85 2.1565 3.4532 0.0038783
-145.62 0.0016917 4.3856e-07 -115.18 -115.18 -0.62175 690.19 0.0014489 -115.18 -115.18 -0.62175 1.3343 1.9682 1850.4 -0.0074312 1182.3 0.19066 0.00048510 2061.4 382.51 406.56 3.4695 0.84677 1.0353 171.46 2.1128 3.4807 0.0039374
-144.62 0.0020026 5.1389e-07 -113.21 -113.21 -0.60637 689.18 0.0014510 -113.21 -113.21 -0.60637 1.3343 1.9697 1843.7 -0.0074206 1146.8 0.19014 0.00056976 1755.1 383.36 407.59 3.4458 0.85012 1.0387 172.07 2.0705 3.5082 0.0039967
-143.62 0.0023637 6.0045e-07 -111.24 -111.24 -0.59110 688.17 0.0014531 -111.24 -111.24 -0.59110 1.3343 1.9713 1836.9 -0.0074098 1113.0 0.18962 0.00066731 1498.6 384.21 408.63 3.4226 0.85346 1.0420 172.68 2.0294 3.5358 0.0040564
-142.62 0.0027820 6.9964e-07 -109.27 -109.27 -0.57593 687.16 0.0014553 -109.27 -109.27 -0.57593 1.3343 1.9728 1830.2 -0.0073988 1080.8 0.18909 0.00077939 1283.1 385.07 409.68 3.3999 0.85679 1.0454 173.28 1.9896 3.5633 0.0041164
-141.62 0.0032653 8.1300e-07 -107.30 -107.30 -0.56087 686.15 0.0014574 -107.30 -107.30 -0.56087 1.3343 1.9744 1823.5 -0.0073878 1050.1 0.18856 0.00090784 1101.5 385.93 410.72 3.3777 0.86011 1.0487 173.88 1.9508 3.5908 0.0041766
-140.62 0.0038222 9.4223e-07 -105.32 -105.32 -0.54590 685.14 0.0014596 -105.32 -105.32 -0.54591 1.3344 1.9760 1816.7 -0.0073765 1020.7 0.18803 0.0010547 948.16 386.79 411.77 3.3560 0.86341 1.0520 174.48 1.9133 3.6183 0.0042372
-139.62 0.0044623 1.0892e-06 -103.34 -103.34 -0.53104 684.13 0.0014617 -103.34 -103.34 -0.53105 1.3344 1.9776 1810.0 -0.0073651 992.74 0.18749 0.0012221 818.26 387.65 412.83 3.3347 0.86670 1.0553 175.08 1.8768 3.6459 0.0042980
-138.62 0.0051963 1.2558e-06 -101.37 -101.37 -0.51628 683.12 0.0014639 -101.37 -101.37 -0.51629 1.3345 1.9792 1803.3 -0.0073536 965.97 0.18695 0.0014125 707.94 388.52 413.88 3.3139 0.86998 1.0586 175.67 1.8413 3.6734 0.0043592
-137.62 0.0060358 1.4445e-06 -99.385 -99.385 -0.50162 682.11 0.0014660 -99.386 -99.386 -0.50162 1.3346 1.9808 1796.6 -0.0073419 940.35 0.18641 0.0016287 614.00 389.39 414.94 3.2935 0.87325 1.0619 176.26 1.8069 3.7009 0.0044206
-136.62 0.0069938 1.6574e-06 -97.404 -97.404 -0.48705 681.10 0.0014682 -97.404 -97.404 -0.48705 1.3347 1.9825 1789.9 -0.0073301 915.81 0.18586 0.0018733 533.80 390.26 416.00 3.2735 0.87650 1.0651 176.85 1.7734 3.7284 0.0044823
-135.62 0.0080843 1.8972e-06 -95.420 -95.420 -0.47257 680.09 0.0014704 -95.421 -95.421 -0.47258 1.3348 1.9841 1783.2 -0.0073180 892.30 0.18531 0.0021497 465.17 391.14 417.07 3.2540 0.87975 1.0684 177.44 1.7409 3.7559 0.0045443
-134.62 0.0093230 2.1668e-06 -93.435 -93.435 -0.45819 679.08 0.0014726 -93.436 -93.436 -0.45820 1.3350 1.9858 1776.5 -0.0073059 869.75 0.18476 0.0024613 406.30 392.02 418.14 3.2348 0.88299 1.0716 178.02 1.7093 3.7834 0.0046066
-133.62 0.010727 2.4691e-06 -91.448 -91.448 -0.44390 678.07 0.0014748 -91.450 -91.449 -0.44391 1.3351 1.9875 1769.8 -0.0072935 848.11 0.18421 0.0028116 355.67 392.91 419.21 3.2161 0.88622 1.0749 178.61 1.6786 3.8109 0.0046691
-132.62 0.012315 2.8073e-06 -89.460 -89.460 -0.42970 677.06 0.0014770 -89.461 -89.461 -0.42971 1.3353 1.9892 1763.1 -0.0072810 827.32 0.18365 0.0032049 312.03 393.79 420.29 3.1977 0.88944 1.0781 179.19 1.6488 3.8385 0.0047320
-131.62 0.014106 3.1851e-06 -87.470 -87.469 -0.41559 676.04 0.0014792 -87.471 -87.471 -0.41560 1.3354 1.9909 1756.4 -0.0072684 807.34 0.18309 0.0036453 274.33 394.68 421.36 3.1798 0.89266 1.0813 179.76 1.6197 3.8660 0.0047951
-130.62 0.016124 3.6060e-06 -85.478 -85.477 -0.40156 675.03 0.0014814 -85.479 -85.479 -0.40157 1.3356 1.9926 1749.7 -0.0072555 788.12 0.18253 0.0041375 241.69 395.58 422.44 3.1622 0.89586 1.0846 180.34 1.5915 3.8935 0.0048586
-129.62 0.018392 4.0742e-06 -83.484 -83.484 -0.38762 674.02 0.0014836 -83.486 -83.486 -0.38763 1.3358 1.9944 1743.0 -0.0072425 769.63 0.18196 0.0046867 213.37 396.47 423.53 3.1450 0.89906 1.0878 180.91 1.5641 3.9210 0.0049223
-128.62 0.020935 4.5939e-06 -81.488 -81.488 -0.37377 673.01 0.0014859 -81.491 -81.490 -0.37378 1.3360 1.9961 1736.3 -0.0072294 751.83 0.18140 0.0052981 188.75 397.37 424.62 3.1281 0.90226 1.0910 181.48 1.5374 3.9485 0.0049863
-127.62 0.023783 5.1697e-06 -79.491 -79.491 -0.35999 672.00 0.0014881 -79.494 -79.493 -0.36001 1.3363 1.9979 1729.6 -0.0072160 734.67 0.18083 0.0059776 167.29 398.27 425.71 3.1116 0.90545 1.0942 182.05 1.5114 3.9760 0.0050506
-126.62 0.026966 5.8064e-06 -77.492 -77.492 -0.34630 670.98 0.0014904 -77.495 -77.495 -0.34632 1.3365 1.9997 1722.9 -0.0072025 718.14 0.18025 0.0067313 148.56 399.18 426.80 3.0954 0.90863 1.0974 182.62 1.4861 4.0035 0.0051152
-125.62 0.030515 6.5093e-06 -75.491 -75.491 -0.33269 669.97 0.0014926 -75.494 -75.494 -0.33272 1.3368 2.0015 1716.2 -0.0071888 702.18 0.17968 0.0075660 132.17 400.09 427.89 3.0795 0.91181 1.1006 183.18 1.4615 4.0310 0.0051800
-124.62 0.034467 7.2838e-06 -73.488 -73.488 -0.31916 668.95 0.0014949 -73.492 -73.492 -0.31919 1.3371 2.0033 1709.5 -0.0071749 686.79 0.17910 0.0084885 117.81 401.00 428.99 3.0640 0.91499 1.1038 183.74 1.4375 4.0584 0.0052452
-123.62 0.038859 8.1358e-06 -71.484 -71.483 -0.30571 667.94 0.0014971 -71.488 -71.487 -0.30574 1.3374 2.0051 1702.8 -0.0071609 671.93 0.17852 0.0095065 105.19 401.91 430.10 3.0488 0.91816 1.1070 184.30 1.4141 4.0859 0.0053106
-122.62 0.043731 9.0713e-06 -69.477 -69.477 -0.29234 666.92 0.0014994 -69.482 -69.481 -0.29237 1.3377 2.0070 1696.2 -0.0071466 657.57 0.17794 0.010628 94.092 402.83 431.20 3.0339 0.92134 1.1102 184.86 1.3913 4.1134 0.0053764
-121.62 0.049128 1.0097e-05 -67.469 -67.468 -0.27904 665.91 0.0015017 -67.474 -67.473 -0.27907 1.3380 2.0089 1689.5 -0.0071322 643.70 0.17736 0.011861 84.309 403.75 432.31 3.0193 0.92451 1.1134 185.41 1.3691 4.1409 0.0054424
-120.62 0.055096 1.1219e-05 -65.459 -65.458 -0.26582 664.89 0.0015040 -65.464 -65.463 -0.26585 1.3384 2.0107 1682.8 -0.0071176 630.28 0.17678 0.013215 75.669 404.67 433.42 3.0050 0.92767 1.1166 185.96 1.3475 4.1683 0.0055087
-119.62 0.061684 1.2446e-05 -63.446 -63.445 -0.25267 663.87 0.0015063 -63.452 -63.452 -0.25271 1.3387 2.0126 1676.1 -0.0071028 617.30 0.17619 0.014700 68.027 405.60 434.53 2.9909 0.93084 1.1198 186.51 1.3264 4.1958 0.0055752
-118.62 0.068946 1.3784e-05 -61.432 -61.431 -0.23959 662.86 0.0015086 -61.439 -61.438 -0.23963 1.3391 2.0146 1669.4 -0.0070878 604.74 0.17560 0.016325 61.255 406.53 435.64 2.9772 0.93401 1.1231 187.06 1.3058 4.2233 0.0056421
-117.62 0.076937 1.5242e-05 -59.416 -59.415 -0.22658 661.84 0.0015109 -59.423 -59.422 -0.22663 1.3395 2.0165 1662.8 -0.0070726 592.58 0.17501 0.018101 55.245 407.46 436.76 2.9638 0.93718 1.1263 187.60 1.2857 4.2507 0.0057092
-116.62 0.085718 1.6827e-05 -57.398 -57.396 -0.21365 660.82 0.0015133 -57.406 -57.405 -0.21370 1.3400 2.0184 1656.1 -0.0070573 580.80 0.17442 0.020040 49.901 408.39 437.88 2.9506 0.94035 1.1295 188.14 1.2660 4.2782 0.0057767
-115.62 0.095353 1.8549e-05 -55.378 -55.376 -0.20078 659.80 0.0015156 -55.386 -55.385 -0.20084 1.3404 2.0204 1649.4 -0.0070417 569.38 0.17383 0.022152 45.142 409.33 439.01 2.9377 0.94352 1.1327 188.68 1.2468 4.3056 0.0058444
-114.62 0.10591 2.0417e-05 -53.355 -53.354 -0.18799 658.78 0.0015180 -53.365 -53.364 -0.18805 1.3409 2.0224 1642.7 -0.0070260 558.32 0.17323 0.024451 40.898 410.27 440.13 2.9250 0.94669 1.1360 189.22 1.2281 4.3330 0.0059123
-113.62 0.11746 2.2440e-05 -51.331 -51.329 -0.17526 657.76 0.0015203 -51.342 -51.340 -0.17533 1.3413 2.0244 1636.0 -0.0070100 547.59 0.17264 0.026949 37.107 411.21 441.26 2.9126 0.94987 1.1392 189.75 1.2097 4.3604 0.0059806
-112.62 0.13008 2.4627e-05 -49.305 -49.303 -0.16259 656.73 0.0015227 -49.316 -49.315 -0.16267 1.3418 2.0264 1629.3 -0.0069938 537.18 0.17204 0.029661 33.715 412.16 442.39 2.9005 0.95305 1.1424 190.28 1.1918 4.3879 0.0060491
-111.62 0.14384 2.6990e-05 -47.276 -47.274 -0.15000 655.71 0.0015251 -47.289 -47.287 -0.15008 1.3424 2.0285 1622.7 -0.0069774 527.08 0.17144 0.032600 30.675 413.10 443.53 2.8885 0.95623 1.1457 190.81 1.1742 4.4153 0.0061180
-110.62 0.15884 2.9538e-05 -45.246 -45.243 -0.13746 654.69 0.0015274 -45.259 -45.258 -0.13755 1.3429 2.0305 1616.0 -0.0069609 517.28 0.17084 0.035781 27.948 414.06 444.66 2.8769 0.95942 1.1490 191.34 1.1570 4.4427 0.0061871
-109.62 0.17516 3.2283e-05 -43.213 -43.210 -0.12499 653.66 0.0015298 -43.228 -43.226 -0.12509 1.3435 2.0326 1609.3 -0.0069441 507.76 0.17024 0.039220 25.497 415.01 445.80 2.8654 0.96261 1.1522 191.86 1.1402 4.4701 0.0062564
-108.62 0.19290 3.5237e-05 -41.178 -41.175 -0.11259 652.64 0.0015322 -41.194 -41.192 -0.11269 1.3441 2.0347 1602.6 -0.0069271 498.51 0.16964 0.042933 23.292 415.96 446.94 2.8542 0.96581 1.1555 192.38 1.1236 4.4974 0.0063261
-107.62 0.21215 3.8410e-05 -39.141 -39.137 -0.10024 651.61 0.0015347 -39.158 -39.156 -0.10036 1.3447 2.0369 1595.9 -0.0069098 489.52 0.16903 0.046937 21.305 416.92 448.09 2.8433 0.96901 1.1588 192.90 1.1075 4.5248 0.0063960
-106.62 0.23301 4.1816e-05 -37.101 -37.098 -0.087960 650.58 0.0015371 -37.120 -37.118 -0.088082 1.3453 2.0390 1589.2 -0.0068924 480.79 0.16843 0.051250 19.512 417.88 449.23 2.8325 0.97222 1.1621 193.41 1.0916 4.5522 0.0064662
-105.62 0.25561 4.5467e-05 -35.060 -35.056 -0.075737 649.55 0.0015395 -35.080 -35.078 -0.075868 1.3460 2.0412 1582.6 -0.0068747 472.30 0.16782 0.055891 17.892 418.85 450.38 2.8220 0.97544 1.1655 193.93 1.0760 4.5795 0.0065367
-104.62 0.28004 4.9375e-05 -33.016 -33.011 -0.063572 648.52 0.0015420 -33.038 -33.035 -0.063714 1.3467 2.0434 1575.9 -0.0068569 464.04 0.16721 0.060878 16.426 419.81 451.53 2.8116 0.97867 1.1688 194.44 1.0608 4.6069 0.0066074
-103.62 0.30643 5.3554e-05 -30.970 -30.965 -0.051466 647.49 0.0015444 -30.994 -30.991 -0.051619 1.3474 2.0456 1569.2 -0.0068387 456.00 0.16660 0.066231 15.099 420.78 452.68 2.8015 0.98191 1.1722 194.94 1.0458 4.6342 0.0066785
-102.62 0.33490 5.8019e-05 -28.921 -28.916 -0.039417 646.46 0.0015469 -28.947 -28.944 -0.039582 1.3481 2.0478 1562.5 -0.0068204 448.18 0.16600 0.071971 13.894 421.75 453.84 2.7916 0.98516 1.1755 195.44 1.0310 4.6615 0.0067498
-101.62 0.36558 6.2783e-05 -26.870 -26.864 -0.027425 645.43 0.0015494 -26.898 -26.894 -0.027602 1.3489 2.0501 1555.8 -0.0068018 440.57 0.16539 0.078120 12.801 422.73 454.99 2.7818 0.98841 1.1789 195.95 1.0166 4.6888 0.0068213
-100.62 0.39862 6.7860e-05 -24.817 -24.810 -0.015489 644.39 0.0015519 -24.847 -24.843 -0.015678 1.3497 2.0524 1549.1 -0.0067830 433.16 0.16478 0.084699 11.807 423.70 456.15 2.7723 0.99168 1.1823 196.44 1.0024 4.7161 0.0068932
-99.625 0.43414 7.3266e-05 -22.761 -22.754 -0.0036075 643.36 0.0015544 -22.794 -22.789 -0.0038103 1.3505 2.0547 1542.4 -0.0067639 425.95 0.16416 0.091731 10.901 424.68 457.31 2.7630 0.99496 1.1858 196.94 0.98838 4.7434 0.0069653
-98.625 0.47230 7.9015e-05 -20.703 -20.695 0.0082197 642.32 0.0015569 -20.738 -20.733 0.0080027 1.3514 2.0570 1535.7 -0.0067447 418.92 0.16355 0.099240 10.077 425.66 458.48 2.7538 0.99825 1.1892 197.43 0.97464 4.7707 0.0070377
-97.625 0.51325 8.5124e-05 -18.642 -18.634 0.019994 641.28 0.0015594 -18.680 -18.674 0.019762 1.3522 2.0594 1529.0 -0.0067251 412.07 0.16294 0.10725 9.3239 426.65 459.64 2.7448 1.0016 1.1927 197.92 0.96112 4.7979 0.0071103
-96.625 0.55714 9.1608e-05 -16.579 -16.570 0.031715 640.24 0.0015619 -16.620 -16.614 0.031467 1.3531 2.0618 1522.3 -0.0067053 405.39 0.16233 0.11579 8.6365 427.63 460.81 2.7360 1.0049 1.1962 198.40 0.94783 4.8251 0.0071832
-95.625 0.60416 9.8484e-05 -14.513 -14.503 0.043384 639.20 0.0015645 -14.557 -14.550 0.043120 1.3540 2.0642 1515.7 -0.0066853 398.88 0.16171 0.12488 8.0078 428.62 461.98 2.7274 1.0082 1.1997 198.88 0.93475 4.8524 0.0072564
-94.625 0.65446 0.00010577 -12.445 -12.434 0.055003 638.16 0.0015670 -12.491 -12.484 0.054721 1.3550 2.0667 1509.0 -0.0066650 392.53 0.16110 0.13455 7.4323 429.61 463.15 2.7189 1.0116 1.2032 199.36 0.92188 4.8796 0.0073299
-93.625 0.70822 0.00011348 -10.374 -10.362 0.066571 637.12 0.0015696 -10.424 -10.416 0.066271 1.3560 2.0691 1502.3 -0.0066444 386.34 0.16048 0.14482 6.9050 430.60 464.32 2.7107 1.0149 1.2068 199.83 0.90921 4.9068 0.0074036
-92.625 0.76564 0.00012163 -8.3000 -8.2876 0.078090 636.07 0.0015722 -8.3535 -8.3452 0.077771 1.3570 2.0716 1495.6 -0.0066236 380.31 0.15987 0.15573 6.4212 431.60 465.49 2.7025 1.0183 1.2104 200.30 0.89673 4.9340 0.0074776
-91.625 0.82689 0.00013024 -6.2237 -6.2103 0.089560 635.02 0.0015747 -6.2808 -6.2719 0.089220 1.3580 2.0742 1488.9 -0.0066025 374.41 0.15925 0.16731 5.9769 432.59 466.67 2.6946 1.0217 1.2140 200.77 0.88445 4.9611 0.0075518
-90.625 0.89218 0.00013932 -4.1446 -4.1302 0.10098 633.98 0.0015773 -4.2056 -4.1959 0.10062 1.3591 2.0767 1482.2 -0.0065811 368.66 0.15864 0.17958 5.5685 433.59 467.84 2.6868 1.0251 1.2177 201.24 0.87236 4.9883 0.0076263
-89.625 0.96172 0.00014890 -2.0628 -2.0472 0.11236 632.93 0.0015800 -2.1279 -2.1174 0.11197 1.3602 2.0793 1475.5 -0.0065595 363.05 0.15802 0.19258 5.1928 434.59 469.02 2.6791 1.0285 1.2213 201.70 0.86045 5.0154 0.0077011
-88.625 1.0357 0.00015900 0.021750 0.038552 0.12368 631.88 0.0015826 -0.047516 -0.036215 0.12328 1.3613 2.0819 1468.8 -0.0065375 357.56 0.15740 0.20633 4.8466 435.59 470.20 2.6717 1.0320 1.2250 202.15 0.84873 5.0425 0.0077761
-87.625 1.1144 0.00016962 2.1092 2.1272 0.13497 630.83 0.0015852 2.0355 2.0476 0.13454 1.3625 2.0846 1462.1 -0.0065153 352.21 0.15679 0.22087 4.5276 436.60 471.39 2.6643 1.0354 1.2288 202.61 0.83718 5.0696 0.0078514
-86.625 1.1979 0.00018080 4.1994 4.2189 0.14620 629.77 0.0015879 4.1211 4.1342 0.14575 1.3637 2.0873 1455.4 -0.0064928 346.98 0.15617 0.23623 4.2331 437.61 472.57 2.6571 1.0389 1.2325 203.06 0.82580 5.0967 0.0079270
-85.625 1.2866 0.00019255 6.2926 6.3135 0.15739 628.72 0.0015905 6.2094 6.2235 0.15691 1.3649 2.0900 1448.8 -0.0064701 341.87 0.15555 0.25245 3.9612 438.61 473.75 2.6501 1.0424 1.2363 203.50 0.81460 5.1237 0.0080028
-84.625 1.3806 0.00020488 8.3887 8.4111 0.16854 627.66 0.0015932 8.3004 8.3155 0.16803 1.3661 2.0927 1442.1 -0.0064470 336.87 0.15494 0.26956 3.7097 439.63 474.94 2.6432 1.0460 1.2402 203.95 0.80356 5.1508 0.0080789
-83.625 1.4803 0.00021782 10.488 10.512 0.17965 626.60 0.0015959 10.394 10.410 0.17911 1.3674 2.0955 1435.4 -0.0064236 331.99 0.15432 0.28760 3.4771 440.64 476.13 2.6364 1.0495 1.2440 204.38 0.79269 5.1778 0.0081553
-82.625 1.5858 0.00023139 12.590 12.616 0.19071 625.54 0.0015986 12.491 12.508 0.19014 1.3687 2.0983 1428.7 -0.0063999 327.22 0.15370 0.30659 3.2616 441.65 477.31 2.6298 1.0531 1.2479 204.82 0.78199 5.2048 0.0082319
-81.625 1.6975 0.00024560 14.695 14.723 0.20173 624.48 0.0016013 14.590 14.609 0.20113 1.3700 2.1012 1422.0 -0.0063759 322.55 0.15309 0.32659 3.0619 442.67 478.50 2.6233 1.0567 1.2519 205.25 0.77144 5.2318 0.0083088
-80.625 1.8155 0.00026048 16.803 16.833 0.21271 623.42 0.0016041 16.692 16.712 0.21208 1.3714 2.1041 1415.4 -0.0063516 317.99 0.15247 0.34763 2.8766 443.69 479.70 2.6169 1.0603 1.2558 205.67 0.76106 5.2587 0.0083860
-79.625 1.9402 0.00027604 18.915 18.946 0.22365 622.36 0.0016068 18.797 18.819 0.22299 1.3728 2.1070 1408.7 -0.0063270 313.52 0.15186 0.36974 2.7046 444.71 480.89 2.6106 1.0639 1.2598 206.10 0.75083 5.2857 0.0084634
-78.625 2.0718 0.00029231 21.029 21.063 0.23454 621.29 0.0016096 20.905 20.928 0.23385 1.3742 2.1099 1402.0 -0.0063021 309.15 0.15124 0.39296 2.5448 445.73 482.08 2.6045 1.0676 1.2639 206.51 0.74076 5.3126 0.0085411
-77.625 2.2107 0.00030930 23.147 23.183 0.24540 620.22 0.0016123 23.016 23.040 0.24468 1.3757 2.1129 1395.3 -0.0062768 304.88 0.15062 0.41735 2.3961 446.75 483.27 2.5985 1.0712 1.2680 206.93 0.73084 5.3395 0.0086190
-76.625 2.3571 0.00032704 25.268 25.306 0.25622 619.15 0.0016151 25.130 25.156 0.25546 1.3772 2.1159 1388.7 -0.0062512 300.69 0.15001 0.44292 2.2577 447.78 484.47 2.5926 1.0749 1.2721 207.34 0.72107 5.3664 0.0086972
-75.625 2.5113 0.00034553 27.392 27.433 0.26701 618.08 0.0016179 27.247 27.275 0.26620 1.3787 2.1190 1382.0 -0.0062253 296.59 0.14939 0.46974 2.1288 448.81 485.67 2.5869 1.0787 1.2762 207.74 0.71146 5.3933 0.0087757
-74.625 2.6736 0.00036482 29.520 29.563 0.27775 617.01 0.0016207 29.366 29.396 0.27691 1.3802 2.1221 1375.4 -0.0061990 292.58 0.14878 0.49783 2.0087 449.83 486.86 2.5812 1.0824 1.2804 208.14 0.70200 5.4201 0.0088544
-73.625 2.8444 0.00038490 31.651 31.697 0.28846 615.93 0.0016236 31.489 31.521 0.28758 1.3818 2.1252 1368.7 -0.0061724 288.65 0.14816 0.52725 1.8966 450.86 488.06 2.5757 1.0862 1.2847 208.54 0.69268 5.4469 0.0089334
-72.625 3.0240 0.00040581 33.785 33.834 0.29913 614.85 0.0016264 33.615 33.649 0.29821 1.3834 2.1284 1362.0 -0.0061454 284.81 0.14755 0.55804 1.7920 451.90 489.26 2.5703 1.0900 1.2889 208.93 0.68351 5.4737 0.0090126
-71.625 3.2127 0.00042756 35.923 35.975 0.30976 613.78 0.0016293 35.745 35.781 0.30880 1.3851 2.1316 1355.4 -0.0061181 281.03 0.14694 0.59024 1.6942 452.93 490.46 2.5650 1.0938 1.2932 209.32 0.67448 5.5005 0.0090922
-70.625 3.4108 0.00045017 38.064 38.120 0.32036 612.69 0.0016321 37.877 37.915 0.31935 1.3867 2.1349 1348.7 -0.0060904 277.34 0.14632 0.62390 1.6028 453.96 491.66 2.5598 1.0976 1.2976 209.70 0.66560 5.5273 0.0091720
-69.625 3.6187 0.00047366 40.209 40.268 0.33093 611.61 0.0016350 40.013 40.053 0.32987 1.3884 2.1382 1342.1 -0.0060624 273.72 0.14571 0.65906 1.5173 455.00 492.86 2.5547 1.1015 1.3020 210.08 0.65687 5.5540 0.0092520
-68.625 3.8367 0.00049805 42.358 42.420 0.34146 610.53 0.0016379 42.152 42.195 0.34036 1.3902 2.1415 1335.5 -0.0060339 270.17 0.14510 0.69577 1.4372 456.04 494.06 2.5497 1.1054 1.3064 210.45 0.64827 5.5807 0.0093324
-67.625 4.0652 0.00052336 44.510 44.576 0.35195 609.44 0.0016409 44.294 44.340 0.35080 1.3919 2.1449 1328.8 -0.0060051 266.69 0.14449 0.73408 1.3622 457.08 495.26 2.5448 1.1093 1.3109 210.82 0.63981 5.6074 0.0094130
-66.625 4.3046 0.00054961 46.665 46.735 0.36242 608.35 0.0016438 46.439 46.488 0.36122 1.3937 2.1483 1322.2 -0.0059760 263.28 0.14388 0.77404 1.2919 458.12 496.46 2.5400 1.1133 1.3154 211.18 0.63150 5.6341 0.0094939
-65.625 4.5551 0.00057682 48.825 48.899 0.37285 607.26 0.0016467 48.588 48.640 0.37160 1.3955 2.1518 1315.6 -0.0059464 259.93 0.14327 0.81570 1.2259 459.16 497.67 2.5353 1.1172 1.3200 211.54 0.62332 5.6608 0.0095750
-64.625 4.8173 0.00060500 50.988 51.066 0.38325 606.16 0.0016497 50.740 50.795 0.38195 1.3974 2.1553 1308.9 -0.0059164 256.65 0.14266 0.85910 1.1640 460.21 498.87 2.5307 1.1212 1.3246 211.89 0.61527 5.6874 0.0096564
-63.625 5.0915 0.00063417 53.155 53.238 0.39361 605.07 0.0016527 52.896 52.954 0.39226 1.3993 2.1588 1302.3 -0.0058861 253.42 0.14205 0.90429 1.1058 461.25 500.07 2.5262 1.1252 1.3293 212.24 0.60736 5.7140 0.0097382
-62.625 5.3781 0.00066435 55.326 55.413 0.40395 603.97 0.0016557 55.055 55.117 0.40254 1.4012 2.1624 1295.7 -0.0058553 250.26 0.14144 0.95134 1.0511 462.30 501.28 2.5218 1.1293 1.3340 212.58 0.59958 5.7406 0.0098201
-61.625 5.6774 0.00069556 57.501 57.593 0.41425 602.87 0.0016587 57.218 57.283 0.41279 1.4031 2.1660 1289.1 -0.0058241 247.16 0.14084 1.0003 0.99972 463.35 502.48 2.5175 1.1333 1.3387 212.92 0.59194 5.7672 0.0099024
-60.625 5.9899 0.00072782 59.679 59.776 0.42453 601.77 0.0016618 59.385 59.453 0.42301 1.4051 2.1697 1282.5 -0.0057925 244.12 0.14023 1.0512 0.95131 464.40 503.68 2.5133 1.1374 1.3435 213.26 0.58442 5.7938 0.0099850
-59.625 6.3160 0.00076113 61.862 61.964 0.43478 600.66 0.0016648 61.554 61.627 0.43320 1.4071 2.1734 1275.9 -0.0057605 241.13 0.13962 1.1041 0.90573 465.45 504.89 2.5091 1.1415 1.3483 213.58 0.57704 5.8203 0.010068
-58.625 6.6561 0.00079553 64.049 64.156 0.44499 599.55 0.0016679 63.728 63.805 0.44335 1.4091 2.1772 1269.3 -0.0057280 238.19 0.13902 1.1591 0.86277 466.50 506.09 2.5051 1.1457 1.3532 213.90 0.56978 5.8468 0.010151
-57.625 7.0107 0.00083102 66.239 66.353 0.45518 598.44 0.0016710 65.905 65.986 0.45348 1.4111 2.1810 1262.7 -0.0056951 235.31 0.13842 1.2161 0.82228 467.55 507.30 2.5011 1.1498 1.3581 214.22 0.56265 5.8733 0.010234
-56.625 7.3801 0.00086762 68.434 68.554 0.46534 597.33 0.0016741 68.086 68.172 0.46358 1.4132 2.1848 1256.1 -0.0056617 232.48 0.13781 1.2754 0.78408 468.60 508.50 2.4972 1.1540 1.3631 214.53 0.55564 5.8998 0.010318
-55.625 7.7648 0.00090535 70.633 70.759 0.47547 596.22 0.0016772 70.271 70.361 0.47364 1.4153 2.1887 1249.5 -0.0056279 229.69 0.13721 1.3369 0.74802 469.66 509.71 2.4934 1.1582 1.3681 214.84 0.54875 5.9263 0.010402
-54.625 8.1652 0.00094422 72.836 72.968 0.48558 595.10 0.0016804 72.460 72.554 0.48368 1.4174 2.1927 1242.9 -0.0055937 226.96 0.13661 1.4006 0.71396 470.72 510.91 2.4897 1.1624 1.3731 215.14 0.54199 5.9527 0.010486
-53.625 8.5819 0.00098424 75.043 75.182 0.49566 593.98 0.0016836 74.652 74.752 0.49369 1.4196 2.1967 1236.3 -0.0055589 224.27 0.13601 1.4667 0.68178 471.77 512.11 2.4860 1.1667 1.3782 215.43 0.53535 5.9792 0.010571
-52.625 9.0151 0.0010254 77.255 77.401 0.50571 592.86 0.0016867 76.849 76.954 0.50368 1.4218 2.2007 1229.8 -0.0055237 221.63 0.13541 1.5353 0.65136 472.83 513.32 2.4824 1.1710 1.3834 215.72 0.52882 6.0056 0.010656
-51.625 9.4655 0.0010678 79.471 79.624 0.51573 591.73 0.0016900 79.049 79.159 0.51363 1.4240 2.2048 1223.2 -0.0054880 219.04 0.13482 1.6062 0.62258 473.89 514.52 2.4789 1.1752 1.3886 216.00 0.52241 6.0320 0.010741
-50.625 9.9335 0.0011114 81.691 81.852 0.52573 590.60 0.0016932 81.253 81.369 0.52356 1.4262 2.2089 1216.6 -0.0054519 216.48 0.13422 1.6797 0.59534 474.95 515.73 2.4755 1.1796 1.3938 216.28 0.51612 6.0584 0.010827
-49.625 10.419 0.0011561 83.916 84.085 0.53571 589.47 0.0016964 83.462 83.584 0.53347 1.4285 2.2131 1210.1 -0.0054152 213.98 0.13363 1.7558 0.56954 476.01 516.93 2.4722 1.1839 1.3991 216.55 0.50994 6.0848 0.010913
-48.625 10.924 0.0012021 86.145 86.322 0.54566 588.34 0.0016997 85.674 85.802 0.54334 1.4308 2.2173 1203.5 -0.0053780 211.51 0.13303 1.8345 0.54510 477.07 518.13 2.4689 1.1883 1.4044 216.82 0.50387 6.1112 0.010999
-47.625 11.448 0.0012493 88.378 88.564 0.55558 587.20 0.0017030 87.891 88.025 0.55319 1.4331 2.2216 1196.9 -0.0053403 209.08 0.13244 1.9159 0.52194 478.14 519.33 2.4657 1.1927 1.4098 217.08 0.49792 6.1375 0.011085
-46.625 11.991 0.0012978 90.616 90.811 0.56548 586.06 0.0017063 90.111 90.252 0.56302 1.4354 2.2259 1190.4 -0.0053020 206.69 0.13185 2.0001 0.49997 479.20 520.53 2.4625 1.1971 1.4153 217.33 0.49207 6.1639 0.011172
-45.625 12.554 0.0013475 92.859 93.063 0.57536 584.92 0.0017096 92.336 92.484 0.57282 1.4378 2.2303 1183.8 -0.0052633 204.34 0.13126 2.0872 0.47912 480.27 521.74 2.4594 1.2015 1.4207 217.58 0.48633 6.1902 0.011259
-44.625 13.137 0.0013984 95.106 95.319 0.58522 583.77 0.0017130 94.565 94.720 0.58260 1.4402 2.2347 1177.3 -0.0052240 202.03 0.13067 2.1771 0.45933 481.33 522.94 2.4564 1.2060 1.4263 217.82 0.48069 6.2165 0.011347
-43.625 13.741 0.0014507 97.358 97.581 0.59505 582.62 0.0017164 96.799 96.961 0.59235 1.4426 2.2392 1170.7 -0.0051841 199.75 0.13008 2.2700 0.44053 482.40 524.14 2.4535 1.2104 1.4319 218.05 0.47516 6.2429 0.011435
-42.625 14.367 0.0015041 99.615 99.848 0.60486 581.47 0.0017198 99.036 99.207 0.60208 1.4450 2.2437 1164.2 -0.0051437 197.51 0.12949 2.3659 0.42267 483.46 525.33 2.4506 1.2149 1.4375 218.28 0.46973 6.2692 0.011523
-41.625 15.015 0.0015589 101.88 102.12 0.61465 580.32 0.0017232 101.28 101.46 0.61179 1.4475 2.2483 1157.7 -0.0051027 195.30 0.12891 2.4649 0.40569 484.53 526.53 2.4478 1.2195 1.4432 218.50 0.46440 6.2955 0.011612
-40.625 15.686 0.0016149 104.14 104.40 0.62442 579.16 0.0017266 103.52 103.71 0.62147 1.4500 2.2529 1151.1 -0.0050611 193.13 0.12832 2.5671 0.38954 485.60 527.73 2.4450 1.2240 1.4489 218.72 0.45917 6.3218 0.011701
-39.625 16.380 0.0016723 106.41 106.68 0.63416 578.00 0.0017301 105.78 105.97 0.63113 1.4525 2.2576 1144.6 -0.0050189 190.99 0.12774 2.6725 0.37418 486.67 528.93 2.4423 1.2286 1.4547 218.93 0.45403 6.3481 0.011790
-38.625 17.097 0.0017309 108.69 108.97 0.64389 576.83 0.0017336 108.03 108.24 0.64077 1.4550 2.2623 1138.0 -0.0049761 188.88 0.12716 2.7813 0.35955 487.74 530.12 2.4397 1.2332 1.4606 219.13 0.44900 6.3744 0.011880
-37.625 17.838 0.0017908 110.97 111.26 0.65359 575.66 0.0017371 110.29 110.51 0.65039 1.4576 2.2671 1131.5 -0.0049327 186.81 0.12658 2.8934 0.34562 488.81 531.32 2.4371 1.2378 1.4665 219.33 0.44405 6.4007 0.011970
-36.625 18.604 0.0018520 113.25 113.56 0.66327 574.49 0.0017407 112.56 112.78 0.65999 1.4602 2.2719 1125.0 -0.0048887 184.76 0.12600 3.0089 0.33235 489.88 532.51 2.4346 1.2424 1.4724 219.52 0.43920 6.4270 0.012060
-35.625 19.395 0.0019145 115.55 115.86 0.67294 573.32 0.0017442 114.83 115.06 0.66956 1.4628 2.2768 1118.5 -0.0048440 182.75 0.12542 3.1280 0.31969 490.95 533.70 2.4321 1.2471 1.4784 219.70 0.43444 6.4533 0.012151
-34.625 20.212 0.0019783 117.84 118.17 0.68258 572.14 0.0017478 117.10 117.34 0.67912 1.4654 2.2818 1111.9 -0.0047987 180.76 0.12485 3.2506 0.30763 492.02 534.89 2.4297 1.2517 1.4845 219.88 0.42977 6.4797 0.012243
-33.625 21.056 0.0020433 120.14 120.48 0.69221 570.96 0.0017514 119.38 119.63 0.68865 1.4681 2.2868 1105.4 -0.0047527 178.80 0.12427 3.3770 0.29612 493.09 536.08 2.4273 1.2564 1.4906 220.05 0.42519 6.5060 0.012334
-32.625 21.926 0.0021097 122.45 122.80 0.70181 569.77 0.0017551 121.66 121.93 0.69817 1.4708 2.2918 1098.9 -0.0047061 176.87 0.12370 3.5071 0.28514 494.17 537.27 2.4250 1.2611 1.4968 220.21 0.42070 6.5323 0.012426
-31.625 22.823 0.0021773 124.76 125.13 0.71140 568.58 0.0017588 123.95 124.23 0.70767 1.4735 2.2970 1092.3 -0.0046587 174.97 0.12313 3.6410 0.27465 495.24 538.46 2.4227 1.2659 1.5031 220.36 0.41629 6.5587 0.012519
-30.625 23.749 0.0022462 127.07 127.46 0.72097 567.39 0.0017625 126.24 126.53 0.71714 1.4762 2.3021 1085.8 -0.0046107 173.09 0.12256 3.7787 0.26464 496.31 539.64 2.4205 1.2706 1.5094 220.51 0.41196 6.5850 0.012612
-29.625 24.703 0.0023164 129.40 129.80 0.73052 566.19 0.0017662 128.54 128.84 0.72660 1.4790 2.3074 1079.3 -0.0045619 171.24 0.12200 3.9205 0.25507 497.38 540.83 2.4184 1.2754 1.5157 220.65 0.40772 6.6114 0.012706
-28.625 25.687 0.0023878 131.72 132.14 0.74005 564.99 0.0017699 130.84 131.16 0.73604 1.4818 2.3126 1072.8 -0.0045124 169.42 0.12143 4.0663 0.24592 498.46 542.01 2.4162 1.2802 1.5222 220.79 0.40356 6.6378 0.012800
-27.625 26.700 0.0024605 134.05 134.49 0.74957 563.78 0.0017737 133.15 133.48 0.74547 1.4846 2.3180 1066.2 -0.0044621 167.62 0.12087 4.2163 0.23717 499.53 543.19 2.4142 1.2850 1.5286 220.91 0.39947 6.6642 0.012894
-26.625 27.743 0.0025344 136.39 136.84 0.75907 562.57 0.0017775 135.47 135.81 0.75487 1.4874 2.3234 1059.7 -0.0044111 165.84 0.12031 4.3705 0.22881 500.60 544.37 2.4122 1.2899 1.5352 221.03 0.39547 6.6906 0.012989
-25.625 28.817 0.0026096 138.73 139.20 0.76855 561.36 0.0017814 137.78 138.14 0.76426 1.4902 2.3289 1053.2 -0.0043593 164.09 0.11975 4.5290 0.22080 501.68 545.55 2.4102 1.2947 1.5418 221.14 0.39154 6.7171 0.013084
-24.625 29.923 0.0026859 141.08 141.57 0.77802 560.14 0.0017853 140.11 140.48 0.77363 1.4931 2.3344 1046.7 -0.0043067 162.36 0.11919 4.6918 0.21314 502.75 546.72 2.4083 1.2996 1.5485 221.25 0.38768 6.7436 0.013180
-23.625 31.061 0.0027635 143.43 143.94 0.78747 558.92 0.0017892 142.44 142.82 0.78298 1.4960 2.3400 1040.1 -0.0042533 160.65 0.11863 4.8592 0.20580 503.82 547.90 2.4064 1.3045 1.5552 221.35 0.38391 6.7701 0.013277
-22.625 32.232 0.0028422 145.79 146.32 0.79690 557.69 0.0017931 144.77 145.17 0.79232 1.4990 2.3457 1033.6 -0.0041990 158.97 0.11807 5.0311 0.19877 504.90 549.07 2.4045 1.3095 1.5621 221.44 0.38020 6.7967 0.013374
-21.625 33.435 0.0029221 148.16 148.70 0.80632 556.46 0.0017971 147.11 147.52 0.80164 1.5019 2.3514 1027.1 -0.0041439 157.30 0.11752 5.2076 0.19203 505.97 550.24 2.4027 1.3144 1.5690 221.52 0.37656 6.8232 0.013471
-20.625 34.673 0.0030031 150.53 151.09 0.81573 555.23 0.0018011 149.45 149.88 0.81095 1.5049 2.3572 1020.6 -0.0040879 155.66 0.11697 5.3889 0.18557 507.04 551.40 2.4010 1.3194 1.5759 221.59 0.37300 6.8499 0.013569
-19.625 35.946 0.0030852 152.90 153.49 0.82511 553.99 0.0018051 151.80 152.25 0.82024 1.5079 2.3630 1014.0 -0.0040311 154.04 0.11642 5.5750 0.17937 508.11 552.57 2.3992 1.3244 1.5829 221.66 0.36950 6.8765 0.013668
-18.625 37.253 0.0031685 155.28 155.89 0.83449 552.74 0.0018092 154.16 154.62 0.82952 1.5109 2.3689 1007.5 -0.0039733 152.44 0.11587 5.7660 0.17343 509.19 553.73 2.3976 1.3294 1.5901 221.72 0.36608 6.9032 0.013767
-17.625 38.596 0.0032527 157.67 158.30 0.84385 551.49 0.0018133 156.52 157.00 0.83878 1.5140 2.3749 1001.0 -0.0039145 150.86 0.11532 5.9621 0.16773 510.26 554.89 2.3959 1.3345 1.5972 221.77 0.36272 6.9300 0.013867
-16.625 39.976 0.0033380 160.06 160.71 0.85319 550.24 0.0018174 158.89 159.39 0.84803 1.5171 2.3810 994.44 -0.0038549 149.29 0.11478 6.1632 0.16225 511.33 556.05 2.3943 1.3395 1.6045 221.81 0.35942 6.9568 0.013968
-15.625 41.392 0.0034243 162.46 163.13 0.86252 548.98 0.0018216 161.26 161.78 0.85726 1.5202 2.3871 987.91 -0.0037942 147.75 0.11423 6.3696 0.15700 512.40 557.20 2.3927 1.3446 1.6119 221.85 0.35619 6.9836 0.014069
-14.625 42.846 0.0035116 164.87 165.56 0.87184 547.71 0.0018258 163.64 164.18 0.86649 1.5233 2.3933 981.37 -0.0037325 146.22 0.11369 6.5812 0.15195 513.47 558.36 2.3912 1.3497 1.6193 221.87 0.35302 7.0105 0.014170
-13.625 44.338 0.0035998 167.28 167.99 0.88114 546.44 0.0018300 166.02 166.58 0.87569 1.5264 2.3996 974.83 -0.0036698 144.72 0.11315 6.7983 0.14710 514.54 559.51 2.3897 1.3549 1.6268 221.89 0.34992 7.0375 0.014273
-12.625 45.870 0.0036889 169.69 170.44 0.89043 545.17 0.0018343 168.41 168.99 0.88489 1.5296 2.4059 968.29 -0.0036061 143.23 0.11261 7.0208 0.14243 515.61 560.65 2.3883 1.3600 1.6344 221.90 0.34688 7.0646 0.014376
-11.625 47.440 0.0037788 172.11 172.88 0.89971 543.89 0.0018386 170.81 171.41 0.89407 1.5328 2.4124 961.75 -0.0035413 141.76 0.11208 7.2490 0.13795 516.68 561.80 2.3868 1.3652 1.6421 221.91 0.34389 7.0917 0.014479
-10.625 49.051 0.0038695 174.54 175.34 0.90898 542.60 0.0018430 173.21 173.83 0.90324 1.5360 2.4189 955.20 -0.0034753 140.30 0.11154 7.4829 0.13364 517.75 562.94 2.3854 1.3704 1.6498 221.90 0.34097 7.1188 0.014584
-9.6250 50.703 0.0039610 176.97 177.80 0.91823 541.31 0.0018474 175.61 176.26 0.91240 1.5393 2.4255 948.65 -0.0034082 138.86 0.11101 7.7226 0.12949 518.81 564.08 2.3841 1.3757 1.6577 221.88 0.33810 7.1461 0.014689
-8.6250 52.396 0.0040531 179.41 180.26 0.92747 540.02 0.0018518 178.03 178.70 0.92154 1.5426 2.4321 942.10 -0.0033400 137.44 0.11048 7.9683 0.12550 519.88 565.21 2.3827 1.3809 1.6657 221.86 0.33529 7.1734 0.014795
-7.6250 54.131 0.0041459 181.86 182.74 0.93669 538.72 0.0018563 180.45 181.14 0.93068 1.5459 2.4389 935.55 -0.0032705 136.03 0.10995 8.2200 0.12165 520.94 566.35 2.3814 1.3862 1.6737 221.83 0.33254 7.2008 0.014902
-6.6250 55.909 0.0042393 184.31 185.22 0.94591 537.41 0.0018608 182.87 183.59 0.93980 1.5492 2.4457 928.99 -0.0031998 134.64 0.10942 8.4779 0.11795 522.01 567.48 2.3801 1.3915 1.6819 221.79 0.32984 7.2284 0.015009
-5.6250 57.730 0.0043333 186.77 187.70 0.95511 536.10 0.0018653 185.30 186.05 0.94892 1.5525 2.4526 922.43 -0.0031279 133.27 0.10889 8.7420 0.11439 523.07 568.60 2.3789 1.3969 1.6902 221.74 0.32720 7.2560 0.015117
-4.6250 59.595 0.0044277 189.23 190.20 0.96431 534.78 0.0018699 187.74 188.51 0.95802 1.5559 2.4596 915.87 -0.0030546 131.91 0.10837 9.0126 0.11096 524.13 569.72 2.3777 1.4022 1.6985 221.68 0.32461 7.2837 0.015226
-3.6250 61.505 0.0045225 191.70 192.70 0.97349 533.45 0.0018746 190.19 190.98 0.96711 1.5593 2.4667 909.30 -0.0029800 130.56 0.10785 9.2896 0.10765 525.19 570.84 2.3765 1.4076 1.7070 221.62 0.32207 7.3115 0.015336
-2.6250 63.461 0.0046176 194.18 195.21 0.98266 532.12 0.0018793 192.64 193.46 0.97620 1.5627 2.4739 902.73 -0.0029041 129.23 0.10733 9.5733 0.10446 526.25 571.96 2.3753 1.4131 1.7156 221.54 0.31958 7.3394 0.015447
-1.6250 65.462 0.0047130 196.66 197.72 0.99182 530.78 0.0018840 195.10 195.95 0.98527 1.5662 2.4811 896.16 -0.0028267 127.91 0.10681 9.8638 0.10138 527.31 573.07 2.3742 1.4185 1.7243 221.45 0.31715 7.3674 0.015559
-0.62500 67.510 0.0048085 199.15 200.25 1.0010 529.44 0.0018888 197.56 198.44 0.99434 1.5696 2.4885 889.58 -0.0027478 126.61 0.10629 10.161 0.098414 528.37 574.18 2.3731 1.4240 1.7331 221.36 0.31476 7.3956 0.015671
0.37500 69.606 0.0049041 201.65 202.77 1.0101 528.09 0.0018936 200.03 200.94 1.0034 1.5731 2.4960 883.00 -0.0026675 125.32 0.10578 10.466 0.095552 529.42 575.28 2.3720 1.4295 1.7421 221.26 0.31242 7.4239 0.015785
1.3750 71.749 0.0049997 204.15 205.31 1.0192 526.73 0.0018985 202.51 203.45 1.0124 1.5767 2.5035 876.42 -0.0025856 124.04 0.10527 10.777 0.092790 530.48 576.38 2.3709 1.4350 1.7512 221.14 0.31013 7.4523 0.015899
2.3750 73.941 0.0050953 206.65 207.85 1.0284 525.37 0.0019034 204.99 205.96 1.0215 1.5802 2.5112 869.83 -0.0025022 122.78 0.10476 11.096 0.090123 531.53 577.47 2.3699 1.4406 1.7604 221.02 0.30789 7.4808 0.016015
3.3750 76.183 0.0051906 209.17 210.40 1.0375 523.99 0.0019084 207.48 208.48 1.0305 1.5838 2.5190 863.24 -0.0024171 121.53 0.10425 11.422 0.087549 532.58 578.56 2.3688 1.4462 1.7697 220.89 0.30569 7.5095 0.016131
4.3750 78.475 0.0052856 211.69 212.96 1.0466 522.62 0.0019134 209.98 211.01 1.0395 1.5874 2.5268 856.64 -0.0023303 120.29 0.10374 11.756 0.085062 533.63 579.65 2.3678 1.4518 1.7792 220.75 0.30354 7.5384 0.016249
5.3750 80.817 0.0053802 214.22 215.53 1.0557 521.23 0.0019185 212.48 213.55 1.0486 1.5910 2.5348 850.04 -0.0022417 119.06 0.10324 12.098 0.082660 534.67 580.73 2.3669 1.4575 1.7888 220.60 0.30144 7.5674 0.016368
6.3750 83.211 0.0054742 216.75 218.10 1.0647 519.84 0.0019237 215.00 216.10 1.0576 1.5946 2.5429 843.43 -0.0021514 117.85 0.10273 12.447 0.080340 535.72 581.81 2.3659 1.4632 1.7986 220.44 0.29938 7.5966 0.016487
7.3750 85.657 0.0055676 219.29 220.68 1.0738 518.44 0.0019289 217.51 218.65 1.0666 1.5983 2.5511 836.82 -0.0020593 116.65 0.10223 12.805 0.078096 536.76 582.88 2.3650 1.4689 1.8085 220.27 0.29736 7.6259 0.016608
8.3750 88.156 0.0056603 221.84 223.27 1.0829 517.03 0.0019341 220.04 221.22 1.0756 1.6020 2.5595 830.20 -0.0019652 115.46 0.10173 13.170 0.075928 537.80 583.95 2.3640 1.4746 1.8186 220.08 0.29538 7.6555 0.016730
9.3750 90.708 0.0057519 224.39 225.86 1.0919 515.62 0.0019394 222.57 223.79 1.0846 1.6057 2.5679 823.58 -0.0018691 114.28 0.10124 13.545 0.073830 538.84 585.01 2.3631 1.4804 1.8288 219.89 0.29345 7.6852 0.016853
10.375 93.315 0.0058426 226.95 228.47 1.1010 514.19 0.0019448 225.11 226.37 1.0936 1.6095 2.5765 816.96 -0.0017710 113.11 0.10074 13.927 0.071802 539.87 586.07 2.3622 1.4863 1.8392 219.69 0.29156 7.7151 0.016978
11.375 95.977 0.0059320 229.52 231.08 1.1100 512.76 0.0019502 227.66 228.95 1.1025 1.6132 2.5852 810.32 -0.0016708 111.95 0.10025 14.319 0.069840 540.90 587.12 2.3614 1.4921 1.8498 219.48 0.28971 7.7452 0.017103
12.375 98.694 0.0060200 232.09 233.70 1.1190 511.32 0.0019557 230.22 231.55 1.1115 1.6170 2.5940 803.68 -0.0015685 110.80 0.099756 14.719 0.067941 541.93 588.17 2.3605 1.4980 1.8605 219.26 0.28790 7.7756 0.017230
13.375 101.47 0.0061064 234.68 236.32 1.1281 509.87 0.0019613 232.78 234.15 1.1205 1.6208 2.6030 797.04 -0.0014639 109.67 0.099267 15.128 0.066103 542.96 589.21 2.3597 1.5040 1.8715 219.03 0.28612 7.8061 0.017359
14.375 104.30 0.0061911 237.26 238.96 1.1371 508.42 0.0019669 235.35 236.77 1.1295 1.6247 2.6121 790.39 -0.0013569 108.54 0.098779 15.547 0.064323 543.99 590.24 2.3588 1.5099 1.8826 218.79 0.28439 7.8369 0.017488
15.375 107.19 0.0062739 239.86 241.60 1.1461 506.95 0.0019726 237.93 239.39 1.1384 1.6286 2.6214 783.73 -0.0012476 107.43 0.098294 15.974 0.062600 545.01 591.27 2.3580 1.5159 1.8940 218.53 0.28270 7.8680 0.017619
16.375 110.13 0.0063546 242.46 244.25 1.1551 505.48 0.0019783 240.52 242.02 1.1474 1.6324 2.6308 777.07 -0.0011357 106.32 0.097810 16.412 0.060931 546.03 592.29 2.3572 1.5220 1.9055 218.27 0.28104 7.8993 0.017752
17.375 113.14 0.0064329 245.07 246.90 1.1641 504.00 0.0019841 243.11 244.66 1.1564 1.6364 2.6403 770.40 -0.0010213 105.22 0.097328 16.859 0.059314 547.04 593.31 2.3564 1.5281 1.9172 217.99 0.27942 7.9308 0.017886
18.375 116.21 0.0065087 247.68 249.57 1.1731 502.50 0.0019900 245.72 247.31 1.1653 1.6403 2.6501 763.72 -0.00090422 104.14 0.096848 17.317 0.057747 548.05 594.32 2.3557 1.5342 1.9292 217.71 0.27783 7.9626 0.018021
19.375 119.33 0.0065816 250.31 252.24 1.1821 501.00 0.0019960 248.33 249.97 1.1743 1.6443 2.6599 757.04 -0.00078435 103.06 0.096371 17.785 0.056228 549.06 595.33 2.3549 1.5404 1.9414 217.41 0.27628 7.9947 0.018159
20.375 122.52 0.0066516 252.94 254.92 1.1910 499.49 0.0020020 250.95 252.64 1.1832 1.6483 2.6700 750.35 -0.00066161 101.99 0.095895 18.263 0.054756 550.07 596.32 2.3541 1.5466 1.9538 217.10 0.27477 8.0272 0.018297
21.375 125.77 0.0067182 255.57 257.61 1.2000 497.97 0.0020082 253.57 255.32 1.1922 1.6523 2.6802 743.64 -0.00053589 100.93 0.095420 18.752 0.053328 551.07 597.31 2.3534 1.5528 1.9665 216.78 0.27329 8.0599 0.018438
22.375 129.08 0.0067812 258.22 260.31 1.2090 496.43 0.0020144 256.21 258.00 1.2012 1.6563 2.6906 736.94 -0.00040708 99.877 0.094948 19.252 0.051943 552.07 598.30 2.3526 1.5591 1.9795 216.45 0.27184 8.0929 0.018580
23.375 132.46 0.0068403 260.87 263.02 1.2179 494.89 0.0020206 258.86 260.70 1.2101 1.6604 2.7012 730.22 -0.00027505 98.834 0.094478 19.763 0.050600 553.06 599.27 2.3519 1.5655 1.9927 216.11 0.27043 8.1263 0.018724
24.375 135.90 0.0068953 263.53 265.73 1.2269 493.34 0.0020270 261.51 263.41 1.2191 1.6645 2.7120 723.49 -0.00013968 97.800 0.094009 20.285 0.049297 554.05 600.24 2.3512 1.5718 2.0061 215.75 0.26906 8.1600 0.018870
25.375 139.41 0.0069457 266.19 268.45 1.2358 491.77 0.0020335 264.17 266.13 1.2280 1.6686 2.7230 716.76 -8.3775e-07 96.773 0.093543 20.820 0.048032 555.03 601.20 2.3504 1.5783 2.0199 215.39 0.26771 8.1941 0.019017
26.375 142.98 0.0069913 268.86 271.18 1.2447 490.20 0.0020400 266.84 268.85 1.2370 1.6728 2.7342 710.01 0.00014161 95.755 0.093078 21.366 0.046804 556.01 602.15 2.3497 1.5847 2.0340 215.01 0.26640 8.2286 0.019167
27.375 146.62 0.0070316 271.55 273.92 1.2537 488.61 0.0020466 269.52 271.59 1.2459 1.6770 2.7456 703.26 0.00028782 94.745 0.092615 21.924 0.045612 556.99 603.10 2.3490 1.5913 2.0484 214.62 0.26512 8.2634 0.019319
28.375 150.33 0.0070663 274.23 276.67 1.2626 487.01 0.0020533 272.21 274.34 1.2549 1.6812 2.7573 696.49 0.00043793 93.742 0.092154 22.495 0.044454 557.96 604.03 2.3483 1.5978 2.0631 214.21 0.26387 8.2987 0.019472
29.375 154.10 0.0070949 276.93 279.43 1.2715 485.40 0.0020601 274.91 277.10 1.2638 1.6854 2.7691 689.72 0.00059212 92.747 0.091695 23.079 0.043329 558.92 604.96 2.3476 1.6044 2.0781 213.80 0.26265 8.3344 0.019628
30.375 157.94 0.0071171 279.63 282.19 1.2805 483.78 0.0020671 277.62 279.87 1.2728 1.6897 2.7813 682.93 0.00075055 91.760 0.091238 23.676 0.042237 559.88 605.88 2.3469 1.6111 2.0935 213.37 0.26147 8.3705 0.019786
31.375 161.86 0.0071323 282.34 284.97 1.2894 482.15 0.0020741 280.34 282.66 1.2818 1.6939 2.7936 676.13 0.00091340 90.779 0.090782 24.287 0.041175 560.84 606.79 2.3462 1.6178 2.1092 212.93 0.26031 8.4071 0.019947
32.375 165.84 0.0071400 285.06 287.75 1.2983 480.50 0.0020812 283.07 285.45 1.2908 1.6983 2.8063 669.32 0.0010809 89.806 0.090328 24.911 0.040143 561.79 607.69 2.3455 1.6246 2.1254 212.48 0.25919 8.4442 0.020110
33.375 169.90 0.0071398 287.79 290.54 1.3072 478.83 0.0020884 285.81 288.26 1.2997 1.7026 2.8192 662.50 0.0012532 88.840 0.089876 25.549 0.039140 562.73 608.58 2.3448 1.6314 2.1419 212.01 0.25809 8.4818 0.020275
34.375 174.02 0.0071310 290.52 293.34 1.3161 477.16 0.0020957 288.56 291.07 1.3087 1.7070 2.8324 655.67 0.0014305 87.880 0.089426 26.202 0.038164 563.67 609.46 2.3440 1.6383 2.1589 211.53 0.25702 8.5199 0.020443
35.375 178.22 0.0071130 293.26 296.15 1.3250 475.47 0.0021032 291.32 293.90 1.3177 1.7114 2.8459 648.82 0.0016131 86.927 0.088977 26.870 0.037216 564.60 610.33 2.3433 1.6452 2.1763 211.04 0.25599 8.5586 0.020613
36.375 182.50 0.0070853 296.01 298.97 1.3339 473.77 0.0021107 294.09 296.74 1.3267 1.7158 2.8597 641.96 0.0018012 85.980 0.088531 27.553 0.036293 565.52 611.19 2.3426 1.6522 2.1942 210.53 0.25498 8.5978 0.020786
37.375 186.84 0.0070471 298.77 301.80 1.3428 472.05 0.0021184 296.87 299.60 1.3357 1.7203 2.8739 635.08 0.0019950 85.040 0.088085 28.252 0.035395 566.44 612.04 2.3419 1.6592 2.2125 210.01 0.25400 8.6376 0.020962
38.375 191.27 0.0069978 301.53 304.63 1.3517 470.31 0.0021262 299.66 302.46 1.3447 1.7248 2.8884 628.19 0.0021949 84.105 0.087642 28.967 0.034522 567.35 612.88 2.3411 1.6663 2.2314 209.47 0.25305 8.6780 0.021141
39.375 195.77 0.0069364 304.30 307.48 1.3606 468.56 0.0021342 302.46 305.34 1.3537 1.7293 2.9033 621.29 0.0024011 83.177 0.087200 29.699 0.033671 568.26 613.70 2.3404 1.6734 2.2508 208.92 0.25213 8.7190 0.021323
40.375 200.34 0.0068623 307.09 310.34 1.3694 466.80 0.0021423 305.27 308.23 1.3627 1.7339 2.9185 614.37 0.0026140 82.254 0.086760 30.447 0.032844 569.15 614.52 2.3396 1.6806 2.2708 208.36 0.25123 8.7608 0.021508
41.375 205.00 0.0067745 309.87 313.20 1.3783 465.01 0.0021505 308.10 311.14 1.3718 1.7385 2.9342 607.43 0.0028338 81.338 0.086322 31.214 0.032037 570.04 615.32 2.3389 1.6879 2.2913 207.78 0.25037 8.8032 0.021696
42.375 209.73 0.0066721 312.67 316.07 1.3872 463.21 0.0021588 310.94 314.06 1.3808 1.7432 2.9502 600.47 0.0030609 80.426 0.085885 31.998 0.031252 570.92 616.11 2.3381 1.6952 2.3125 207.19 0.24953 8.8463 0.021888
43.375 214.54 0.0065540 315.48 318.96 1.3961 461.40 0.0021673 313.79 316.99 1.3899 1.7478 2.9667 593.50 0.0032957 79.520 0.085449 32.800 0.030488 571.79 616.88 2.3373 1.7027 2.3344 206.58 0.24871 8.8902 0.022084
44.375 219.43 0.0064192 318.29 321.85 1.4050 459.56 0.0021760 316.65 319.94 1.3989 1.7525 2.9837 586.51 0.0035386 78.619 0.085015 33.622 0.029742 572.65 617.65 2.3365 1.7101 2.3569 205.96 0.24793 8.9349 0.022283
45.375 224.41 0.0062665 321.11 324.75 1.4138 457.71 0.0021848 319.52 322.90 1.4080 1.7573 3.0012 579.50 0.0037900 77.723 0.084583 34.463 0.029016 573.50 618.40 2.3357 1.7177 2.3802 205.32 0.24717 8.9805 0.022485
46.375 229.46 0.0060946 323.94 327.67 1.4227 455.83 0.0021938 322.41 325.88 1.4171 1.7621 3.0192 572.46 0.0040504 76.832 0.084152 35.325 0.028308 574.34 619.13 2.3349 1.7253 2.4042 204.67 0.24644 9.0269 0.022692
47.375 234.60 0.0059022 326.78 330.59 1.4316 453.94 0.0022029 325.31 328.87 1.4262 1.7669 3.0377 565.41 0.0043202 75.946 0.083723 36.208 0.027618 575.17 619.85 2.3340 1.7329 2.4291 204.00 0.24573 9.0742 0.022903
48.375 239.83 0.0056878 329.63 333.52 1.4404 452.03 0.0022123 328.22 331.88 1.4353 1.7718 3.0569 558.34 0.0046000 75.064 0.083295 37.112 0.026945 576.00 620.55 2.3332 1.7407 2.4548 203.31 0.24505 9.1224 0.023119
49.375 245.13 0.0054498 332.49 336.46 1.4493 450.09 0.0022218 331.15 334.90 1.4445 1.7767 3.0766 551.24 0.0048904 74.186 0.082868 38.039 0.026289 576.81 621.24 2.3323 1.7485 2.4815 202.61 0.24440 9.1716 0.023339
50.375 250.53 0.0051865 335.35 339.42 1.4582 448.13 0.0022315 334.09 337.94 1.4536 1.7817 3.0970 544.13 0.0051920 73.313 0.082442 38.989 0.025648 577.61 621.91 2.3314 1.7564 2.5092 201.89 0.24377 9.2219 0.023564
51.375 256.01 0.0048962 338.23 342.38 1.4671 446.15 0.0022414 337.04 341.00 1.4628 1.7867 3.1181 536.98 0.0055054 72.443 0.082018 39.962 0.025024 578.39 622.56 2.3304 1.7644 2.5379 201.16 0.24317 9.2733 0.023794
52.375 261.57 0.0045766 341.11 345.35 1.4759 444.15 0.0022515 340.01 344.07 1.4720 1.7918 3.1400 529.82 0.0058313 71.577 0.081595 40.961 0.024414 579.17 623.20 2.3295 1.7724 2.5677 200.41 0.24260 9.3258 0.024029
53.375 267.23 0.0042258 344.00 348.33 1.4848 442.12 0.0022618 343.00 347.17 1.4812 1.7969 3.1627 522.62 0.0061705 70.715 0.081174 41.985 0.023818 579.93 623.81 2.3285 1.7805 2.5987 199.63 0.24205 9.3795 0.024270
54.375 272.97 0.0038413 346.90 351.33 1.4937 440.06 0.0022724 346.00 350.28 1.4904 1.8021 3.1862 515.40 0.0065239 69.856 0.080753 43.036 0.023237 580.68 624.41 2.3274 1.7887 2.6310 198.85 0.24154 9.4344 0.024516
55.375 278.81 0.0034206 349.81 354.33 1.5025 437.98 0.0022832 349.02 353.40 1.4997 1.8073 3.2106 508.15 0.0068923 69.001 0.080334 44.114 0.022669 581.41 624.99 2.3264 1.7969 2.6646 198.04 0.24105 9.4907 0.024769
56.375 284.74 0.0029608 352.73 357.35 1.5114 435.87 0.0022943 352.05 356.55 1.5090 1.8126 3.2360 500.87 0.0072767 68.148 0.079915 45.221 0.022114 582.13 625.54 2.3253 1.8052 2.6998 197.22 0.24059 9.5484 0.025028
57.375 290.76 0.0024588 355.66 360.38 1.5203 433.73 0.0023056 355.10 359.72 1.5183 1.8179 3.2624 493.56 0.0076782 67.299 0.079498 46.358 0.021571 582.83 626.07 2.3241 1.8136 2.7365 196.37 0.24016 9.6075 0.025294
58.375 296.87 0.0019113 358.60 363.41 1.5292 431.56 0.0023172 358.17 362.91 1.5276 1.8233 3.2900 486.22 0.0080980 66.451 0.079082 47.525 0.021041 583.52 626.58 2.3230 1.8220 2.7749 195.51 0.23976 9.6682 0.025568
59.375 303.08 0.0013146 361.54 366.46 1.5380 429.36 0.0023290 361.25 366.12 1.5370 1.8288 3.3188 478.84 0.0085373 65.606 0.078666 48.726 0.020523 584.18 627.07 2.3218 1.8305 2.8152 194.63 0.23939 9.7305 0.025849
60.375 309.38 0.00066461 364.50 369.52 1.5469 427.13 0.0023412 364.36 369.35 1.5464 1.8343 3.3489 471.43 0.0089976 64.763 0.078251 49.960 0.020016 584.83 627.53 2.3205 1.8391 2.8576 193.73 0.23905 9.7945 0.026138
61.375 318.06 undefined 367.40 372.56 1.5556 425.00 0.0023529 367.40 372.56 1.5556 1.8398 3.3773 464.64 0.0094358 63.973 0.077867 425.00 0.0023529 367.40 372.56 1.5556 1.8398 3.3773 464.64 0.0094358 63.973 0.077867
62.375 363.44 undefined 369.24 375.14 1.5611 425.00 0.0023529 369.24 375.14 1.5611 1.8422 3.3567 468.23 0.0091776 63.994 0.077951 425.00 0.0023529 369.24 375.14 1.5611 1.8422 3.3567 468.23 0.0091776 63.994 0.077951
63.375 408.92 undefined 371.09 377.72 1.5666 425.00 0.0023529 371.09 377.72 1.5666 1.8448 3.3371 471.76 0.0089285 64.015 0.078036 425.00 0.0023529 371.09 377.72 1.5666 1.8448 3.3371 471.76 0.0089285 64.015 0.078036
64.375 454.50 undefined 372.93 380.31 1.5721 425.00 0.0023529 372.93 380.31 1.5721 1.8474 3.3185 475.21 0.0086879 64.037 0.078122 425.00 0.0023529 372.93 380.31 1.5721 1.8474 3.3185 475.21 0.0086879 64.037 0.078122
65.375 500.17 undefined 374.78 382.90 1.5775 425.00 0.0023529 374.78 382.90 1.5775 1.8501 3.3008 478.60 0.0084554 64.058 0.078208 425.00 0.0023529 374.78 382.90 1.5775 1.8501 3.3008 478.60 0.0084554 64.058 0.078208
66.375 545.94 undefined 376.63 385.49 1.5830 425.00 0.0023529 376.63 385.49 1.5830 1.8529 3.2840 481.93 0.0082305 64.079 0.078295 425.00 0.0023529 376.63 385.49 1.5830 1.8529 3.2840 481.93 0.0082305 64.079 0.078295
67.375 591.79 undefined 378.49 388.09 1.5884 425.00 0.0023529 378.49 388.09 1.5884 1.8557 3.2680 485.20 0.0080128 64.101 0.078384 425.00 0.0023529 378.49 388.09 1.5884 1.8557 3.2680 485.20 0.0080128 64.101 0.078384
68.375 637.73 undefined 380.35 390.69 1.5939 425.00 0.0023529 380.35 390.69 1.5939 1.8586 3.2527 488.40 0.0078018 64.122 0.078472 425.00 0.0023529 380.35 390.69 1.5939 1.8586 3.2527 488.40 0.0078018 64.122 0.078472
69.375 683.75 undefined 382.21 393.30 1.5993 425.00 0.0023529 382.21 393.30 1.5993 1.8615 3.2381 491.56 0.0075973 64.144 0.078562 425.00 0.0023529 382.21 393.30 1.5993 1.8615 3.2381 491.56 0.0075973 64.144 0.078562
70.375 729.84 undefined 384.07 395.91 1.6048 425.00 0.0023529 384.07 395.91 1.6048 1.8645 3.2243 494.66 0.0073988 64.165 0.078652 425.00 0.0023529 384.07 395.91 1.6048 1.8645 3.2243 494.66 0.0073988 64.165 0.078652
71.375 776.01 undefined 385.93 398.52 1.6102 425.00 0.0023529 385.93 398.52 1.6102 1.8676 3.2110 497.71 0.0072060 64.186 0.078743 425.00 0.0023529 385.93 398.52 1.6102 1.8676 3.2110 497.71 0.0072060 64.186 0.078743
72.375 822.25 undefined 387.80 401.14 1.6156 425.00 0.0023529 387.80 401.14 1.6156 1.8707 3.1983 500.71 0.0070187 64.208 0.078834 425.00 0.0023529 387.80 401.14 1.6156 1.8707 3.1983 500.71 0.0070187 64.208 0.078834
73.375 868.55 undefined 389.68 403.77 1.6210 425.00 0.0023529 389.68 403.77 1.6210 1.8738 3.1862 503.66 0.0068366 64.229 0.078926 425.00 0.0023529 389.68 403.77 1.6210 1.8738 3.1862 503.66 0.0068366 64.229 0.078926
74.375 914.91 undefined 391.55 406.39 1.6264 425.00 0.0023529 391.55 406.39 1.6264 1.8770 3.1746 506.58 0.0066594 64.251 0.079019 425.00 0.0023529 391.55 406.39 1.6264 1.8770 3.1746 506.58 0.0066594 64.251 0.079019
75.375 961.34 undefined 393.43 409.03 1.6318 425.00 0.0023529 393.43 409.03 1.6318 1.8803 3.1635 509.44 0.0064870 64.272 0.079112 425.00 0.0023529 393.43 409.03 1.6318 1.8803 3.1635 509.44 0.0064870 64.272 0.079112
76.375 1007.8 undefined 395.31 411.66 1.6372 425.00 0.0023529 395.31 411.66 1.6372 1.8836 3.1529 512.27 0.0063191 64.294 0.079205 425.00 0.0023529 395.31 411.66 1.6372 1.8836 3.1529 512.27 0.0063191 64.294 0.079205
77.375 1054.4 undefined 397.20 414.30 1.6426 425.00 0.0023529 397.20 414.30 1.6426 1.8869 3.1428 515.06 0.0061555 64.315 0.079299 425.00 0.0023529 397.20 414.30 1.6426 1.8869 3.1428 515.06 0.0061555 64.315 0.079299
78.375 1101.0 undefined 399.09 416.95 1.6480 425.00 0.0023529 399.09 416.95 1.6480 1.8903 3.1330 517.81 0.0059961 64.337 0.079394 425.00 0.0023529 399.09 416.95 1.6480 1.8903 3.1330 517.81 0.0059961 64.337 0.079394
79.375 1147.6 undefined 400.98 419.60 1.6533 425.00 0.0023529 400.98 419.60 1.6533 1.8937 3.1237 520.53 0.0058406 64.358 0.079489 425.00 0.0023529 400.98 419.60 1.6533 1.8937 3.1237 520.53 0.0058406 64.358 0.079489
80.375 1194.3 undefined 402.87 422.25 1.6587 425.00 0.0023529 402.87 422.25 1.6587 1.8971 3.1148 523.21 0.0056888 64.380 0.079585 425.00 0.0023529 402.87 422.25 1.6587 1.8971 3.1148 523.21 0.0056888 64.380 0.079585
81.375 1241.0 undefined 404.77 424.91 1.6641 425.00 0.0023529 404.77 424.91 1.6641 1.9006 3.1062 525.85 0.0055408 64.401 0.079681 425.00 0.0023529 404.77 424.91 1.6641 1.9006 3.1062 525.85 0.0055408 64.401 0.079681
82.375 1287.8 undefined 406.67 427.57 1.6694 425.00 0.0023529 406.67 427.57 1.6694 1.9041 3.0980 528.47 0.0053962 64.423 0.079778 425.00 0.0023529 406.67 427.57 1.6694 1.9041 3.0980 528.47 0.0053962 64.423 0.079778
83.375 1334.6 undefined 408.58 430.23 1.6748 425.00 0.0023529 408.58 430.23 1.6748 1.9076 3.0901 531.05 0.0052550 64.444 0.079875 425.00 0.0023529 408.58 430.23 1.6748 1.9076 3.0901 531.05 0.0052550 64.444 0.079875
84.375 1381.5 undefined 410.49 432.90 1.6801 425.00 0.0023529 410.49 432.90 1.6801 1.9112 3.0825 533.61 0.0051171 64.466 0.079973 425.00 0.0023529 410.49 432.90 1.6801 1.9112 3.0825 533.61 0.0051171 64.466 0.079973
85.375 1428.4 undefined 412.40 435.58 1.6855 425.00 0.0023529 412.40 435.58 1.6855 1.9148 3.0753 536.13 0.0049822 64.487 0.080071 425.00 0.0023529 412.40 435.58 1.6855 1.9148 3.0753 536.13 0.0049822 64.487 0.080071
86.375 1475.3 undefined 414.32 438.25 1.6908 425.00 0.0023529 414.32 438.25 1.6908 1.9184 3.0683 538.63 0.0048504 64.509 0.080170 425.00 0.0023529 414.32 438.25 1.6908 1.9184 3.0683 538.63 0.0048504 64.509 0.080170
87.375 1522.3 undefined 416.24 440.94 1.6962 425.00 0.0023529 416.24 440.94 1.6962 1.9221 3.0616 541.10 0.0047215 64.531 0.080269 425.00 0.0023529 416.24 440.94 1.6962 1.9221 3.0616 541.10 0.0047215 64.531 0.080269
88.375 1569.3 undefined 418.16 443.62 1.7015 425.00 0.0023529 418.16 443.62 1.7015 1.9258 3.0552 543.54 0.0045954 64.552 0.080368 425.00 0.0023529 418.16 443.62 1.7015 1.9258 3.0552 543.54 0.0045954 64.552 0.080368
89.375 1616.3 undefined 420.09 446.31 1.7068 425.00 0.0023529 420.09 446.31 1.7068 1.9295 3.0491 545.96 0.0044720 64.574 0.080468 425.00 0.0023529 420.09 446.31 1.7068 1.9295 3.0491 545.96 0.0044720 64.574 0.080468
90.375 1663.4 undefined 422.02 449.01 1.7121 425.00 0.0023529 422.02 449.01 1.7121 1.9332 3.0432 548.36 0.0043512 64.595 0.080568 425.00 0.0023529 422.02 449.01 1.7121 1.9332 3.0432 548.36 0.0043512 64.595 0.080568
91.375 1710.5 undefined 423.96 451.71 1.7174 425.00 0.0023529 423.96 451.71 1.7174 1.9369 3.0376 550.73 0.0042329 64.617 0.080669 425.00 0.0023529 423.96 451.71 1.7174 1.9369 3.0376 550.73 0.0042329 64.617 0.080669
92.375 1757.6 undefined 425.90 454.41 1.7228 425.00 0.0023529 425.90 454.41 1.7228 1.9407 3.0322 553.08 0.0041171 64.639 0.080770 425.00 0.0023529 425.90 454.41 1.7228 1.9407 3.0322 553.08 0.0041171 64.639 0.080770
93.375 1804.7 undefined 427.84 457.12 1.7281 425.00 0.0023529 427.84 457.12 1.7281 1.9444 3.0270 555.41 0.0040037 64.660 0.080871 425.00 0.0023529 427.84 457.12 1.7281 1.9444 3.0270 555.41 0.0040037 64.660 0.080871
94.375 1851.9 undefined 429.79 459.83 1.7334 425.00 0.0023529 429.79 459.83 1.7334 1.9482 3.0220 557.71 0.0038926 64.682 0.080973 425.00 0.0023529 429.79 459.83 1.7334 1.9482 3.0220 557.71 0.0038926 64.682 0.080973
95.375 1899.1 undefined 431.74 462.54 1.7387 425.00 0.0023529 431.74 462.54 1.7387 1.9520 3.0172 560.00 0.0037837 64.704 0.081076 425.00 0.0023529 431.74 462.54 1.7387 1.9520 3.0172 560.00 0.0037837 64.704 0.081076
96.375 1946.3 undefined 433.69 465.26 1.7440 425.00 0.0023529 433.69 465.26 1.7440 1.9559 3.0126 562.27 0.0036770 64.725 0.081178 425.00 0.0023529 433.69 465.26 1.7440 1.9559 3.0126 562.27 0.0036770 64.725 0.081178
97.375 1993.5 undefined 435.65 467.99 1.7492 425.00 0.0023529 435.65 467.99 1.7492 1.9597 3.0083 564.51 0.0035724 64.747 0.081281 425.00 0.0023529 435.65 467.99 1.7492 1.9597 3.0083 564.51 0.0035724 64.747 0.081281
98.375 2040.8 undefined 437.61 470.72 1.7545 425.00 0.0023529 437.61 470.72 1.7545 1.9636 3.0041 566.74 0.0034698 64.769 0.081385 425.00 0.0023529 437.61 470.72 1.7545 1.9636 3.0041 566.74 0.0034698 64.769 0.081385
99.375 2088.1 undefined 439.57 473.45 1.7598 425.00 0.0023529 439.57 473.45 1.7598 1.9674 3.0000 568.95 0.0033692 64.790 0.081489 425.00 0.0023529 439.57 473.45 1.7598 1.9674 3.0000 568.95 0.0033692 64.790 0.081489
100.38 2135.4 undefined 441.54 476.19 1.7651 425.00 0.0023529 441.54 476.19 1.7651 1.9713 2.9962 571.14 0.0032705 64.812 0.081593 425.00 0.0023529 441.54 476.19 1.7651 1.9713 2.9962 571.14 0.0032705 64.812 0.081593
101.38 2182.7 undefined 443.52 478.93 1.7704 425.00 0.0023529 443.52 478.93 1.7704 1.9752 2.9925 573.31 0.0031738 64.834 0.081698 425.00 0.0023529 443.52 478.93 1.7704 1.9752 2.9925 573.31 0.0031738 64.834 0.081698
102.38 2230.0 undefined 445.49 481.67 1.7756 425.00 0.0023529 445.49 481.67 1.7756 1.9791 2.9890 575.47 0.0030788 64.855 0.081803 425.00 0.0023529 445.49 481.67 1.7756 1.9791 2.9890 575.47 0.0030788 64.855 0.081803
103.38 2277.3 undefined 447.47 484.42 1.7809 425.00 0.0023529 447.47 484.42 1.7809 1.9830 2.9857 577.61 0.0029856 64.877 0.081908 425.00 0.0023529 447.47 484.42 1.7809 1.9830 2.9857 577.61 0.0029856 64.877 0.081908
104.38 2324.7 undefined 449.46 487.17 1.7862 425.00 0.0023529 449.46 487.17 1.7862 1.9869 2.9825 579.74 0.0028941 64.899 0.082014 425.00 0.0023529 449.46 487.17 1.7862 1.9869 2.9825 579.74 0.0028941 64.899 0.082014
105.38 2372.1 undefined 451.45 489.93 1.7914 425.00 0.0023529 451.45 489.93 1.7914 1.9908 2.9794 581.85 0.0028044 64.920 0.082120 425.00 0.0023529 451.45 489.93 1.7914 1.9908 2.9794 581.85 0.0028044 64.920 0.082120
106.38 2419.5 undefined 453.44 492.69 1.7967 425.00 0.0023529 453.44 492.69 1.7967 1.9948 2.9765 583.94 0.0027162 64.942 0.082226 425.00 0.0023529 453.44 492.69 1.7967 1.9948 2.9765 583.94 0.0027162 64.942 0.082226
107.38 2466.9 undefined 455.44 495.46 1.8020 425.00 0.0023529 455.44 495.46 1.8020 1.9987 2.9737 586.02 0.0026297 64.964 0.082333 425.00 0.0023529 455.44 495.46 1.8020 1.9987 2.9737 586.02 0.0026297 64.964 0.082333
108.38 2514.3 undefined 457.44 498.23 1.8072 425.00 0.0023529 457.44 498.23 1.8072 2.0027 2.9710 588.08 0.0025447 64.986 0.082440 425.00 0.0023529 457.44 498.23 1.8072 2.0027 2.9710 588.08 0.0025447 64.986 0.082440
109.38 2561.7 undefined 459.44 501.00 1.8125 425.00 0.0023529 459.44 501.00 1.8125 2.0066 2.9685 590.13 0.0024612 65.007 0.082548 425.00 0.0023529 459.44 501.00 1.8125 2.0066 2.9685 590.13 0.0024612 65.007 0.082548
110.38 2609.1 undefined 461.45 503.78 1.8177 425.00 0.0023529 461.45 503.78 1.8177 2.0106 2.9661 592.17 0.0023792 65.029 0.082656 425.00 0.0023529 461.45 503.78 1.8177 2.0106 2.9661 592.17 0.0023792 65.029 0.082656
111.38 2656.6 undefined 463.46 506.56 1.8229 425.00 0.0023529 463.46 506.56 1.8229 2.0146 2.9639 594.19 0.0022986 65.051 0.082764 425.00 0.0023529 463.46 506.56 1.8229 2.0146 2.9639 594.19 0.0022986 65.051 0.082764
112.38 2704.0 undefined 465.48 509.35 1.8282 425.00 0.0023529 465.48 509.35 1.8282 2.0185 2.9617 596.20 0.0022194 65.073 0.082873 425.00 0.0023529 465.48 509.35 1.8282 2.0185 2.9617 596.20 0.0022194 65.073 0.082873
113.38 2751.5 undefined 467.50 512.14 1.8334 425.00 0.0023529 467.50 512.14 1.8334 2.0225 2.9597 598.20 0.0021416 65.094 0.082981 425.00 0.0023529 467.50 512.14 1.8334 2.0225 2.9597 598.20 0.0021416 65.094 0.082981
114.38 2798.9 undefined 469.53 514.93 1.8386 425.00 0.0023529 469.53 514.93 1.8386 2.0265 2.9577 600.19 0.0020652 65.116 0.083091 425.00 0.0023529 469.53 514.93 1.8386 2.0265 2.9577 600.19 0.0020652 65.116 0.083091
115.38 2846.4 undefined 471.56 517.73 1.8439 425.00 0.0023529 471.56 517.73 1.8439 2.0305 2.9559 602.16 0.0019901 65.138 0.083200 425.00 0.0023529 471.56 517.73 1.8439 2.0305 2.9559 602.16 0.0019901 65.138 0.083200
116.38 2893.9 undefined 473.59 520.53 1.8491 425.00 0.0023529 473.59 520.53 1.8491 2.0345 2.9542 604.12 0.0019162 65.160 0.083310 425.00 0.0023529 473.59 520.53 1.8491 2.0345 2.9542 604.12 0.0019162 65.160 0.083310
117.38 2941.4 undefined 475.62 523.34 1.8543 425.00 0.0023529 475.62 523.34 1.8543 2.0385 2.9525 606.07 0.0018436 65.181 0.083421 425.00 0.0023529 475.62 523.34 1.8543 2.0385 2.9525 606.07 0.0018436 65.181 0.083421
118.38 2988.9 undefined 477.66 526.15 1.8595 425.00 0.0023529 477.66 526.15 1.8595 2.0425 2.9510 608.00 0.0017722 65.203 0.083531 425.00 0.0023529 477.66 526.15 1.8595 2.0425 2.9510 608.00 0.0017722 65.203 0.083531
119.38 3036.4 undefined 479.71 528.97 1.8647 425.00 0.0023529 479.71 528.97 1.8647 2.0465 2.9496 609.93 0.0017019 65.225 0.083642 425.00 0.0023529 479.71 528.97 1.8647 2.0465 2.9496 609.93 0.0017019 65.225 0.083642
120.38 3083.9 undefined 481.76 531.79 1.8700 425.00 0.0023529 481.76 531.79 1.8700 2.0505 2.9482 611.84 0.0016329 65.247 0.083754 425.00 0.0023529 481.76 531.79 1.8700 2.0505 2.9482 611.84 0.0016329 65.247 0.083754
121.38 3131.4 undefined 483.81 534.61 1.8752 425.00 0.0023529 483.81 534.61 1.8752 2.0545 2.9470 613.75 0.0015650 65.269 0.083865 425.00 0.0023529 483.81 534.61 1.8752 2.0545 2.9470 613.75 0.0015650 65.269 0.083865
122.38 3178.9 undefined 485.87 537.44 1.8804 425.00 0.0023529 485.87 537.44 1.8804 2.0585 2.9458 615.64 0.0014982 65.290 0.083977 425.00 0.0023529 485.87 537.44 1.8804 2.0585 2.9458 615.64 0.0014982 65.290 0.083977
123.38 3226.4 undefined 487.93 540.27 1.8856 425.00 0.0023529 487.93 540.27 1.8856 2.0625 2.9448 617.52 0.0014324 65.312 0.084089 425.00 0.0023529 487.93 540.27 1.8856 2.0625 2.9448 617.52 0.0014324 65.312 0.084089
124.38 3273.9 undefined 489.99 543.10 1.8908 425.00 0.0023529 489.99 543.10 1.8908 2.0666 2.9438 619.39 0.0013678 65.334 0.084202 425.00 0.0023529 489.99 543.10 1.8908 2.0666 2.9438 619.39 0.0013678 65.334 0.084202
125.38 3321.4 undefined 492.06 545.94 1.8960 425.00 0.0023529 492.06 545.94 1.8960 2.0706 2.9429 621.25 0.0013041 65.356 0.084315 425.00 0.0023529 492.06 545.94 1.8960 2.0706 2.9429 621.25 0.0013041 65.356 0.084315
126.38 3369.0 undefined 494.13 548.79 1.9012 425.00 0.0023529 494.13 548.79 1.9012 2.0746 2.9420 623.10 0.0012415 65.378 0.084428 425.00 0.0023529 494.13 548.79 1.9012 2.0746 2.9420 623.10 0.0012415 65.378 0.084428
127.38 3416.5 undefined 496.21 551.64 1.9064 425.00 0.0023529 496.21 551.64 1.9064 2.0786 2.9413 624.94 0.0011799 65.400 0.084542 425.00 0.0023529 496.21 551.64 1.9064 2.0786 2.9413 624.94 0.0011799 65.400 0.084542
128.38 3464.0 undefined 498.29 554.49 1.9115 425.00 0.0023529 498.29 554.49 1.9115 2.0826 2.9406 626.77 0.0011193 65.421 0.084656 425.00 0.0023529 498.29 554.49 1.9115 2.0826 2.9406 626.77 0.0011193 65.421 0.084656
129.38 3511.5 undefined 500.37 557.34 1.9167 425.00 0.0023529 500.37 557.34 1.9167 2.0867 2.9400 628.60 0.0010596 65.443 0.084770 425.00 0.0023529 500.37 557.34 1.9167 2.0867 2.9400 628.60 0.0010596 65.443 0.084770
130.38 3559.1 undefined 502.46 560.20 1.9219 425.00 0.0023529 502.46 560.20 1.9219 2.0907 2.9394 630.41 0.0010008 65.465 0.084885 425.00 0.0023529 502.46 560.20 1.9219 2.0907 2.9394 630.41 0.0010008 65.465 0.084885
131.38 3606.6 undefined 504.56 563.07 1.9271 425.00 0.0023529 504.56 563.07 1.9271 2.0947 2.9389 632.21 0.00094300 65.487 0.085000 425.00 0.0023529 504.56 563.07 1.9271 2.0947 2.9389 632.21 0.00094300 65.487 0.085000
132.38 3654.1 undefined 506.65 565.93 1.9323 425.00 0.0023529 506.65 565.93 1.9323 2.0987 2.9385 634.00 0.00088605 65.509 0.085115 425.00 0.0023529 506.65 565.93 1.9323 2.0987 2.9385 634.00 0.00088605 65.509 0.085115
133.38 3701.7 undefined 508.75 568.81 1.9374 425.00 0.0023529 508.75 568.81 1.9374 2.1027 2.9382 635.79 0.00082998 65.530 0.085230 425.00 0.0023529 508.75 568.81 1.9374 2.1027 2.9382 635.79 0.00082998 65.530 0.085230
134.38 3749.2 undefined 510.86 571.68 1.9426 425.00 0.0023529 510.86 571.68 1.9426 2.1068 2.9379 637.57 0.00077476 65.552 0.085346 425.00 0.0023529 510.86 571.68 1.9426 2.1068 2.9379 637.57 0.00077476 65.552 0.085346
135.38 3796.7 undefined 512.97 574.56 1.9478 425.00 0.0023529 512.97 574.56 1.9478 2.1108 2.9377 639.33 0.00072038 65.574 0.085463 425.00 0.0023529 512.97 574.56 1.9478 2.1108 2.9377 639.33 0.00072038 65.574 0.085463
136.38 3844.2 undefined 515.08 577.44 1.9529 425.00 0.0023529 515.08 577.44 1.9529 2.1148 2.9375 641.09 0.00066682 65.596 0.085579 425.00 0.0023529 515.08 577.44 1.9529 2.1148 2.9375 641.09 0.00066682 65.596 0.085579
137.38 3891.8 undefined 517.20 580.33 1.9581 425.00 0.0023529 517.20 580.33 1.9581 2.1188 2.9374 642.84 0.00061407 65.618 0.085696 425.00 0.0023529 517.20 580.33 1.9581 2.1188 2.9374 642.84 0.00061407 65.618 0.085696
138.38 3939.3 undefined 519.32 583.22 1.9633 425.00 0.0023529 519.32 583.22 1.9633 2.1228 2.9374 644.58 0.00056211 65.640 0.085813 425.00 0.0023529 519.32 583.22 1.9633 2.1228 2.9374 644.58 0.00056211 65.640 0.085813
139.38 3986.8 undefined 521.44 586.12 1.9684 425.00 0.0023529 521.44 586.12 1.9684 2.1269 2.9374 646.32 0.00051093 65.662 0.085931 425.00 0.0023529 521.44 586.12 1.9684 2.1269 2.9374 646.32 0.00051093 65.662 0.085931
140.38 4034.3 undefined 523.57 589.02 1.9736 425.00 0.0023529 523.57 589.02 1.9736 2.1309 2.9374 648.04 0.00046050 65.683 0.086048 425.00 0.0023529 523.57 589.02 1.9736 2.1309 2.9374 648.04 0.00046050 65.683 0.086048
141.38 4081.8 undefined 525.70 591.92 1.9787 425.00 0.0023529 525.70 591.92 1.9787 2.1349 2.9375 649.76 0.00041082 65.705 0.086166 425.00 0.0023529 525.70 591.92 1.9787 2.1349 2.9375 649.76 0.00041082 65.705 0.086166
142.38 4129.3 undefined 527.84 594.83 1.9839 425.00 0.0023529 527.84 594.83 1.9839 2.1389 2.9377 651.47 0.00036186 65.727 0.086285 425.00 0.0023529 527.84 594.83 1.9839 2.1389 2.9377 651.47 0.00036186 65.727 0.086285
143.38 4176.9 undefined 529.98 597.74 1.9890 425.00 0.0023529 529.98 597.74 1.9890 2.1429 2.9379 653.17 0.00031362 65.749 0.086404 425.00 0.0023529 529.98 597.74 1.9890 2.1429 2.9379 653.17 0.00031362 65.749 0.086404
144.38 4224.4 undefined 532.13 600.66 1.9942 425.00 0.0023529 532.13 600.66 1.9942 2.1469 2.9382 654.87 0.00026609 65.771 0.086523 425.00 0.0023529 532.13 600.66 1.9942 2.1469 2.9382 654.87 0.00026609 65.771 0.086523
145.38 4271.9 undefined 534.28 603.58 1.9993 425.00 0.0023529 534.28 603.58 1.9993 2.1510 2.9385 656.56 0.00021924 65.793 0.086642 425.00 0.0023529 534.28 603.58 1.9993 2.1510 2.9385 656.56 0.00021924 65.793 0.086642
146.38 4319.4 undefined 536.43 606.50 2.0045 425.00 0.0023529 536.43 606.50 2.0045 2.1550 2.9389 658.23 0.00017306 65.814 0.086762 425.00 0.0023529 536.43 606.50 2.0045 2.1550 2.9389 658.23 0.00017306 65.814 0.086762
147.38 4366.8 undefined 538.59 609.43 2.0096 425.00 0.0023529 538.59 609.43 2.0096 2.1590 2.9393 659.91 0.00012755 65.836 0.086881 425.00 0.0023529 538.59 609.43 2.0096 2.1590 2.9393 659.91 0.00012755 65.836 0.086881
148.38 4414.3 undefined 540.75 612.36 2.0147 425.00 0.0023529 540.75 612.36 2.0147 2.1630 2.9397 661.57 8.2685e-05 65.858 0.087002 425.00 0.0023529 540.75 612.36 2.0147 2.1630 2.9397 661.57 8.2685e-05 65.858 0.087002
149.38 4461.8 undefined 542.91 615.30 2.0199 425.00 0.0023529 542.91 615.30 2.0199 2.1670 2.9402 663.23 3.8459e-05 65.880 0.087122 425.00 0.0023529 542.91 615.30 2.0199 2.1670 2.9402 663.23 3.8459e-05 65.880 0.087122
150.38 4509.3 undefined 545.08 618.23 2.0250 425.00 0.0023529 545.08 618.23 2.0250 2.1710 2.9408 664.88 -5.1408e-06 65.902 0.087243 425.00 0.0023529 545.08 618.23 2.0250 2.1710 2.9408 664.88 -5.1408e-06 65.902 0.087243
151.38 4556.8 undefined 547.25 621.18 2.0301 425.00 0.0023529 547.25 621.18 2.0301 2.1750 2.9413 666.52 -4.8127e-05 65.924 0.087364 425.00 0.0023529 547.25 621.18 2.0301 2.1750 2.9413 666.52 -4.8127e-05 65.924 0.087364
152.38 4604.2 undefined 549.43 624.12 2.0352 425.00 0.0023529 549.43 624.12 2.0352 2.1790 2.9420 668.16 -9.0511e-05 65.946 0.087486 425.00 0.0023529 549.43 624.12 2.0352 2.1790 2.9420 668.16 -9.0511e-05 65.946 0.087486
153.38 4651.7 undefined 551.61 627.08 2.0403 425.00 0.0023529 551.61 627.08 2.0403 2.1830 2.9426 669.79 -0.00013230 65.967 0.087608 425.00 0.0023529 551.61 627.08 2.0403 2.1830 2.9426 669.79 -0.00013230 65.967 0.087608
154.38 4699.1 undefined 553.80 630.03 2.0455 425.00 0.0023529 553.80 630.03 2.0455 2.1870 2.9433 671.41 -0.00017351 65.989 0.087730 425.00 0.0023529 553.80 630.03 2.0455 2.1870 2.9433 671.41 -0.00017351 65.989 0.087730
155.38 4746.6 undefined 555.99 632.99 2.0506 425.00 0.0023529 555.99 632.99 2.0506 2.1910 2.9441 673.03 -0.00021415 66.011 0.087852 425.00 0.0023529 555.99 632.99 2.0506 2.1910 2.9441 673.03 -0.00021415 66.011 0.087852
156.38 4794.0 undefined 558.18 635.95 2.0557 425.00 0.0023529 558.18 635.95 2.0557 2.1950 2.9448 674.64 -0.00025424 66.033 0.087975 425.00 0.0023529 558.18 635.95 2.0557 2.1950 2.9448 674.64 -0.00025424 66.033 0.087975
157.38 4841.5 undefined 560.38 638.92 2.0608 425.00 0.0023529 560.38 638.92 2.0608 2.1990 2.9456 676.24 -0.00029377 66.055 0.088098 425.00 0.0023529 560.38 638.92 2.0608 2.1990 2.9456 676.24 -0.00029377 66.055 0.088098
158.38 4888.9 undefined 562.58 641.89 2.0659 425.00 0.0023529 562.58 641.89 2.0659 2.2030 2.9465 677.84 -0.00033276 66.077 0.088221 425.00 0.0023529 562.58 641.89 2.0659 2.2030 2.9465 677.84 -0.00033276 66.077 0.088221
159.38 4936.3 undefined 564.78 644.86 2.0710 425.00 0.0023529 564.78 644.86 2.0710 2.2069 2.9474 679.43 -0.00037122 66.098 0.088345 425.00 0.0023529 564.78 644.86 2.0710 2.2069 2.9474 679.43 -0.00037122 66.098 0.088345
160.38 4983.7 undefined 566.99 647.84 2.0761 425.00 0.0023529 566.99 647.84 2.0761 2.2109 2.9483 681.02 -0.00040915 66.120 0.088469 425.00 0.0023529 566.99 647.84 2.0761 2.2109 2.9483 681.02 -0.00040915 66.120 0.088469
161.38 5031.1 undefined 569.20 650.82 2.0812 425.00 0.0023529 569.20 650.82 2.0812 2.2149 2.9492 682.59 -0.00044658 66.142 0.088593 425.00 0.0023529 569.20 650.82 2.0812 2.2149 2.9492 682.59 -0.00044658 66.142 0.088593
162.38 5078.5 undefined 571.42 653.81 2.0863 425.00 0.0023529 571.42 653.81 2.0863 2.2189 2.9502 684.17 -0.00048350 66.164 0.088718 425.00 0.0023529 571.42 653.81 2.0863 2.2189 2.9502 684.17 -0.00048350 66.164 0.088718
163.38 5125.9 undefined 573.64 656.80 2.0914 425.00 0.0023529 573.64 656.80 2.0914 2.2229 2.9512 685.73 -0.00051993 66.186 0.088842 425.00 0.0023529 573.64 656.80 2.0914 2.2229 2.9512 685.73 -0.00051993 66.186 0.088842
164.38 5173.3 undefined 575.87 659.79 2.0965 425.00 0.0023529 575.87 659.79 2.0965 2.2268 2.9522 687.29 -0.00055588 66.208 0.088968 425.00 0.0023529 575.87 659.79 2.0965 2.2268 2.9522 687.29 -0.00055588 66.208 0.088968
165.38 5220.7 undefined 578.09 662.79 2.1016 425.00 0.0023529 578.09 662.79 2.1016 2.2308 2.9533 688.85 -0.00059134 66.229 0.089093 425.00 0.0023529 578.09 662.79 2.1016 2.2308 2.9533 688.85 -0.00059134 66.229 0.089093
166.38 5268.0 undefined 580.33 665.79 2.1067 425.00 0.0023529 580.33 665.79 2.1067 2.2348 2.9544 690.40 -0.00062634 66.251 0.089219 425.00 0.0023529 580.33 665.79 2.1067 2.2348 2.9544 690.40 -0.00062634 66.251 0.089219
167.38 5315.4 undefined 582.56 668.80 2.1117 425.00 0.0023529 582.56 668.80 2.1117 2.2387 2.9555 691.94 -0.00066087 66.273 0.089345 425.00 0.0023529 582.56 668.80 2.1117 2.2387 2.9555 691.94 -0.00066087 66.273 0.089345
168.38 5362.7 undefined 584.81 671.80 2.1168 425.00 0.0023529 584.81 671.80 2.1168 2.2427 2.9567 693.47 -0.00069495 66.295 0.089471 425.00 0.0023529 584.81 671.80 2.1168 2.2427 2.9567 693.47 -0.00069495 66.295 0.089471
169.38 5410.1 undefined 587.05 674.82 2.1219 425.00 0.0023529 587.05 674.82 2.1219 2.2466 2.9579 695.01 -0.00072859 66.317 0.089598 425.00 0.0023529 587.05 674.82 2.1219 2.2466 2.9579 695.01 -0.00072859 66.317 0.089598
170.38 5457.4 undefined 589.30 677.83 2.1270 425.00 0.0023529 589.30 677.83 2.1270 2.2506 2.9591 696.53 -0.00076178 66.339 0.089725 425.00 0.0023529 589.30 677.83 2.1270 2.2506 2.9591 696.53 -0.00076178 66.339 0.089725
171.38 5504.7 undefined 591.55 680.85 2.1321 425.00 0.0023529 591.55 680.85 2.1321 2.2546 2.9603 698.05 -0.00079455 66.360 0.089852 425.00 0.0023529 591.55 680.85 2.1321 2.2546 2.9603 698.05 -0.00079455 66.360 0.089852
172.38 5552.0 undefined 593.81 683.88 2.1371 425.00 0.0023529 593.81 683.88 2.1371 2.2585 2.9616 699.57 -0.00082689 66.382 0.089979 425.00 0.0023529 593.81 683.88 2.1371 2.2585 2.9616 699.57 -0.00082689 66.382 0.089979
173.38 5599.3 undefined 596.07 686.91 2.1422 425.00 0.0023529 596.07 686.91 2.1422 2.2624 2.9629 701.07 -0.00085881 66.404 0.090107 425.00 0.0023529 596.07 686.91 2.1422 2.2624 2.9629 701.07 -0.00085881 66.404 0.090107
174.38 5646.6 undefined 598.33 689.94 2.1473 425.00 0.0023529 598.33 689.94 2.1473 2.2664 2.9642 702.58 -0.00089032 66.426 0.090235 425.00 0.0023529 598.33 689.94 2.1473 2.2664 2.9642 702.58 -0.00089032 66.426 0.090235
175.38 5693.9 undefined 600.60 692.97 2.1523 425.00 0.0023529 600.60 692.97 2.1523 2.2703 2.9655 704.08 -0.00092143 66.448 0.090364 425.00 0.0023529 600.60 692.97 2.1523 2.2703 2.9655 704.08 -0.00092143 66.448 0.090364
176.38 5741.2 undefined 602.87 696.01 2.1574 425.00 0.0023529 602.87 696.01 2.1574 2.2743 2.9669 705.57 -0.00095215 66.469 0.090493 425.00 0.0023529 602.87 696.01 2.1574 2.2743 2.9669 705.57 -0.00095215 66.469 0.090493
177.38 5788.4 undefined 605.15 699.05 2.1624 425.00 0.0023529 605.15 699.05 2.1624 2.2782 2.9683 707.06 -0.00098247 66.491 0.090622 425.00 0.0023529 605.15 699.05 2.1624 2.2782 2.9683 707.06 -0.00098247 66.491 0.090622
178.38 5835.7 undefined 607.43 702.10 2.1675 425.00 0.0023529 607.43 702.10 2.1675 2.2821 2.9697 708.54 -0.0010124 66.513 0.090751 425.00 0.0023529 607.43 702.10 2.1675 2.2821 2.9697 708.54 -0.0010124 66.513 0.090751
179.38 5882.9 undefined 609.71 705.15 2.1725 425.00 0.0023529 609.71 705.15 2.1725 2.2861 2.9711 710.02 -0.0010420 66.535 0.090880 425.00 0.0023529 609.71 705.15 2.1725 2.2861 2.9711 710.02 -0.0010420 66.535 0.090880
180.38 5930.2 undefined 612.00 708.21 2.1776 425.00 0.0023529 612.00 708.21 2.1776 2.2900 2.9726 711.49 -0.0010712 66.557 0.091010 425.00 0.0023529 612.00 708.21 2.1776 2.2900 2.9726 711.49 -0.0010712 66.557 0.091010
181.38 5977.4 undefined 614.29 711.26 2.1826 425.00 0.0023529 614.29 711.26 2.1826 2.2939 2.9740 712.96 -0.0011000 66.578 0.091141 425.00 0.0023529 614.29 711.26 2.1826 2.2939 2.9740 712.96 -0.0011000 66.578 0.091141
182.38 6024.6 undefined 616.59 714.33 2.1877 425.00 0.0023529 616.59 714.33 2.1877 2.2978 2.9755 714.42 -0.0011284 66.600 0.091271 425.00 0.0023529 616.59 714.33 2.1877 2.2978 2.9755 714.42 -0.0011284 66.600 0.091271
183.38 6071.8 undefined 618.89 717.39 2.1927 425.00 0.0023529 618.89 717.39 2.1927 2.3017 2.9770 715.88 -0.0011565 66.622 0.091402 425.00 0.0023529 618.89 717.39 2.1927 2.3017 2.9770 715.88 -0.0011565 66.622 0.091402
184.38 6119.0 undefined 621.19 720.46 2.1978 425.00 0.0023529 621.19 720.46 2.1978 2.3056 2.9786 717.33 -0.0011843 66.644 0.091533 425.00 0.0023529 621.19 720.46 2.1978 2.3056 2.9786 717.33 -0.0011843 66.644 0.091533
185.38 6166.1 undefined 623.50 723.53 2.2028 425.00 0.0023529 623.50 723.53 2.2028 2.3096 2.9801 718.78 -0.0012117 66.665 0.091664 425.00 0.0023529 623.50 723.53 2.2028 2.3096 2.9801 718.78 -0.0012117 66.665 0.091664
186.38 6213.3 undefined 625.81 726.61 2.2078 425.00 0.0023529 625.81 726.61 2.2078 2.3135 2.9817 720.22 -0.0012388 66.687 0.091796 425.00 0.0023529 625.81 726.61 2.2078 2.3135 2.9817 720.22 -0.0012388 66.687 0.091796
187.38 6260.5 undefined 628.13 729.69 2.2129 425.00 0.0023529 628.13 729.69 2.2129 2.3174 2.9833 721.66 -0.0012655 66.709 0.091928 425.00 0.0023529 628.13 729.69 2.2129 2.3174 2.9833 721.66 -0.0012655 66.709 0.091928
188.38 6307.6 undefined 630.45 732.77 2.2179 425.00 0.0023529 630.45 732.77 2.2179 2.3212 2.9849 723.09 -0.0012919 66.731 0.092060 425.00 0.0023529 630.45 732.77 2.2179 2.3212 2.9849 723.09 -0.0012919 66.731 0.092060
189.38 6354.7 undefined 632.77 735.86 2.2229 425.00 0.0023529 632.77 735.86 2.2229 2.3251 2.9866 724.52 -0.0013180 66.753 0.092193 425.00 0.0023529 632.77 735.86 2.2229 2.3251 2.9866 724.52 -0.0013180 66.753 0.092193
190.38 6401.8 undefined 635.10 738.95 2.2280 425.00 0.0023529 635.10 738.95 2.2280 2.3290 2.9882 725.94 -0.0013438 66.774 0.092325 425.00 0.0023529 635.10 738.95 2.2280 2.3290 2.9882 725.94 -0.0013438 66.774 0.092325
191.38 6448.9 undefined 637.43 742.05 2.2330 425.00 0.0023529 637.43 742.05 2.2330 2.3329 2.9899 727.36 -0.0013693 66.796 0.092458 425.00 0.0023529 637.43 742.05 2.2330 2.3329 2.9899 727.36 -0.0013693 66.796 0.092458
192.38 6496.0 undefined 639.76 745.15 2.2380 425.00 0.0023529 639.76 745.15 2.2380 2.3368 2.9916 728.78 -0.0013944 66.818 0.092592 425.00 0.0023529 639.76 745.15 2.2380 2.3368 2.9916 728.78 -0.0013944 66.818 0.092592
193.38 6543.1 undefined 642.10 748.25 2.2430 425.00 0.0023529 642.10 748.25 2.2430 2.3407 2.9933 730.19 -0.0014193 66.839 0.092726 425.00 0.0023529 642.10 748.25 2.2430 2.3407 2.9933 730.19 -0.0014193 66.839 0.092726
194.38 6590.2 undefined 644.44 751.36 2.2480 425.00 0.0023529 644.44 751.36 2.2480 2.3446 2.9950 731.60 -0.0014438 66.861 0.092860 425.00 0.0023529 644.44 751.36 2.2480 2.3446 2.9950 731.60 -0.0014438 66.861 0.092860
195.38 6637.2 undefined 646.79 754.47 2.2531 425.00 0.0023529 646.79 754.47 2.2531 2.3484 2.9967 733.00 -0.0014681 66.883 0.092994 425.00 0.0023529 646.79 754.47 2.2531 2.3484 2.9967 733.00 -0.0014681 66.883 0.092994
196.38 6684.3 undefined 649.14 757.58 2.2581 425.00 0.0023529 649.14 757.58 2.2581 2.3523 2.9985 734.40 -0.0014920 66.905 0.093128 425.00 0.0023529 649.14 757.58 2.2581 2.3523 2.9985 734.40 -0.0014920 66.905 0.093128
197.38 6731.3 undefined 651.50 760.70 2.2631 425.00 0.0023529 651.50 760.70 2.2631 2.3562 3.0002 735.79 -0.0015157 66.926 0.093263 425.00 0.0023529 651.50 760.70 2.2631 2.3562 3.0002 735.79 -0.0015157 66.926 0.093263
198.38 6778.3 undefined 653.85 763.82 2.2681 425.00 0.0023529 653.85 763.82 2.2681 2.3600 3.0020 737.18 -0.0015391 66.948 0.093398 425.00 0.0023529 653.85 763.82 2.2681 2.3600 3.0020 737.18 -0.0015391 66.948 0.093398
199.38 6825.3 undefined 656.22 766.94 2.2731 425.00 0.0023529 656.22 766.94 2.2731 2.3639 3.0038 738.56 -0.0015622 66.970 0.093534 425.00 0.0023529 656.22 766.94 2.2731 2.3639 3.0038 738.56 -0.0015622 66.970 0.093534
200.38 6872.3 undefined 658.58 770.07 2.2781 425.00 0.0023529 658.58 770.07 2.2781 2.3677 3.0056 739.94 -0.0015850 66.991 0.093669 425.00 0.0023529 658.58 770.07 2.2781 2.3677 3.0056 739.94 -0.0015850 66.991 0.093669
201.38 6919.3 undefined 660.95 773.20 2.2831 425.00 0.0023529 660.95 773.20 2.2831 2.3716 3.0074 741.32 -0.0016076 67.013 0.093805 425.00 0.0023529 660.95 773.20 2.2831 2.3716 3.0074 741.32 -0.0016076 67.013 0.093805
202.38 6966.3 undefined 663.32 776.34 2.2881 425.00 0.0023529 663.32 776.34 2.2881 2.3754 3.0093 742.69 -0.0016299 67.035 0.093942 425.00 0.0023529 663.32 776.34 2.2881 2.3754 3.0093 742.69 -0.0016299 67.035 0.093942
203.38 7013.2 undefined 665.70 779.48 2.2931 425.00 0.0023529 665.70 779.48 2.2931 2.3793 3.0111 744.06 -0.0016520 67.057 0.094078 425.00 0.0023529 665.70 779.48 2.2931 2.3793 3.0111 744.06 -0.0016520 67.057 0.094078
204.38 7060.2 undefined 668.08 782.62 2.2981 425.00 0.0023529 668.08 782.62 2.2981 2.3831 3.0130 745.42 -0.0016737 67.078 0.094215 425.00 0.0023529 668.08 782.62 2.2981 2.3831 3.0130 745.42 -0.0016737 67.078 0.094215
205.38 7107.1 undefined 670.47 785.77 2.3031 425.00 0.0023529 670.47 785.77 2.3031 2.3869 3.0149 746.78 -0.0016953 67.100 0.094352 425.00 0.0023529 670.47 785.77 2.3031 2.3869 3.0149 746.78 -0.0016953 67.100 0.094352
206.38 7154.0 undefined 672.86 788.92 2.3080 425.00 0.0023529 672.86 788.92 2.3080 2.3908 3.0168 748.14 -0.0017165 67.122 0.094490 425.00 0.0023529 672.86 788.92 2.3080 2.3908 3.0168 748.14 -0.0017165 67.122 0.094490
207.38 7200.9 undefined 675.25 792.07 2.3130 425.00 0.0023529 675.25 792.07 2.3130 2.3946 3.0187 749.49 -0.0017376 67.143 0.094627 425.00 0.0023529 675.25 792.07 2.3130 2.3946 3.0187 749.49 -0.0017376 67.143 0.094627
208.38 7247.8 undefined 677.65 795.23 2.3180 425.00 0.0023529 677.65 795.23 2.3180 2.3984 3.0206 750.84 -0.0017584 67.165 0.094765 425.00 0.0023529 677.65 795.23 2.3180 2.3984 3.0206 750.84 -0.0017584 67.165 0.094765
209.38 7294.7 undefined 680.05 798.39 2.3230 425.00 0.0023529 680.05 798.39 2.3230 2.4022 3.0225 752.19 -0.0017789 67.186 0.094904 425.00 0.0023529 680.05 798.39 2.3230 2.4022 3.0225 752.19 -0.0017789 67.186 0.094904
210.38 7341.5 undefined 682.45 801.55 2.3280 425.00 0.0023529 682.45 801.55 2.3280 2.4060 3.0245 753.53 -0.0017992 67.208 0.095042 425.00 0.0023529 682.45 801.55 2.3280 2.4060 3.0245 753.53 -0.0017992 67.208 0.095042
211.38 7388.4 undefined 684.86 804.72 2.3329 425.00 0.0023529 684.86 804.72 2.3329 2.4098 3.0264 754.86 -0.0018193 67.230 0.095181 425.00 0.0023529 684.86 804.72 2.3329 2.4098 3.0264 754.86 -0.0018193 67.230 0.095181
212.38 7435.2 undefined 687.27 807.89 2.3379 425.00 0.0023529 687.27 807.89 2.3379 2.4136 3.0284 756.20 -0.0018391 67.251 0.095323 425.00 0.0023529 687.27 807.89 2.3379 2.4136 3.0284 756.20 -0.0018391 67.251 0.095323
213.38 7482.0 undefined 689.69 811.07 2.3429 425.00 0.0023529 689.69 811.07 2.3429 2.4174 3.0304 757.53 -0.0018588 67.273 0.095466 425.00 0.0023529 689.69 811.07 2.3429 2.4174 3.0304 757.53 -0.0018588 67.273 0.095466
214.38 7528.8 undefined 692.10 814.24 2.3479 425.00 0.0023529 692.10 814.24 2.3479 2.4212 3.0324 758.85 -0.0018781 67.295 0.095609 425.00 0.0023529 692.10 814.24 2.3479 2.4212 3.0324 758.85 -0.0018781 67.295 0.095609
215.38 7575.6 undefined 694.53 817.43 2.3528 425.00 0.0023529 694.53 817.43 2.3528 2.4250 3.0344 760.17 -0.0018973 67.316 0.095753 425.00 0.0023529 694.53 817.43 2.3528 2.4250 3.0344 760.17 -0.0018973 67.316 0.095753
216.38 7622.4 undefined 696.95 820.61 2.3578 425.00 0.0023529 696.95 820.61 2.3578 2.4288 3.0364 761.49 -0.0019163 67.338 0.095897 425.00 0.0023529 696.95 820.61 2.3578 2.4288 3.0364 761.49 -0.0019163 67.338 0.095897
217.38 7669.2 undefined 699.39 823.80 2.3627 425.00 0.0023529 699.39 823.80 2.3627 2.4326 3.0384 762.80 -0.0019350 67.359 0.096041 425.00 0.0023529 699.39 823.80 2.3627 2.4326 3.0384 762.80 -0.0019350 67.359 0.096041
218.38 7715.9 undefined 701.82 826.99 2.3677 425.00 0.0023529 701.82 826.99 2.3677 2.4364 3.0404 764.12 -0.0019535 67.381 0.096186 425.00 0.0023529 701.82 826.99 2.3677 2.4364 3.0404 764.12 -0.0019535 67.381 0.096186
219.38 7762.6 undefined 704.26 830.19 2.3727 425.00 0.0023529 704.26 830.19 2.3727 2.4402 3.0425 765.42 -0.0019718 67.402 0.096331 425.00 0.0023529 704.26 830.19 2.3727 2.4402 3.0425 765.42 -0.0019718 67.402 0.096331
220.38 7809.4 undefined 706.70 833.39 2.3776 425.00 0.0023529 706.70 833.39 2.3776 2.4439 3.0445 766.73 -0.0019900 67.424 0.096476 425.00 0.0023529 706.70 833.39 2.3776 2.4439 3.0445 766.73 -0.0019900 67.424 0.096476
221.38 7856.1 undefined 709.15 836.59 2.3826 425.00 0.0023529 709.15 836.59 2.3826 2.4477 3.0466 768.03 -0.0020079 67.446 0.096621 425.00 0.0023529 709.15 836.59 2.3826 2.4477 3.0466 768.03 -0.0020079 67.446 0.096621
222.38 7902.8 undefined 711.60 839.80 2.3875 425.00 0.0023529 711.60 839.80 2.3875 2.4515 3.0487 769.32 -0.0020256 67.467 0.096767 425.00 0.0023529 711.60 839.80 2.3875 2.4515 3.0487 769.32 -0.0020256 67.467 0.096767
223.38 7949.4 undefined 714.05 843.01 2.3925 425.00 0.0023529 714.05 843.01 2.3925 2.4552 3.0507 770.62 -0.0020431 67.489 0.096913 425.00 0.0023529 714.05 843.01 2.3925 2.4552 3.0507 770.62 -0.0020431 67.489 0.096913
224.38 7996.1 undefined 716.51 846.23 2.3974 425.00 0.0023529 716.51 846.23 2.3974 2.4590 3.0528 771.91 -0.0020604 67.510 0.097059 425.00 0.0023529 716.51 846.23 2.3974 2.4590 3.0528 771.91 -0.0020604 67.510 0.097059
225.38 8042.7 undefined 718.97 849.44 2.4023 425.00 0.0023529 718.97 849.44 2.4023 2.4627 3.0549 773.19 -0.0020775 67.532 0.097206 425.00 0.0023529 718.97 849.44 2.4023 2.4627 3.0549 773.19 -0.0020775 67.532 0.097206
226.38 8089.4 undefined 721.43 852.67 2.4073 425.00 0.0023529 721.43 852.67 2.4073 2.4665 3.0570 774.48 -0.0020944 67.553 0.097353 425.00 0.0023529 721.43 852.67 2.4073 2.4665 3.0570 774.48 -0.0020944 67.553 0.097353
227.38 8136.0 undefined 723.90 855.89 2.4122 425.00 0.0023529 723.90 855.89 2.4122 2.4702 3.0592 775.75 -0.0021112 67.575 0.097500 425.00 0.0023529 723.90 855.89 2.4122 2.4702 3.0592 775.75 -0.0021112 67.575 0.097500
228.38 8182.6 undefined 726.37 859.12 2.4171 425.00 0.0023529 726.37 859.12 2.4171 2.4740 3.0613 777.03 -0.0021277 67.596 0.097647 425.00 0.0023529 726.37 859.12 2.4171 2.4740 3.0613 777.03 -0.0021277 67.596 0.097647
229.38 8229.2 undefined 728.85 862.35 2.4221 425.00 0.0023529 728.85 862.35 2.4221 2.4777 3.0634 778.30 -0.0021441 67.618 0.097795 425.00 0.0023529 728.85 862.35 2.4221 2.4777 3.0634 778.30 -0.0021441 67.618 0.097795
230.38 8275.8 undefined 731.33 865.58 2.4270 425.00 0.0023529 731.33 865.58 2.4270 2.4814 3.0655 779.57 -0.0021603 67.639 0.097943 425.00 0.0023529 731.33 865.58 2.4270 2.4814 3.0655 779.57 -0.0021603 67.639 0.097943
231.38 8322.3 undefined 733.81 868.82 2.4319 425.00 0.0023529 733.81 868.82 2.4319 2.4852 3.0677 780.84 -0.0021763 67.661 0.098092 425.00 0.0023529 733.81 868.82 2.4319 2.4852 3.0677 780.84 -0.0021763 67.661 0.098092
232.38 8368.9 undefined 736.30 872.07 2.4369 425.00 0.0023529 736.30 872.07 2.4369 2.4889 3.0699 782.10 -0.0021921 67.682 0.098240 425.00 0.0023529 736.30 872.07 2.4369 2.4889 3.0699 782.10 -0.0021921 67.682 0.098240
233.38 8415.4 undefined 738.79 875.31 2.4418 425.00 0.0023529 738.79 875.31 2.4418 2.4926 3.0720 783.36 -0.0022078 67.704 0.098389 425.00 0.0023529 738.79 875.31 2.4418 2.4926 3.0720 783.36 -0.0022078 67.704 0.098389
234.38 8461.9 undefined 741.28 878.56 2.4467 425.00 0.0023529 741.28 878.56 2.4467 2.4963 3.0742 784.62 -0.0022233 67.725 0.098538 425.00 0.0023529 741.28 878.56 2.4467 2.4963 3.0742 784.62 -0.0022233 67.725 0.098538
235.38 8508.4 undefined 743.78 881.81 2.4516 425.00 0.0023529 743.78 881.81 2.4516 2.5000 3.0764 785.87 -0.0022386 67.747 0.098688 425.00 0.0023529 743.78 881.81 2.4516 2.5000 3.0764 785.87 -0.0022386 67.747 0.098688
236.38 8554.9 undefined 746.28 885.07 2.4565 425.00 0.0023529 746.28 885.07 2.4565 2.5037 3.0786 787.12 -0.0022537 67.768 0.098838 425.00 0.0023529 746.28 885.07 2.4565 2.5037 3.0786 787.12 -0.0022537 67.768 0.098838
237.38 8601.3 undefined 748.79 888.33 2.4614 425.00 0.0023529 748.79 888.33 2.4614 2.5074 3.0808 788.37 -0.0022687 67.789 0.098988 425.00 0.0023529 748.79 888.33 2.4614 2.5074 3.0808 788.37 -0.0022687 67.789 0.098988
238.38 8647.8 undefined 751.30 891.59 2.4664 425.00 0.0023529 751.30 891.59 2.4664 2.5111 3.0830 789.62 -0.0022835 67.811 0.099138 425.00 0.0023529 751.30 891.59 2.4664 2.5111 3.0830 789.62 -0.0022835 67.811 0.099138
239.38 8694.2 undefined 753.81 894.86 2.4713 425.00 0.0023529 753.81 894.86 2.4713 2.5148 3.0852 790.86 -0.0022982 67.832 0.099289 425.00 0.0023529 753.81 894.86 2.4713 2.5148 3.0852 790.86 -0.0022982 67.832 0.099289
240.38 8740.6 undefined 756.33 898.13 2.4762 425.00 0.0023529 756.33 898.13 2.4762 2.5185 3.0874 792.09 -0.0023127 67.854 0.099440 425.00 0.0023529 756.33 898.13 2.4762 2.5185 3.0874 792.09 -0.0023127 67.854 0.099440
241.38 8787.1 undefined 758.85 901.40 2.4811 425.00 0.0023529 758.85 901.40 2.4811 2.5222 3.0896 793.33 -0.0023271 67.875 0.099591 425.00 0.0023529 758.85 901.40 2.4811 2.5222 3.0896 793.33 -0.0023271 67.875 0.099591
242.38 8833.4 undefined 761.37 904.68 2.4860 425.00 0.0023529 761.37 904.68 2.4860 2.5259 3.0918 794.56 -0.0023412 67.896 0.099743 425.00 0.0023529 761.37 904.68 2.4860 2.5259 3.0918 794.56 -0.0023412 67.896 0.099743
243.38 8879.8 undefined 763.90 907.96 2.4909 425.00 0.0023529 763.90 907.96 2.4909 2.5296 3.0941 795.79 -0.0023553 67.918 0.099895 425.00 0.0023529 763.90 907.96 2.4909 2.5296 3.0941 795.79 -0.0023553 67.918 0.099895
244.38 8926.2 undefined 766.43 911.24 2.4958 425.00 0.0023529 766.43 911.24 2.4958 2.5332 3.0963 797.02 -0.0023692 67.939 0.10005 425.00 0.0023529 766.43 911.24 2.4958 2.5332 3.0963 797.02 -0.0023692 67.939 0.10005
245.38 8972.5 undefined 768.97 914.53 2.5007 425.00 0.0023529 768.97 914.53 2.5007 2.5369 3.0985 798.24 -0.0023829 67.961 0.10020 425.00 0.0023529 768.97 914.53 2.5007 2.5369 3.0985 798.24 -0.0023829 67.961 0.10020
246.38 9018.9 undefined 771.51 917.82 2.5056 425.00 0.0023529 771.51 917.82 2.5056 2.5406 3.1008 799.46 -0.0023965 67.982 0.10035 425.00 0.0023529 771.51 917.82 2.5056 2.5406 3.1008 799.46 -0.0023965 67.982 0.10035
247.38 9065.2 undefined 774.05 921.11 2.5104 425.00 0.0023529 774.05 921.11 2.5104 2.5442 3.1031 800.68 -0.0024099 68.003 0.10051 425.00 0.0023529 774.05 921.11 2.5104 2.5442 3.1031 800.68 -0.0024099 68.003 0.10051
248.38 9111.5 undefined 776.59 924.41 2.5153 425.00 0.0023529 776.59 924.41 2.5153 2.5479 3.1053 801.89 -0.0024232 68.025 0.10066 425.00 0.0023529 776.59 924.41 2.5153 2.5479 3.1053 801.89 -0.0024232 68.025 0.10066
249.38 9157.7 undefined 779.14 927.71 2.5202 425.00 0.0023529 779.14 927.71 2.5202 2.5515 3.1076 803.10 -0.0024364 68.046 0.10081 425.00 0.0023529 779.14 927.71 2.5202 2.5515 3.1076 803.10 -0.0024364 68.046 0.10081
250.38 9204.0 undefined 781.70 931.01 2.5251 425.00 0.0023529 781.70 931.01 2.5251 2.5552 3.1099 804.31 -0.0024494 68.067 0.10097 425.00 0.0023529 781.70 931.01 2.5251 2.5552 3.1099 804.31 -0.0024494 68.067 0.10097
251.38 9250.3 undefined 784.25 934.32 2.5300 425.00 0.0023529 784.25 934.32 2.5300 2.5588 3.1121 805.52 -0.0024623 68.089 0.10112 425.00 0.0023529 784.25 934.32 2.5300 2.5588 3.1121 805.52 -0.0024623 68.089 0.10112
252.38 9296.5 undefined 786.81 937.63 2.5349 425.00 0.0023529 786.81 937.63 2.5349 2.5624 3.1144 806.72 -0.0024750 68.110 0.10127 425.00 0.0023529 786.81 937.63 2.5349 2.5624 3.1144 806.72 -0.0024750 68.110 0.10127
253.38 9342.7 undefined 789.38 940.95 2.5397 425.00 0.0023529 789.38 940.95 2.5397 2.5661 3.1167 807.92 -0.0024876 68.131 0.10143 425.00 0.0023529 789.38 940.95 2.5397 2.5661 3.1167 807.92 -0.0024876 68.131 0.10143
254.38 9388.9 undefined 791.95 944.26 2.5446 425.00 0.0023529 791.95 944.26 2.5446 2.5697 3.1190 809.12 -0.0025001 68.152 0.10158 425.00 0.0023529 791.95 944.26 2.5446 2.5697 3.1190 809.12 -0.0025001 68.152 0.10158
255.38 9435.1 undefined 794.52 947.58 2.5495 425.00 0.0023529 794.52 947.58 2.5495 2.5733 3.1213 810.31 -0.0025125 68.174 0.10174 425.00 0.0023529 794.52 947.58 2.5495 2.5733 3.1213 810.31 -0.0025125 68.174 0.10174
256.38 9481.3 undefined 797.09 950.91 2.5543 425.00 0.0023529 797.09 950.91 2.5543 2.5770 3.1236 811.50 -0.0025247 68.195 0.10190 425.00 0.0023529 797.09 950.91 2.5543 2.5770 3.1236 811.50 -0.0025247 68.195 0.10190
257.38 9527.4 undefined 799.67 954.24 2.5592 425.00 0.0023529 799.67 954.24 2.5592 2.5806 3.1259 812.69 -0.0025368 68.216 0.10205 425.00 0.0023529 799.67 954.24 2.5592 2.5806 3.1259 812.69 -0.0025368 68.216 0.10205
258.38 9573.6 undefined 802.25 957.57 2.5641 425.00 0.0023529 802.25 957.57 2.5641 2.5842 3.1282 813.88 -0.0025487 68.237 0.10221 425.00 0.0023529 802.25 957.57 2.5641 2.5842 3.1282 813.88 -0.0025487 68.237 0.10221
259.38 9619.7 undefined 804.84 960.90 2.5689 425.00 0.0023529 804.84 960.90 2.5689 2.5878 3.1306 815.06 -0.0025605 68.259 0.10236 425.00 0.0023529 804.84 960.90 2.5689 2.5878 3.1306 815.06 -0.0025605 68.259 0.10236
260.38 9665.8 undefined 807.43 964.24 2.5738 425.00 0.0023529 807.43 964.24 2.5738 2.5914 3.1329 816.24 -0.0025722 68.280 0.10252 425.00 0.0023529 807.43 964.24 2.5738 2.5914 3.1329 816.24 -0.0025722 68.280 0.10252
261.38 9711.9 undefined 810.02 967.58 2.5786 425.00 0.0023529 810.02 967.58 2.5786 2.5950 3.1352 817.42 -0.0025838 68.301 0.10268 425.00 0.0023529 810.02 967.58 2.5786 2.5950 3.1352 817.42 -0.0025838 68.301 0.10268
262.38 9758.0 undefined 812.62 970.92 2.5835 425.00 0.0023529 812.62 970.92 2.5835 2.5986 3.1375 818.60 -0.0025953 68.322 0.10284 425.00 0.0023529 812.62 970.92 2.5835 2.5986 3.1375 818.60 -0.0025953 68.322 0.10284
263.38 9804.0 undefined 815.22 974.27 2.5883 425.00 0.0023529 815.22 974.27 2.5883 2.6022 3.1399 819.77 -0.0026066 68.343 0.10299 425.00 0.0023529 815.22 974.27 2.5883 2.6022 3.1399 819.77 -0.0026066 68.343 0.10299
264.38 9850.1 undefined 817.82 977.62 2.5932 425.00 0.0023529 817.82 977.62 2.5932 2.6057 3.1422 820.94 -0.0026178 68.365 0.10315 425.00 0.0023529 817.82 977.62 2.5932 2.6057 3.1422 820.94 -0.0026178 68.365 0.10315
265.38 9896.1 undefined 820.43 980.98 2.5980 425.00 0.0023529 820.43 980.98 2.5980 2.6093 3.1446 822.11 -0.0026289 68.386 0.10331 425.00 0.0023529 820.43 980.98 2.5980 2.6093 3.1446 822.11 -0.0026289 68.386 0.10331
266.38 9942.1 undefined 823.04 984.33 2.6029 425.00 0.0023529 823.04 984.33 2.6029 2.6129 3.1469 823.27 -0.0026399 68.407 0.10347 425.00 0.0023529 823.04 984.33 2.6029 2.6129 3.1469 823.27 -0.0026399 68.407 0.10347
267.38 9988.1 undefined 825.66 987.69 2.6077 425.00 0.0023529 825.66 987.69 2.6077 2.6165 3.1493 824.44 -0.0026508 68.428 0.10363 425.00 0.0023529 825.66 987.69 2.6077 2.6165 3.1493 824.44 -0.0026508 68.428 0.10363
268.38 10034. undefined 828.28 991.06 2.6126 425.00 0.0023529 828.28 991.06 2.6126 2.6200 3.1516 825.60 -0.0026616 68.449 0.10379 425.00 0.0023529 828.28 991.06 2.6126 2.6200 3.1516 825.60 -0.0026616 68.449 0.10379
269.38 10080. undefined 830.90 994.43 2.6174 425.00 0.0023529 830.90 994.43 2.6174 2.6236 3.1540 826.76 -0.0026722 68.470 0.10395 425.00 0.0023529 830.90 994.43 2.6174 2.6236 3.1540 826.76 -0.0026722 68.470 0.10395
270.38 10126. undefined 833.52 997.80 2.6222 425.00 0.0023529 833.52 997.80 2.6222 2.6272 3.1563 827.91 -0.0026828 68.491 0.10411 425.00 0.0023529 833.52 997.80 2.6222 2.6272 3.1563 827.91 -0.0026828 68.491 0.10411
271.38 10172. undefined 836.15 1001.2 2.6271 425.00 0.0023529 836.15 1001.2 2.6271 2.6307 3.1587 829.06 -0.0026932 68.512 0.10427 425.00 0.0023529 836.15 1001.2 2.6271 2.6307 3.1587 829.06 -0.0026932 68.512 0.10427
272.38 10218. undefined 838.78 1004.5 2.6319 425.00 0.0023529 838.78 1004.5 2.6319 2.6343 3.1611 830.21 -0.0027035 68.534 0.10443 425.00 0.0023529 838.78 1004.5 2.6319 2.6343 3.1611 830.21 -0.0027035 68.534 0.10443
273.38 10264. undefined 841.42 1007.9 2.6367 425.00 0.0023529 841.42 1007.9 2.6367 2.6378 3.1634 831.36 -0.0027137 68.555 0.10459 425.00 0.0023529 841.42 1007.9 2.6367 2.6378 3.1634 831.36 -0.0027137 68.555 0.10459
274.38 10310. undefined 844.06 1011.3 2.6416 425.00 0.0023529 844.06 1011.3 2.6416 2.6413 3.1658 832.51 -0.0027238 68.576 0.10475 425.00 0.0023529 844.06 1011.3 2.6416 2.6413 3.1658 832.51 -0.0027238 68.576 0.10475
275.38 10356. undefined 846.70 1014.7 2.6464 425.00 0.0023529 846.70 1014.7 2.6464 2.6449 3.1682 833.65 -0.0027338 68.597 0.10491 425.00 0.0023529 846.70 1014.7 2.6464 2.6449 3.1682 833.65 -0.0027338 68.597 0.10491
276.38 10401. undefined 849.35 1018.1 2.6512 425.00 0.0023529 849.35 1018.1 2.6512 2.6484 3.1706 834.79 -0.0027437 68.618 0.10507 425.00 0.0023529 849.35 1018.1 2.6512 2.6484 3.1706 834.79 -0.0027437 68.618 0.10507
277.38 10447. undefined 852.00 1021.5 2.6560 425.00 0.0023529 852.00 1021.5 2.6560 2.6519 3.1729 835.93 -0.0027535 68.639 0.10523 425.00 0.0023529 852.00 1021.5 2.6560 2.6519 3.1729 835.93 -0.0027535 68.639 0.10523
278.38 10493. undefined 854.65 1024.9 2.6608 425.00 0.0023529 854.65 1024.9 2.6608 2.6554 3.1753 837.06 -0.0027632 68.660 0.10539 425.00 0.0023529 854.65 1024.9 2.6608 2.6554 3.1753 837.06 -0.0027632 68.660 0.10539
279.38 10539. undefined 857.31 1028.3 2.6656 425.00 0.0023529 857.31 1028.3 2.6656 2.6590 3.1777 838.20 -0.0027728 68.681 0.10556 425.00 0.0023529 857.31 1028.3 2.6656 2.6590 3.1777 838.20 -0.0027728 68.681 0.10556
280.38 10585. undefined 859.97 1031.7 2.6705 425.00 0.0023529 859.97 1031.7 2.6705 2.6625 3.1801 839.33 -0.0027823 68.702 0.10572 425.00 0.0023529 859.97 1031.7 2.6705 2.6625 3.1801 839.33 -0.0027823 68.702 0.10572
281.38 10630. undefined 862.64 1035.1 2.6753 425.00 0.0023529 862.64 1035.1 2.6753 2.6660 3.1825 840.46 -0.0027917 68.723 0.10588 425.00 0.0023529 862.64 1035.1 2.6753 2.6660 3.1825 840.46 -0.0027917 68.723 0.10588
282.38 10676. undefined 865.30 1038.5 2.6801 425.00 0.0023529 865.30 1038.5 2.6801 2.6695 3.1849 841.58 -0.0028011 68.744 0.10563 425.00 0.0023529 865.30 1038.5 2.6801 2.6695 3.1849 841.58 -0.0028011 68.744 0.10563
283.38 10722. undefined 867.97 1041.9 2.6849 425.00 0.0023529 867.97 1041.9 2.6849 2.6730 3.1873 842.71 -0.0028103 68.765 0.10579 425.00 0.0023529 867.97 1041.9 2.6849 2.6730 3.1873 842.71 -0.0028103 68.765 0.10579
284.38 10768. undefined 870.65 1045.3 2.6897 425.00 0.0023529 870.65 1045.3 2.6897 2.6765 3.1897 843.83 -0.0028194 68.786 0.10596 425.00 0.0023529 870.65 1045.3 2.6897 2.6765 3.1897 843.83 -0.0028194 68.786 0.10596
285.38 10813. undefined 873.33 1048.8 2.6945 425.00 0.0023529 873.33 1048.8 2.6945 2.6800 3.1921 844.95 -0.0028284 68.807 0.10612 425.00 0.0023529 873.33 1048.8 2.6945 2.6800 3.1921 844.95 -0.0028284 68.807 0.10612
286.38 10859. undefined 876.01 1052.2 2.6993 425.00 0.0023529 876.01 1052.2 2.6993 2.6835 3.1945 846.06 -0.0028373 68.828 0.10628 425.00 0.0023529 876.01 1052.2 2.6993 2.6835 3.1945 846.06 -0.0028373 68.828 0.10628
287.38 10905. undefined 878.69 1055.6 2.7041 425.00 0.0023529 878.69 1055.6 2.7041 2.6869 3.1969 847.18 -0.0028462 68.848 0.10645 425.00 0.0023529 878.69 1055.6 2.7041 2.6869 3.1969 847.18 -0.0028462 68.848 0.10645
288.38 10950. undefined 881.38 1059.0 2.7089 425.00 0.0023529 881.38 1059.0 2.7089 2.6904 3.1993 848.29 -0.0028549 68.869 0.10661 425.00 0.0023529 881.38 1059.0 2.7089 2.6904 3.1993 848.29 -0.0028549 68.869 0.10661
289.38 10996. undefined 884.08 1062.5 2.7137 425.00 0.0023529 884.08 1062.5 2.7137 2.6939 3.2018 849.40 -0.0028636 68.890 0.10677 425.00 0.0023529 884.08 1062.5 2.7137 2.6939 3.2018 849.40 -0.0028636 68.890 0.10677
290.38 11042. undefined 886.77 1065.9 2.7184 425.00 0.0023529 886.77 1065.9 2.7184 2.6974 3.2042 850.51 -0.0028722 68.911 0.10694 425.00 0.0023529 886.77 1065.9 2.7184 2.6974 3.2042 850.51 -0.0028722 68.911 0.10694
291.38 11087. undefined 889.47 1069.3 2.7232 425.00 0.0023529 889.47 1069.3 2.7232 2.7008 3.2066 851.62 -0.0028807 68.932 0.10710 425.00 0.0023529 889.47 1069.3 2.7232 2.7008 3.2066 851.62 -0.0028807 68.932 0.10710
292.38 11133. undefined 892.17 1072.8 2.7280 425.00 0.0023529 892.17 1072.8 2.7280 2.7043 3.2090 852.72 -0.0028891 68.953 0.10727 425.00 0.0023529 892.17 1072.8 2.7280 2.7043 3.2090 852.72 -0.0028891 68.953 0.10727
293.38 11178. undefined 894.88 1076.2 2.7328 425.00 0.0023529 894.88 1076.2 2.7328 2.7077 3.2114 853.82 -0.0028974 68.974 0.10743 425.00 0.0023529 894.88 1076.2 2.7328 2.7077 3.2114 853.82 -0.0028974 68.974 0.10743
294.38 11224. undefined 897.59 1079.7 2.7376 425.00 0.0023529 897.59 1079.7 2.7376 2.7112 3.2139 854.92 -0.0029056 68.995 0.10760 425.00 0.0023529 897.59 1079.7 2.7376 2.7112 3.2139 854.92 -0.0029056 68.995 0.10760
295.38 11269. undefined 900.30 1083.1 2.7423 425.00 0.0023529 900.30 1083.1 2.7423 2.7146 3.2163 856.02 -0.0029138 69.015 0.10777 425.00 0.0023529 900.30 1083.1 2.7423 2.7146 3.2163 856.02 -0.0029138 69.015 0.10777
296.38 11315. undefined 903.02 1086.6 2.7471 425.00 0.0023529 903.02 1086.6 2.7471 2.7181 3.2187 857.11 -0.0029218 69.036 0.10793 425.00 0.0023529 903.02 1086.6 2.7471 2.7181 3.2187 857.11 -0.0029218 69.036 0.10793
297.38 11361. undefined 905.74 1090.0 2.7519 425.00 0.0023529 905.74 1090.0 2.7519 2.7215 3.2211 858.20 -0.0029298 69.057 0.10810 425.00 0.0023529 905.74 1090.0 2.7519 2.7215 3.2211 858.20 -0.0029298 69.057 0.10810
298.38 11406. undefined 908.46 1093.5 2.7567 425.00 0.0023529 908.46 1093.5 2.7567 2.7249 3.2236 859.29 -0.0029377 69.078 0.10827 425.00 0.0023529 908.46 1093.5 2.7567 2.7249 3.2236 859.29 -0.0029377 69.078 0.10827
299.38 11451. undefined 911.19 1097.0 2.7614 425.00 0.0023529 911.19 1097.0 2.7614 2.7284 3.2260 860.38 -0.0029455 69.099 0.10843 425.00 0.0023529 911.19 1097.0 2.7614 2.7284 3.2260 860.38 -0.0029455 69.099 0.10843
300.38 11497. undefined 913.92 1100.4 2.7662 425.00 0.0023529 913.92 1100.4 2.7662 2.7318 3.2284 861.47 -0.0029533 69.119 0.10860 425.00 0.0023529 913.92 1100.4 2.7662 2.7318 3.2284 861.47 -0.0029533 69.119 0.10860