Temperature (C) Pressure (psia) Quality (l+v) Internal Energy (l+v, kJ/kg) Enthalpy (l+v, kJ/kg) Entropy (l+v, J/g*K) Density (l, kg/m3) Volume (l, m3/kg) Internal Energy (l, kJ/kg) Enthalpy (l, kJ/kg) Entropy (l, J/g*K) Cv (l, J/g*K) Cp (l, J/g*K) Sound Spd. (l, m/s) Joule-Thomson (l, F/psia) Viscosity (l, uPa*s) Therm. Cond. (l, W/m*K) Density (v, kg/m3) Volume (v, m3/kg) Internal Energy (v, kJ/kg) Enthalpy (v, kJ/kg) Entropy (v, J/g*K) Cv (v, J/g*K) Cp (v, J/g*K) Sound Spd. (v, m/s) Joule-Thomson (v, F/psia) Viscosity (v, uPa*s) Therm. Cond. (v, W/m*K)
-187.62 2.4953e-08 9.4223e-12 -196.64 -196.64 -1.3959 733.13 0.0013640 -196.64 -196.64 -1.3959 1.3553 1.9158 2136.4 -0.0077592 10960. 0.20792 1.0669e-08 9.3732e+07 350.13 366.26 5.1858 0.69067 0.87923 143.28 6.1051 2.3259 0.0017061
-186.62 3.7339e-08 1.3906e-11 -194.73 -194.73 -1.3736 732.08 0.0013660 -194.73 -194.73 -1.3736 1.3539 1.9166 2129.6 -0.0077546 10073. 0.20765 1.5780e-08 6.3371e+07 350.82 367.14 5.1200 0.69462 0.88317 144.03 5.9178 2.3534 0.0017533
-185.62 5.5322e-08 2.0322e-11 -192.81 -192.81 -1.3516 731.04 0.0013679 -192.81 -192.81 -1.3516 1.3525 1.9174 2122.9 -0.0077498 9276.1 0.20737 2.3112e-08 4.3267e+07 351.52 368.02 5.0561 0.69857 0.88713 144.77 5.7383 2.3808 0.0018007
-184.62 8.1182e-08 2.9420e-11 -190.89 -190.89 -1.3298 730.00 0.0013699 -190.89 -190.89 -1.3298 1.3513 1.9182 2116.1 -0.0077448 8557.8 0.20708 3.3533e-08 2.9821e+07 352.22 368.91 4.9939 0.70253 0.89108 145.51 5.5662 2.4083 0.0018485
-183.62 1.1803e-07 4.2202e-11 -188.97 -188.97 -1.3083 728.96 0.0013718 -188.97 -188.97 -1.3083 1.3501 1.9191 2109.3 -0.0077395 7909.8 0.20678 4.8211e-08 2.0742e+07 352.92 369.81 4.9333 0.70648 0.89504 146.24 5.4011 2.4357 0.0018965
-182.62 1.7009e-07 6.0007e-11 -187.05 -187.05 -1.2869 727.92 0.0013738 -187.05 -187.05 -1.2869 1.3490 1.9201 2102.5 -0.0077340 7324.3 0.20647 6.8704e-08 1.4555e+07 353.63 370.70 4.8744 0.71043 0.89899 146.97 5.2426 2.4632 0.0019448
-181.62 2.4299e-07 8.4600e-11 -185.13 -185.13 -1.2658 726.88 0.0013757 -185.13 -185.13 -1.2658 1.3480 1.9210 2095.7 -0.0077283 6794.5 0.20616 9.7079e-08 1.0301e+07 354.35 371.60 4.8170 0.71438 0.90294 147.69 5.0904 2.4906 0.0019934
-180.62 3.4425e-07 1.1829e-10 -183.21 -183.21 -1.2450 725.85 0.0013777 -183.21 -183.21 -1.2450 1.3470 1.9220 2088.9 -0.0077225 6314.4 0.20584 1.3605e-07 7.3504e+06 355.06 372.51 4.7612 0.71833 0.90688 148.41 4.9442 2.5181 0.0020423
-179.62 4.8378e-07 1.6409e-10 -181.29 -181.29 -1.2243 724.81 0.0013797 -181.29 -181.29 -1.2243 1.3461 1.9231 2082.0 -0.0077164 5878.8 0.20551 1.8915e-07 5.2868e+06 355.78 373.42 4.7068 0.72227 0.91082 149.13 4.8038 2.5456 0.0020915
-178.62 6.7459e-07 2.2588e-10 -179.37 -179.37 -1.2038 723.78 0.0013816 -179.37 -179.37 -1.2038 1.3453 1.9241 2075.2 -0.0077102 5482.9 0.20517 2.6096e-07 3.8320e+06 356.51 374.33 4.6538 0.72620 0.91475 149.84 4.6688 2.5731 0.0021410
-177.62 9.3358e-07 3.0862e-10 -177.44 -177.44 -1.1836 722.75 0.0013836 -177.44 -177.44 -1.1836 1.3445 1.9252 2068.4 -0.0077039 5122.6 0.20483 3.5737e-07 2.7982e+06 357.23 375.25 4.6022 0.73012 0.91867 150.54 4.5390 2.6005 0.0021907
-176.62 1.2826e-06 4.1864e-10 -175.52 -175.52 -1.1635 721.72 0.0013856 -175.52 -175.52 -1.1635 1.3437 1.9263 2061.5 -0.0076973 4794.1 0.20447 4.8588e-07 2.0581e+06 357.97 376.17 4.5519 0.73403 0.92258 151.25 4.4142 2.6280 0.0022408
-175.62 1.7496e-06 5.6393e-10 -173.59 -173.59 -1.1437 720.69 0.0013876 -173.59 -173.59 -1.1437 1.3430 1.9274 2054.7 -0.0076907 4494.3 0.20411 6.5601e-07 1.5244e+06 358.70 377.09 4.5029 0.73792 0.92648 151.95 4.2941 2.6555 0.0022912
-174.62 2.3705e-06 7.5453e-10 -171.66 -171.66 -1.1240 719.66 0.0013895 -171.66 -171.66 -1.1240 1.3423 1.9286 2047.9 -0.0076838 4220.2 0.20375 8.7976e-07 1.1367e+06 359.44 378.02 4.4551 0.74181 0.93036 152.64 4.1784 2.6830 0.0023418
-173.62 3.1903e-06 1.0030e-09 -169.73 -169.73 -1.1045 718.64 0.0013915 -169.73 -169.73 -1.1045 1.3417 1.9298 2041.0 -0.0076769 3969.3 0.20338 1.1721e-06 8.5314e+05 360.19 378.95 4.4085 0.74568 0.93423 153.33 4.0671 2.7105 0.0023928
-172.62 4.2661e-06 1.3247e-09 -167.80 -167.80 -1.0852 717.61 0.0013935 -167.80 -167.80 -1.0852 1.3411 1.9310 2034.2 -0.0076698 3739.3 0.20300 1.5518e-06 6.4441e+05 360.93 379.89 4.3631 0.74953 0.93809 154.02 3.9599 2.7379 0.0024440
-171.62 5.6692e-06 1.7390e-09 -165.87 -165.87 -1.0661 716.58 0.0013955 -165.87 -165.87 -1.0661 1.3405 1.9322 2027.3 -0.0076625 3528.0 0.20261 2.0419e-06 4.8974e+05 361.69 380.83 4.3188 0.75337 0.94193 154.71 3.8566 2.7654 0.0024955
-170.62 7.4884e-06 2.2693e-09 -163.94 -163.94 -1.0472 715.56 0.0013975 -163.94 -163.94 -1.0472 1.3400 1.9334 2020.5 -0.0076552 3333.8 0.20222 2.6708e-06 3.7442e+05 362.44 381.77 4.2755 0.75720 0.94575 155.39 3.7570 2.7929 0.0025473
-169.62 9.8334e-06 2.9442e-09 -162.00 -162.00 -1.0284 714.54 0.0013995 -162.00 -162.00 -1.0284 1.3395 1.9347 2013.6 -0.0076477 3154.9 0.20182 3.4733e-06 2.8791e+05 363.20 382.72 4.2334 0.76100 0.94956 156.07 3.6609 2.8204 0.0025994
-168.62 1.2839e-05 3.7985e-09 -160.07 -160.07 -1.0098 713.52 0.0014015 -160.07 -160.07 -1.0098 1.3390 1.9359 2006.8 -0.0076401 2989.9 0.20141 4.4917e-06 2.2263e+05 363.96 383.67 4.1922 0.76479 0.95335 156.74 3.5683 2.8479 0.0026518
-167.62 1.6672e-05 4.8740e-09 -158.13 -158.13 -0.99134 712.49 0.0014035 -158.13 -158.13 -0.99134 1.3386 1.9372 2000.0 -0.0076323 2837.5 0.20100 5.7771e-06 1.7310e+05 364.73 384.63 4.1521 0.76856 0.95712 157.41 3.4790 2.8754 0.0027045
-166.62 2.1533e-05 6.2210e-09 -156.19 -156.19 -0.97306 711.47 0.0014055 -156.19 -156.19 -0.97306 1.3382 1.9385 1993.1 -0.0076245 2696.5 0.20058 7.3914e-06 1.3529e+05 365.50 385.59 4.1129 0.77232 0.96087 158.08 3.3927 2.9029 0.0027575
-165.62 2.7666e-05 7.8997e-09 -154.25 -154.25 -0.95494 710.45 0.0014075 -154.25 -154.25 -0.95494 1.3378 1.9398 1986.3 -0.0076165 2566.0 0.20016 9.4084e-06 1.0629e+05 366.27 386.55 4.0746 0.77605 0.96460 158.75 3.3095 2.9304 0.0028108
-164.62 3.5367e-05 9.9814e-09 -152.31 -152.31 -0.93698 709.44 0.0014096 -152.31 -152.31 -0.93698 1.3375 1.9411 1979.4 -0.0076084 2444.9 0.19973 1.1916e-05 83918. 367.05 387.52 4.0372 0.77976 0.96832 159.41 3.2291 2.9579 0.0028643
-163.62 4.4989e-05 1.2551e-08 -150.37 -150.37 -0.91917 708.42 0.0014116 -150.37 -150.37 -0.91917 1.3371 1.9424 1972.6 -0.0076002 2332.3 0.19930 1.5020e-05 66577. 367.83 388.49 4.0008 0.78346 0.97201 160.07 3.1514 2.9854 0.0029182
-162.62 5.6956e-05 1.5707e-08 -148.43 -148.43 -0.90151 707.40 0.0014136 -148.43 -148.43 -0.90151 1.3368 1.9437 1965.8 -0.0075919 2227.7 0.19886 1.8844e-05 53068. 368.62 389.46 3.9651 0.78713 0.97569 160.72 3.0764 3.0129 0.0029723
-161.62 7.1773e-05 1.9568e-08 -146.48 -146.48 -0.88400 706.38 0.0014157 -146.48 -146.48 -0.88400 1.3365 1.9451 1959.0 -0.0075834 2130.2 0.19841 2.3533e-05 42494. 369.41 390.44 3.9304 0.79079 0.97935 161.38 3.0038 3.0404 0.0030268
-160.62 9.0036e-05 2.4270e-08 -144.54 -144.54 -0.86663 705.37 0.0014177 -144.54 -144.54 -0.86663 1.3363 1.9465 1952.1 -0.0075748 2039.2 0.19796 2.9258e-05 34178. 370.20 391.42 3.8964 0.79443 0.98298 162.03 2.9337 3.0679 0.0030815
-159.62 0.00011245 2.9971e-08 -142.59 -142.59 -0.84940 704.35 0.0014197 -142.59 -142.59 -0.84940 1.3360 1.9478 1945.3 -0.0075661 1954.2 0.19751 3.6221e-05 27609. 371.00 392.40 3.8632 0.79805 0.98660 162.68 2.8658 3.0955 0.0031365
-158.62 0.00013985 3.6856e-08 -140.64 -140.64 -0.83231 703.34 0.0014218 -140.64 -140.64 -0.83231 1.3358 1.9492 1938.5 -0.0075573 1874.8 0.19705 4.4652e-05 22395. 371.80 393.39 3.8307 0.80164 0.99020 163.32 2.8002 3.1230 0.0031918
-157.62 0.00017320 4.5137e-08 -138.69 -138.69 -0.81536 702.32 0.0014238 -138.69 -138.69 -0.81536 1.3356 1.9506 1931.7 -0.0075484 1800.3 0.19658 5.4822e-05 18241. 372.60 394.38 3.7990 0.80522 0.99378 163.96 2.7367 3.1505 0.0032474
-156.62 0.00021364 5.5060e-08 -136.74 -136.74 -0.79854 701.31 0.0014259 -136.74 -136.74 -0.79854 1.3354 1.9520 1924.9 -0.0075393 1730.5 0.19611 6.7040e-05 14916. 373.41 395.38 3.7680 0.80878 0.99734 164.60 2.6752 3.1780 0.0033033
-155.62 0.00026248 6.6903e-08 -134.79 -134.79 -0.78185 700.30 0.0014280 -134.79 -134.79 -0.78185 1.3352 1.9534 1918.1 -0.0075302 1664.9 0.19564 8.1666e-05 12245. 374.22 396.38 3.7377 0.81232 1.0009 165.24 2.6157 3.2055 0.0033595
-154.62 0.00032125 8.0988e-08 -132.83 -132.83 -0.76530 699.29 0.0014300 -132.83 -132.83 -0.76530 1.3350 1.9548 1911.3 -0.0075209 1603.3 0.19516 9.9109e-05 10090. 375.03 397.38 3.7081 0.81585 1.0044 165.87 2.5580 3.2330 0.0034160
-153.62 0.00039171 9.7678e-08 -130.88 -130.88 -0.74887 698.27 0.0014321 -130.88 -130.88 -0.74887 1.3349 1.9563 1904.5 -0.0075114 1545.3 0.19468 0.00011984 8344.6 375.85 398.39 3.6792 0.81935 1.0079 166.50 2.5022 3.2606 0.0034727
-152.62 0.00047590 1.1739e-07 -128.92 -128.92 -0.73256 697.26 0.0014342 -128.92 -128.92 -0.73256 1.3348 1.9577 1897.8 -0.0075019 1490.6 0.19419 0.00014439 6925.9 376.67 399.40 3.6509 0.82284 1.0114 167.13 2.4481 3.2881 0.0035298
-151.62 0.00057613 1.4058e-07 -126.96 -126.96 -0.71638 696.25 0.0014363 -126.96 -126.96 -0.71638 1.3346 1.9592 1891.0 -0.0074922 1438.9 0.19370 0.00017336 5768.4 377.49 400.41 3.6232 0.82631 1.0149 167.76 2.3957 3.3156 0.0035872
-150.62 0.00069507 1.6778e-07 -125.00 -125.00 -0.70032 695.24 0.0014384 -125.00 -125.00 -0.70032 1.3345 1.9606 1884.2 -0.0074824 1390.2 0.19320 0.00020744 4820.7 378.32 401.42 3.5962 0.82976 1.0183 168.38 2.3448 3.3431 0.0036448
-149.62 0.00083574 1.9959e-07 -123.04 -123.04 -0.68438 694.23 0.0014404 -123.04 -123.04 -0.68438 1.3345 1.9621 1877.4 -0.0074724 1344.0 0.19270 0.00024740 4042.0 379.15 402.44 3.5697 0.83319 1.0218 169.00 2.2956 3.3706 0.0037027
-148.62 0.0010016 2.3666e-07 -121.08 -121.08 -0.66855 693.22 0.0014425 -121.08 -121.08 -0.66855 1.3344 1.9636 1870.7 -0.0074623 1300.3 0.19220 0.00029412 3400.0 379.99 403.47 3.5438 0.83661 1.0252 169.62 2.2478 3.3982 0.0037610
-147.62 0.0011965 2.7973e-07 -119.11 -119.11 -0.65284 692.21 0.0014447 -119.11 -119.11 -0.65284 1.3343 1.9651 1863.9 -0.0074521 1258.9 0.19169 0.00034856 2869.0 380.83 404.49 3.5185 0.84001 1.0286 170.24 2.2014 3.4257 0.0038195
-146.62 0.0014249 3.2962e-07 -117.15 -117.15 -0.63724 691.20 0.0014468 -117.15 -117.15 -0.63724 1.3343 1.9666 1857.2 -0.0074417 1219.6 0.19117 0.00041181 2428.3 381.67 405.52 3.4938 0.84340 1.0320 170.85 2.1565 3.4532 0.0038783
-145.62 0.0016917 3.8726e-07 -115.18 -115.18 -0.62175 690.19 0.0014489 -115.18 -115.18 -0.62175 1.3343 1.9682 1850.4 -0.0074312 1182.3 0.19066 0.00048510 2061.4 382.51 406.56 3.4695 0.84677 1.0353 171.46 2.1128 3.4807 0.0039374
-144.62 0.0020026 4.5364e-07 -113.21 -113.21 -0.60637 689.18 0.0014510 -113.21 -113.21 -0.60637 1.3343 1.9697 1843.7 -0.0074206 1146.8 0.19014 0.00056976 1755.1 383.36 407.59 3.4458 0.85012 1.0387 172.07 2.0705 3.5082 0.0039967
-143.62 0.0023637 5.2988e-07 -111.24 -111.24 -0.59110 688.17 0.0014531 -111.24 -111.24 -0.59110 1.3343 1.9713 1836.9 -0.0074098 1113.0 0.18962 0.00066731 1498.6 384.21 408.63 3.4226 0.85346 1.0420 172.68 2.0294 3.5358 0.0040564
-142.62 0.0027820 6.1722e-07 -109.27 -109.27 -0.57593 687.16 0.0014553 -109.27 -109.27 -0.57593 1.3343 1.9728 1830.2 -0.0073988 1080.8 0.18909 0.00077939 1283.1 385.07 409.68 3.3999 0.85679 1.0454 173.28 1.9896 3.5633 0.0041164
-141.62 0.0032653 7.1699e-07 -107.30 -107.30 -0.56087 686.15 0.0014574 -107.30 -107.30 -0.56087 1.3343 1.9744 1823.5 -0.0073878 1050.1 0.18856 0.00090784 1101.5 385.93 410.72 3.3777 0.86011 1.0487 173.88 1.9508 3.5908 0.0041766
-140.62 0.0038222 8.3069e-07 -105.32 -105.32 -0.54590 685.14 0.0014596 -105.32 -105.32 -0.54591 1.3344 1.9760 1816.7 -0.0073765 1020.7 0.18803 0.0010547 948.16 386.79 411.77 3.3560 0.86341 1.0520 174.48 1.9133 3.6183 0.0042372
-139.62 0.0044623 9.5993e-07 -103.34 -103.34 -0.53104 684.13 0.0014617 -103.34 -103.34 -0.53105 1.3344 1.9776 1810.0 -0.0073651 992.74 0.18749 0.0012221 818.26 387.65 412.83 3.3347 0.86670 1.0553 175.08 1.8768 3.6459 0.0042980
-138.62 0.0051963 1.1065e-06 -101.37 -101.37 -0.51628 683.12 0.0014639 -101.37 -101.37 -0.51629 1.3345 1.9792 1803.3 -0.0073536 965.97 0.18695 0.0014125 707.94 388.52 413.88 3.3139 0.86998 1.0586 175.67 1.8413 3.6734 0.0043592
-137.62 0.0060358 1.2722e-06 -99.385 -99.385 -0.50162 682.11 0.0014660 -99.386 -99.386 -0.50162 1.3346 1.9808 1796.6 -0.0073419 940.35 0.18641 0.0016287 614.00 389.39 414.94 3.2935 0.87325 1.0619 176.26 1.8069 3.7009 0.0044206
-136.62 0.0069938 1.4593e-06 -97.404 -97.404 -0.48705 681.10 0.0014682 -97.404 -97.404 -0.48705 1.3347 1.9825 1789.9 -0.0073301 915.81 0.18586 0.0018733 533.80 390.26 416.00 3.2735 0.87650 1.0651 176.85 1.7734 3.7284 0.0044823
-135.62 0.0080843 1.6699e-06 -95.420 -95.420 -0.47257 680.09 0.0014704 -95.421 -95.421 -0.47258 1.3348 1.9841 1783.2 -0.0073180 892.30 0.18531 0.0021497 465.17 391.14 417.07 3.2540 0.87975 1.0684 177.44 1.7409 3.7559 0.0045443
-134.62 0.0093230 1.9065e-06 -93.435 -93.435 -0.45819 679.08 0.0014726 -93.436 -93.436 -0.45820 1.3350 1.9858 1776.5 -0.0073059 869.75 0.18476 0.0024613 406.30 392.02 418.14 3.2348 0.88299 1.0716 178.02 1.7093 3.7834 0.0046066
-133.62 0.010727 2.1717e-06 -91.448 -91.448 -0.44390 678.07 0.0014748 -91.450 -91.449 -0.44391 1.3351 1.9875 1769.8 -0.0072935 848.11 0.18421 0.0028116 355.67 392.91 419.21 3.2161 0.88622 1.0749 178.61 1.6786 3.8109 0.0046691
-132.62 0.012315 2.4684e-06 -89.460 -89.460 -0.42970 677.06 0.0014770 -89.461 -89.461 -0.42971 1.3353 1.9892 1763.1 -0.0072810 827.32 0.18365 0.0032049 312.03 393.79 420.29 3.1977 0.88944 1.0781 179.19 1.6488 3.8385 0.0047320
-131.62 0.014106 2.7996e-06 -87.470 -87.470 -0.41559 676.04 0.0014792 -87.471 -87.471 -0.41560 1.3354 1.9909 1756.4 -0.0072684 807.34 0.18309 0.0036453 274.33 394.68 421.36 3.1798 0.89266 1.0813 179.76 1.6197 3.8660 0.0047951
-130.62 0.016124 3.1685e-06 -85.478 -85.478 -0.40156 675.03 0.0014814 -85.479 -85.479 -0.40157 1.3356 1.9926 1749.7 -0.0072555 788.12 0.18253 0.0041375 241.69 395.58 422.44 3.1622 0.89586 1.0846 180.34 1.5915 3.8935 0.0048586
-129.62 0.018392 3.5786e-06 -83.484 -83.484 -0.38762 674.02 0.0014836 -83.486 -83.486 -0.38763 1.3358 1.9944 1743.0 -0.0072425 769.63 0.18196 0.0046867 213.37 396.47 423.53 3.1450 0.89906 1.0878 180.91 1.5641 3.9210 0.0049223
-128.62 0.020935 4.0336e-06 -81.489 -81.488 -0.37377 673.01 0.0014859 -81.491 -81.490 -0.37378 1.3360 1.9961 1736.3 -0.0072294 751.83 0.18140 0.0052981 188.75 397.37 424.62 3.1281 0.90226 1.0910 181.48 1.5374 3.9485 0.0049863
-127.62 0.023783 4.5375e-06 -79.491 -79.491 -0.36000 672.00 0.0014881 -79.494 -79.493 -0.36001 1.3363 1.9979 1729.6 -0.0072160 734.67 0.18083 0.0059776 167.29 398.27 425.71 3.1116 0.90545 1.0942 182.05 1.5114 3.9760 0.0050506
-126.62 0.026966 5.0946e-06 -77.492 -77.492 -0.34631 670.98 0.0014904 -77.495 -77.495 -0.34632 1.3365 1.9997 1722.9 -0.0072025 718.14 0.18025 0.0067313 148.56 399.18 426.80 3.0954 0.90863 1.0974 182.62 1.4861 4.0035 0.0051152
-125.62 0.030515 5.7092e-06 -75.492 -75.491 -0.33270 669.97 0.0014926 -75.494 -75.494 -0.33272 1.3368 2.0015 1716.2 -0.0071888 702.18 0.17968 0.0075660 132.17 400.09 427.89 3.0795 0.91181 1.1006 183.18 1.4615 4.0310 0.0051800
-124.62 0.034467 6.3862e-06 -73.489 -73.488 -0.31917 668.95 0.0014949 -73.492 -73.492 -0.31919 1.3371 2.0033 1709.5 -0.0071749 686.79 0.17910 0.0084885 117.81 401.00 428.99 3.0640 0.91499 1.1038 183.74 1.4375 4.0584 0.0052452
-123.62 0.038859 7.1304e-06 -71.484 -71.484 -0.30572 667.94 0.0014971 -71.488 -71.487 -0.30574 1.3374 2.0051 1702.8 -0.0071609 671.93 0.17852 0.0095065 105.19 401.91 430.10 3.0488 0.91816 1.1070 184.30 1.4141 4.0859 0.0053106
-122.62 0.043731 7.9473e-06 -69.478 -69.477 -0.29234 666.92 0.0014994 -69.482 -69.481 -0.29237 1.3377 2.0070 1696.2 -0.0071466 657.57 0.17794 0.010628 94.092 402.83 431.20 3.0339 0.92134 1.1102 184.86 1.3913 4.1134 0.0053764
-121.62 0.049128 8.8425e-06 -67.470 -67.469 -0.27904 665.91 0.0015017 -67.474 -67.473 -0.27907 1.3380 2.0089 1689.5 -0.0071322 643.70 0.17736 0.011861 84.309 403.75 432.31 3.0193 0.92451 1.1134 185.41 1.3691 4.1409 0.0054424
-120.62 0.055096 9.8217e-06 -65.459 -65.458 -0.26582 664.89 0.0015040 -65.464 -65.463 -0.26585 1.3384 2.0107 1682.8 -0.0071176 630.28 0.17678 0.013215 75.669 404.67 433.42 3.0050 0.92767 1.1166 185.96 1.3475 4.1683 0.0055087
-119.62 0.061684 1.0891e-05 -63.447 -63.446 -0.25267 663.87 0.0015063 -63.452 -63.452 -0.25271 1.3387 2.0126 1676.1 -0.0071028 617.30 0.17619 0.014700 68.027 405.60 434.53 2.9909 0.93084 1.1198 186.51 1.3264 4.1958 0.0055752
-118.62 0.068946 1.2058e-05 -61.433 -61.432 -0.23959 662.86 0.0015086 -61.439 -61.438 -0.23963 1.3391 2.0146 1669.4 -0.0070878 604.74 0.17560 0.016325 61.255 406.53 435.64 2.9772 0.93401 1.1231 187.06 1.3058 4.2233 0.0056421
-117.62 0.076937 1.3327e-05 -59.417 -59.416 -0.22659 661.84 0.0015109 -59.423 -59.422 -0.22663 1.3395 2.0165 1662.8 -0.0070726 592.58 0.17501 0.018101 55.245 407.46 436.76 2.9638 0.93718 1.1263 187.60 1.2857 4.2507 0.0057092
-116.62 0.085718 1.4708e-05 -57.399 -57.398 -0.21366 660.82 0.0015133 -57.406 -57.405 -0.21370 1.3400 2.0184 1656.1 -0.0070573 580.80 0.17442 0.020040 49.901 408.39 437.88 2.9506 0.94035 1.1295 188.14 1.2660 4.2782 0.0057767
-115.62 0.095353 1.6207e-05 -55.379 -55.377 -0.20079 659.80 0.0015156 -55.386 -55.385 -0.20084 1.3404 2.0204 1649.4 -0.0070417 569.38 0.17383 0.022152 45.142 409.33 439.01 2.9377 0.94352 1.1327 188.68 1.2468 4.3056 0.0058444
-114.62 0.10591 1.7831e-05 -53.357 -53.355 -0.18799 658.78 0.0015180 -53.365 -53.364 -0.18805 1.3409 2.0224 1642.7 -0.0070260 558.32 0.17323 0.024451 40.898 410.27 440.13 2.9250 0.94669 1.1360 189.22 1.2281 4.3330 0.0059123
-113.62 0.11746 1.9590e-05 -51.332 -51.331 -0.17527 657.76 0.0015203 -51.342 -51.340 -0.17533 1.3413 2.0244 1636.0 -0.0070100 547.59 0.17264 0.026949 37.107 411.21 441.26 2.9126 0.94987 1.1392 189.75 1.2097 4.3604 0.0059806
-112.62 0.13008 2.1490e-05 -49.306 -49.304 -0.16260 656.73 0.0015227 -49.316 -49.315 -0.16267 1.3418 2.0264 1629.3 -0.0069938 537.18 0.17204 0.029661 33.715 412.16 442.39 2.9005 0.95305 1.1424 190.28 1.1918 4.3879 0.0060491
-111.62 0.14384 2.3542e-05 -47.278 -47.276 -0.15001 655.71 0.0015251 -47.289 -47.287 -0.15008 1.3424 2.0285 1622.7 -0.0069774 527.08 0.17144 0.032600 30.675 413.10 443.53 2.8885 0.95623 1.1457 190.81 1.1742 4.4153 0.0061180
-110.62 0.15884 2.5754e-05 -45.247 -45.245 -0.13748 654.69 0.0015274 -45.259 -45.258 -0.13755 1.3429 2.0305 1616.0 -0.0069609 517.28 0.17084 0.035781 27.948 414.06 444.66 2.8769 0.95942 1.1490 191.34 1.1570 4.4427 0.0061871
-109.62 0.17516 2.8136e-05 -43.215 -43.212 -0.12501 653.66 0.0015298 -43.228 -43.226 -0.12509 1.3435 2.0326 1609.3 -0.0069441 507.76 0.17024 0.039220 25.497 415.01 445.80 2.8654 0.96261 1.1522 191.86 1.1402 4.4701 0.0062564
-108.62 0.19290 3.0696e-05 -41.180 -41.177 -0.11260 652.64 0.0015322 -41.194 -41.192 -0.11269 1.3441 2.0347 1602.6 -0.0069271 498.51 0.16964 0.042933 23.292 415.96 446.94 2.8542 0.96581 1.1555 192.38 1.1236 4.4974 0.0063261
-107.62 0.21215 3.3446e-05 -39.143 -39.140 -0.10026 651.61 0.0015347 -39.158 -39.156 -0.10036 1.3447 2.0369 1595.9 -0.0069098 489.52 0.16903 0.046937 21.305 416.92 448.09 2.8433 0.96901 1.1588 192.90 1.1075 4.5248 0.0063960
-106.62 0.23301 3.6396e-05 -37.104 -37.100 -0.087976 650.58 0.0015371 -37.120 -37.118 -0.088082 1.3453 2.0390 1589.2 -0.0068924 480.79 0.16843 0.051250 19.512 417.88 449.23 2.8325 0.97222 1.1621 193.41 1.0916 4.5522 0.0064662
-105.62 0.25561 3.9556e-05 -35.063 -35.059 -0.075754 649.55 0.0015395 -35.080 -35.078 -0.075868 1.3460 2.0412 1582.6 -0.0068747 472.30 0.16782 0.055891 17.892 418.85 450.38 2.8220 0.97544 1.1655 193.93 1.0760 4.5795 0.0065367
-104.62 0.28004 4.2936e-05 -33.019 -33.014 -0.063591 648.52 0.0015420 -33.038 -33.035 -0.063714 1.3467 2.0434 1575.9 -0.0068569 464.04 0.16721 0.060878 16.426 419.81 451.53 2.8116 0.97867 1.1688 194.44 1.0608 4.6069 0.0066074
-103.62 0.30643 4.6550e-05 -30.973 -30.968 -0.051486 647.49 0.0015444 -30.994 -30.991 -0.051619 1.3474 2.0456 1569.2 -0.0068387 456.00 0.16660 0.066231 15.099 420.78 452.68 2.8015 0.98191 1.1722 194.94 1.0458 4.6342 0.0066785
-102.62 0.33490 5.0407e-05 -28.925 -28.919 -0.039439 646.46 0.0015469 -28.947 -28.944 -0.039582 1.3481 2.0478 1562.5 -0.0068204 448.18 0.16600 0.071971 13.894 421.75 453.84 2.7916 0.98516 1.1755 195.44 1.0310 4.6615 0.0067498
-101.62 0.36558 5.4521e-05 -26.874 -26.868 -0.027448 645.43 0.0015494 -26.898 -26.894 -0.027602 1.3489 2.0501 1555.8 -0.0068018 440.57 0.16539 0.078120 12.801 422.73 454.99 2.7818 0.98841 1.1789 195.95 1.0166 4.6888 0.0068213
-100.62 0.39862 5.8902e-05 -24.821 -24.815 -0.015514 644.39 0.0015519 -24.847 -24.843 -0.015678 1.3497 2.0524 1549.1 -0.0067830 433.16 0.16478 0.084699 11.807 423.70 456.15 2.7723 0.99168 1.1823 196.44 1.0024 4.7161 0.0068932
-99.625 0.43414 6.3564e-05 -22.765 -22.759 -0.0036344 643.36 0.0015544 -22.794 -22.789 -0.0038103 1.3505 2.0547 1542.4 -0.0067639 425.95 0.16416 0.091731 10.901 424.68 457.31 2.7630 0.99496 1.1858 196.94 0.98838 4.7434 0.0069653
-98.625 0.47230 6.8519e-05 -20.707 -20.700 0.0081909 642.32 0.0015569 -20.738 -20.733 0.0080027 1.3514 2.0570 1535.7 -0.0067447 418.92 0.16355 0.099240 10.077 425.66 458.48 2.7538 0.99825 1.1892 197.43 0.97464 4.7707 0.0070377
-97.625 0.51325 7.3781e-05 -18.647 -18.639 0.019963 641.28 0.0015594 -18.680 -18.674 0.019762 1.3522 2.0594 1529.0 -0.0067251 412.07 0.16294 0.10725 9.3239 426.65 459.64 2.7448 1.0016 1.1927 197.92 0.96112 4.7979 0.0071103
-96.625 0.55714 7.9361e-05 -16.584 -16.576 0.031682 640.24 0.0015619 -16.620 -16.614 0.031467 1.3531 2.0618 1522.3 -0.0067053 405.39 0.16233 0.11579 8.6365 427.63 460.81 2.7360 1.0049 1.1962 198.40 0.94783 4.8251 0.0071832
-95.625 0.60416 8.5275e-05 -14.519 -14.510 0.043349 639.20 0.0015645 -14.557 -14.550 0.043120 1.3540 2.0642 1515.7 -0.0066853 398.88 0.16171 0.12488 8.0078 428.62 461.98 2.7274 1.0082 1.1997 198.88 0.93475 4.8524 0.0072564
-94.625 0.65446 9.1536e-05 -12.451 -12.441 0.054965 638.16 0.0015670 -12.491 -12.484 0.054721 1.3550 2.0667 1509.0 -0.0066650 392.53 0.16110 0.13455 7.4323 429.61 463.15 2.7189 1.0116 1.2032 199.36 0.92188 4.8796 0.0073299
-93.625 0.70822 9.8157e-05 -10.380 -10.369 0.066531 637.12 0.0015696 -10.424 -10.416 0.066271 1.3560 2.0691 1502.3 -0.0066444 386.34 0.16048 0.14482 6.9050 430.60 464.32 2.7107 1.0149 1.2068 199.83 0.90921 4.9068 0.0074036
-92.625 0.76564 0.00010515 -8.3073 -8.2954 0.078047 636.07 0.0015722 -8.3535 -8.3452 0.077771 1.3570 2.0716 1495.6 -0.0066236 380.31 0.15987 0.15573 6.4212 431.60 465.49 2.7025 1.0183 1.2104 200.30 0.89673 4.9340 0.0074776
-91.625 0.82689 0.00011254 -6.2315 -6.2186 0.089513 635.02 0.0015747 -6.2808 -6.2719 0.089220 1.3580 2.0742 1488.9 -0.0066025 374.41 0.15925 0.16731 5.9769 432.59 466.67 2.6946 1.0217 1.2140 200.77 0.88445 4.9611 0.0075518
-90.625 0.89218 0.00012033 -4.1530 -4.1391 0.10093 633.98 0.0015773 -4.2056 -4.1959 0.10062 1.3591 2.0767 1482.2 -0.0065811 368.66 0.15864 0.17958 5.5685 433.59 467.84 2.6868 1.0251 1.2177 201.24 0.87236 4.9883 0.0076263
-89.625 0.96172 0.00012853 -2.0717 -2.0568 0.11230 632.93 0.0015800 -2.1279 -2.1174 0.11197 1.3602 2.0793 1475.5 -0.0065595 363.05 0.15802 0.19258 5.1928 434.59 469.02 2.6791 1.0285 1.2213 201.70 0.86045 5.0154 0.0077011
-88.625 1.0357 0.00013717 0.012241 0.028288 0.12363 631.88 0.0015826 -0.047516 -0.036215 0.12328 1.3613 2.0819 1468.8 -0.0065375 357.56 0.15740 0.20633 4.8466 435.59 470.20 2.6717 1.0320 1.2250 202.15 0.84873 5.0425 0.0077761
-87.625 1.1144 0.00014626 2.0990 2.1163 0.13491 630.83 0.0015852 2.0355 2.0476 0.13454 1.3625 2.0846 1462.1 -0.0065153 352.21 0.15679 0.22087 4.5276 436.60 471.39 2.6643 1.0354 1.2288 202.61 0.83718 5.0696 0.0078514
-86.625 1.1979 0.00015581 4.1886 4.2072 0.14614 629.77 0.0015879 4.1211 4.1342 0.14575 1.3637 2.0873 1455.4 -0.0064928 346.98 0.15617 0.23623 4.2331 437.61 472.57 2.6571 1.0389 1.2325 203.06 0.82580 5.0967 0.0079270
-85.625 1.2866 0.00016584 6.2811 6.3010 0.15733 628.72 0.0015905 6.2094 6.2235 0.15691 1.3649 2.0900 1448.8 -0.0064701 341.87 0.15555 0.25245 3.9612 438.61 473.75 2.6501 1.0424 1.2363 203.50 0.81460 5.1237 0.0080028
-84.625 1.3806 0.00017636 8.3764 8.3978 0.16847 627.66 0.0015932 8.3004 8.3155 0.16803 1.3661 2.0927 1442.1 -0.0064470 336.87 0.15494 0.26956 3.7097 439.63 474.94 2.6432 1.0460 1.2402 203.95 0.80356 5.1508 0.0080789
-83.625 1.4803 0.00018739 10.475 10.498 0.17957 626.60 0.0015959 10.394 10.410 0.17911 1.3674 2.0955 1435.4 -0.0064236 331.99 0.15432 0.28760 3.4771 440.64 476.13 2.6364 1.0495 1.2440 204.38 0.79269 5.1778 0.0081553
-82.625 1.5858 0.00019895 12.576 12.601 0.19063 625.54 0.0015986 12.491 12.508 0.19014 1.3687 2.0983 1428.7 -0.0063999 327.22 0.15370 0.30659 3.2616 441.65 477.31 2.6298 1.0531 1.2479 204.82 0.78199 5.2048 0.0082319
-81.625 1.6975 0.00021105 14.680 14.707 0.20165 624.48 0.0016013 14.590 14.609 0.20113 1.3700 2.1012 1422.0 -0.0063759 322.55 0.15309 0.32659 3.0619 442.67 478.50 2.6233 1.0567 1.2519 205.25 0.77144 5.2318 0.0083088
-80.625 1.8155 0.00022370 16.788 16.816 0.21262 623.42 0.0016041 16.692 16.712 0.21208 1.3714 2.1041 1415.4 -0.0063516 317.99 0.15247 0.34763 2.8766 443.69 479.70 2.6169 1.0603 1.2558 205.67 0.76106 5.2587 0.0083860
-79.625 1.9402 0.00023692 18.898 18.928 0.22355 622.36 0.0016068 18.797 18.819 0.22299 1.3728 2.1070 1408.7 -0.0063270 313.52 0.15186 0.36974 2.7046 444.71 480.89 2.6106 1.0639 1.2598 206.10 0.75083 5.2857 0.0084634
-78.625 2.0718 0.00025073 21.012 21.044 0.23445 621.29 0.0016096 20.905 20.928 0.23385 1.3742 2.1099 1402.0 -0.0063021 309.15 0.15124 0.39296 2.5448 445.73 482.08 2.6045 1.0676 1.2639 206.51 0.74076 5.3126 0.0085411
-77.625 2.2107 0.00026514 23.128 23.162 0.24530 620.22 0.0016123 23.016 23.040 0.24468 1.3757 2.1129 1395.3 -0.0062768 304.88 0.15062 0.41735 2.3961 446.75 483.27 2.5985 1.0712 1.2680 206.93 0.73084 5.3395 0.0086190
-76.625 2.3571 0.00028016 25.248 25.285 0.25611 619.15 0.0016151 25.130 25.156 0.25546 1.3772 2.1159 1388.7 -0.0062512 300.69 0.15001 0.44292 2.2577 447.78 484.47 2.5926 1.0749 1.2721 207.34 0.72107 5.3664 0.0086972
-75.625 2.5113 0.00029582 27.371 27.410 0.26689 618.08 0.0016179 27.247 27.275 0.26620 1.3787 2.1190 1382.0 -0.0062253 296.59 0.14939 0.46974 2.1288 448.81 485.67 2.5869 1.0787 1.2762 207.74 0.71146 5.3933 0.0087757
-74.625 2.6736 0.00031213 29.498 29.539 0.27763 617.01 0.0016207 29.366 29.396 0.27691 1.3802 2.1221 1375.4 -0.0061990 292.58 0.14878 0.49783 2.0087 449.83 486.86 2.5812 1.0824 1.2804 208.14 0.70200 5.4201 0.0088544
-73.625 2.8444 0.00032910 31.627 31.671 0.28833 615.93 0.0016236 31.489 31.521 0.28758 1.3818 2.1252 1368.7 -0.0061724 288.65 0.14816 0.52725 1.8966 450.86 488.06 2.5757 1.0862 1.2847 208.54 0.69268 5.4469 0.0089334
-72.625 3.0240 0.00034674 33.760 33.807 0.29899 614.85 0.0016264 33.615 33.649 0.29821 1.3834 2.1284 1362.0 -0.0061454 284.81 0.14755 0.55804 1.7920 451.90 489.26 2.5703 1.0900 1.2889 208.93 0.68351 5.4737 0.0090126
-71.625 3.2127 0.00036508 35.897 35.947 0.30962 613.78 0.0016293 35.745 35.781 0.30880 1.3851 2.1316 1355.4 -0.0061181 281.03 0.14694 0.59024 1.6942 452.93 490.46 2.5650 1.0938 1.2932 209.32 0.67448 5.5005 0.0090922
-70.625 3.4108 0.00038412 38.037 38.090 0.32021 612.69 0.0016321 37.877 37.915 0.31935 1.3867 2.1349 1348.7 -0.0060904 277.34 0.14632 0.62390 1.6028 453.96 491.66 2.5598 1.0976 1.2976 209.70 0.66560 5.5273 0.0091720
-69.625 3.6187 0.00040389 40.180 40.236 0.33077 611.61 0.0016350 40.013 40.053 0.32987 1.3884 2.1382 1342.1 -0.0060624 273.72 0.14571 0.65906 1.5173 455.00 492.86 2.5547 1.1015 1.3020 210.08 0.65687 5.5540 0.0092520
-68.625 3.8367 0.00042439 42.327 42.387 0.34129 610.53 0.0016379 42.152 42.195 0.34036 1.3902 2.1415 1335.5 -0.0060339 270.17 0.14510 0.69577 1.4372 456.04 494.06 2.5497 1.1054 1.3064 210.45 0.64827 5.5807 0.0093324
-67.625 4.0652 0.00044564 44.478 44.541 0.35178 609.44 0.0016409 44.294 44.340 0.35080 1.3919 2.1449 1328.8 -0.0060051 266.69 0.14449 0.73408 1.3622 457.08 495.26 2.5448 1.1093 1.3109 210.82 0.63981 5.6074 0.0094130
-66.625 4.3046 0.00046765 46.632 46.698 0.36224 608.35 0.0016438 46.439 46.488 0.36122 1.3937 2.1483 1322.2 -0.0059760 263.28 0.14388 0.77404 1.2919 458.12 496.46 2.5400 1.1133 1.3154 211.18 0.63150 5.6341 0.0094939
-65.625 4.5551 0.00049044 48.789 48.860 0.37266 607.26 0.0016467 48.588 48.640 0.37160 1.3955 2.1518 1315.6 -0.0059464 259.93 0.14327 0.81570 1.2259 459.16 497.67 2.5353 1.1172 1.3200 211.54 0.62332 5.6608 0.0095750
-64.625 4.8173 0.00051402 50.951 51.026 0.38305 606.16 0.0016497 50.740 50.795 0.38195 1.3974 2.1553 1308.9 -0.0059164 256.65 0.14266 0.85910 1.1640 460.21 498.87 2.5307 1.1212 1.3246 211.89 0.61527 5.6874 0.0096564
-63.625 5.0915 0.00053839 53.116 53.195 0.39341 605.07 0.0016527 52.896 52.954 0.39226 1.3993 2.1588 1302.3 -0.0058861 253.42 0.14205 0.90429 1.1058 461.25 500.07 2.5262 1.1252 1.3293 212.24 0.60736 5.7140 0.0097382
-62.625 5.3781 0.00056359 55.285 55.368 0.40374 603.97 0.0016557 55.055 55.117 0.40254 1.4012 2.1624 1295.7 -0.0058553 250.26 0.14144 0.95134 1.0511 462.30 501.28 2.5218 1.1293 1.3340 212.58 0.59958 5.7406 0.0098201
-61.625 5.6774 0.00058960 57.458 57.546 0.41403 602.87 0.0016587 57.218 57.283 0.41279 1.4031 2.1660 1289.1 -0.0058241 247.16 0.14084 1.0003 0.99972 463.35 502.48 2.5175 1.1333 1.3387 212.92 0.59194 5.7672 0.0099024
-60.625 5.9899 0.00061646 59.634 59.727 0.42430 601.77 0.0016618 59.385 59.453 0.42301 1.4051 2.1697 1282.5 -0.0057925 244.12 0.14023 1.0512 0.95131 464.40 503.68 2.5133 1.1374 1.3435 213.26 0.58442 5.7938 0.0099850
-59.625 6.3160 0.00064416 61.815 61.913 0.43453 600.66 0.0016648 61.554 61.627 0.43320 1.4071 2.1734 1275.9 -0.0057605 241.13 0.13962 1.1041 0.90573 465.45 504.89 2.5091 1.1415 1.3483 213.58 0.57704 5.8203 0.010068
-58.625 6.6561 0.00067272 63.999 64.102 0.44474 599.55 0.0016679 63.728 63.805 0.44335 1.4091 2.1772 1269.3 -0.0057280 238.19 0.13902 1.1591 0.86277 466.50 506.09 2.5051 1.1457 1.3532 213.90 0.56978 5.8468 0.010151
-57.625 7.0107 0.00070215 66.187 66.296 0.45492 598.44 0.0016710 65.905 65.986 0.45348 1.4111 2.1810 1262.7 -0.0056951 235.31 0.13842 1.2161 0.82228 467.55 507.30 2.5011 1.1498 1.3581 214.22 0.56265 5.8733 0.010234
-56.625 7.3801 0.00073246 68.380 68.494 0.46507 597.33 0.0016741 68.086 68.172 0.46358 1.4132 2.1848 1256.1 -0.0056617 232.48 0.13781 1.2754 0.78408 468.60 508.50 2.4972 1.1540 1.3631 214.53 0.55564 5.8998 0.010318
-55.625 7.7648 0.00076366 70.576 70.697 0.47519 596.22 0.0016772 70.271 70.361 0.47364 1.4153 2.1887 1249.5 -0.0056279 229.69 0.13721 1.3369 0.74802 469.66 509.71 2.4934 1.1582 1.3681 214.84 0.54875 5.9263 0.010402
-54.625 8.1652 0.00079575 72.777 72.903 0.48528 595.10 0.0016804 72.460 72.554 0.48368 1.4174 2.1927 1242.9 -0.0055937 226.96 0.13661 1.4006 0.71396 470.72 510.91 2.4897 1.1624 1.3731 215.14 0.54199 5.9527 0.010486
-53.625 8.5819 0.00082875 74.981 75.114 0.49535 593.98 0.0016836 74.652 74.752 0.49369 1.4196 2.1967 1236.3 -0.0055589 224.27 0.13601 1.4667 0.68178 471.77 512.11 2.4860 1.1667 1.3782 215.43 0.53535 5.9792 0.010571
-52.625 9.0151 0.00086266 77.190 77.330 0.50538 592.86 0.0016867 76.849 76.954 0.50368 1.4218 2.2007 1229.8 -0.0055237 221.63 0.13541 1.5353 0.65136 472.83 513.32 2.4824 1.1710 1.3834 215.72 0.52882 6.0056 0.010656
-51.625 9.4655 0.00089748 79.403 79.550 0.51540 591.73 0.0016900 79.049 79.159 0.51363 1.4240 2.2048 1223.2 -0.0054880 219.04 0.13482 1.6062 0.62258 473.89 514.52 2.4789 1.1752 1.3886 216.00 0.52241 6.0320 0.010741
-50.625 9.9335 0.00093323 81.621 81.775 0.52538 590.60 0.0016932 81.253 81.369 0.52356 1.4262 2.2089 1216.6 -0.0054519 216.48 0.13422 1.6797 0.59534 474.95 515.73 2.4755 1.1796 1.3938 216.28 0.51612 6.0584 0.010827
-49.625 10.419 0.00096991 83.842 84.004 0.53535 589.47 0.0016964 83.462 83.584 0.53347 1.4285 2.2131 1210.1 -0.0054152 213.98 0.13363 1.7558 0.56954 476.01 516.93 2.4722 1.1839 1.3991 216.55 0.50994 6.0848 0.010913
-48.625 10.924 0.0010075 86.068 86.238 0.54528 588.34 0.0016997 85.674 85.802 0.54334 1.4308 2.2173 1203.5 -0.0053780 211.51 0.13303 1.8345 0.54510 477.07 518.13 2.4689 1.1883 1.4044 216.82 0.50387 6.1112 0.010999
-47.625 11.448 0.0010461 88.299 88.476 0.55519 587.20 0.0017030 87.891 88.025 0.55319 1.4331 2.2216 1196.9 -0.0053403 209.08 0.13244 1.9159 0.52194 478.14 519.33 2.4657 1.1927 1.4098 217.08 0.49792 6.1375 0.011085
-46.625 11.991 0.0010856 90.534 90.719 0.56508 586.06 0.0017063 90.111 90.252 0.56302 1.4354 2.2259 1190.4 -0.0053020 206.69 0.13185 2.0001 0.49997 479.20 520.53 2.4625 1.1971 1.4153 217.33 0.49207 6.1639 0.011172
-45.625 12.554 0.0011260 92.773 92.967 0.57495 584.92 0.0017096 92.336 92.484 0.57282 1.4378 2.2303 1183.8 -0.0052633 204.34 0.13126 2.0872 0.47912 480.27 521.74 2.4594 1.2015 1.4207 217.58 0.48633 6.1902 0.011259
-44.625 13.137 0.0011674 95.017 95.220 0.58479 583.77 0.0017130 94.565 94.720 0.58260 1.4402 2.2347 1177.3 -0.0052240 202.03 0.13067 2.1771 0.45933 481.33 522.94 2.4564 1.2060 1.4263 217.82 0.48069 6.2165 0.011347
-43.625 13.741 0.0012097 97.265 97.478 0.59460 582.62 0.0017164 96.799 96.961 0.59235 1.4426 2.2392 1170.7 -0.0051841 199.75 0.13008 2.2700 0.44053 482.40 524.14 2.4535 1.2104 1.4319 218.05 0.47516 6.2429 0.011435
-42.625 14.367 0.0012529 99.518 99.741 0.60440 581.47 0.0017198 99.036 99.207 0.60208 1.4450 2.2437 1164.2 -0.0051437 197.51 0.12949 2.3659 0.42267 483.46 525.33 2.4506 1.2149 1.4375 218.28 0.46973 6.2692 0.011523
-41.625 15.015 0.0012971 101.78 102.01 0.61417 580.32 0.0017232 101.28 101.46 0.61179 1.4475 2.2483 1157.7 -0.0051027 195.30 0.12891 2.4649 0.40569 484.53 526.53 2.4478 1.2195 1.4432 218.50 0.46440 6.2955 0.011612
-40.625 15.686 0.0013423 104.04 104.28 0.62392 579.16 0.0017266 103.52 103.71 0.62147 1.4500 2.2529 1151.1 -0.0050611 193.13 0.12832 2.5671 0.38954 485.60 527.73 2.4450 1.2240 1.4489 218.72 0.45917 6.3218 0.011701
-39.625 16.380 0.0013883 106.30 106.56 0.63365 578.00 0.0017301 105.78 105.97 0.63113 1.4525 2.2576 1144.6 -0.0050189 190.99 0.12774 2.6725 0.37418 486.67 528.93 2.4423 1.2286 1.4547 218.93 0.45403 6.3481 0.011790
-38.625 17.097 0.0014353 108.58 108.84 0.64335 576.83 0.0017336 108.03 108.24 0.64077 1.4550 2.2623 1138.0 -0.0049761 188.88 0.12716 2.7813 0.35955 487.74 530.12 2.4397 1.2332 1.4606 219.13 0.44900 6.3744 0.011880
-37.625 17.838 0.0014833 110.85 111.13 0.65304 575.66 0.0017371 110.29 110.51 0.65039 1.4576 2.2671 1131.5 -0.0049327 186.81 0.12658 2.8934 0.34562 488.81 531.32 2.4371 1.2378 1.4665 219.33 0.44405 6.4007 0.011970
-36.625 18.604 0.0015321 113.13 113.42 0.66271 574.49 0.0017407 112.56 112.78 0.65999 1.4602 2.2719 1125.0 -0.0048887 184.76 0.12600 3.0089 0.33235 489.88 532.51 2.4346 1.2424 1.4724 219.52 0.43920 6.4270 0.012060
-35.625 19.395 0.0015819 115.42 115.72 0.67235 573.32 0.0017442 114.83 115.06 0.66956 1.4628 2.2768 1118.5 -0.0048440 182.75 0.12542 3.1280 0.31969 490.95 533.70 2.4321 1.2471 1.4784 219.70 0.43444 6.4533 0.012151
-34.625 20.212 0.0016325 117.71 118.02 0.68198 572.14 0.0017478 117.10 117.34 0.67912 1.4654 2.2818 1111.9 -0.0047987 180.76 0.12485 3.2506 0.30763 492.02 534.89 2.4297 1.2517 1.4845 219.88 0.42977 6.4797 0.012243
-33.625 21.056 0.0016841 120.01 120.33 0.69158 570.96 0.0017514 119.38 119.63 0.68865 1.4681 2.2868 1105.4 -0.0047527 178.80 0.12427 3.3770 0.29612 493.09 536.08 2.4273 1.2564 1.4906 220.05 0.42519 6.5060 0.012334
-32.625 21.926 0.0017365 122.31 122.65 0.70117 569.77 0.0017551 121.66 121.93 0.69817 1.4708 2.2918 1098.9 -0.0047061 176.87 0.12370 3.5071 0.28514 494.17 537.27 2.4250 1.2611 1.4968 220.21 0.42070 6.5323 0.012426
-31.625 22.823 0.0017898 124.61 124.97 0.71074 568.58 0.0017588 123.95 124.23 0.70767 1.4735 2.2970 1092.3 -0.0046587 174.97 0.12313 3.6410 0.27465 495.24 538.46 2.4227 1.2659 1.5031 220.36 0.41629 6.5587 0.012519
-30.625 23.749 0.0018439 126.93 127.29 0.72028 567.39 0.0017625 126.24 126.53 0.71714 1.4762 2.3021 1085.8 -0.0046107 173.09 0.12256 3.7787 0.26464 496.31 539.64 2.4205 1.2706 1.5094 220.51 0.41196 6.5850 0.012612
-29.625 24.703 0.0018989 129.24 129.62 0.72981 566.19 0.0017662 128.54 128.84 0.72660 1.4790 2.3074 1079.3 -0.0045619 171.24 0.12200 3.9205 0.25507 497.38 540.83 2.4184 1.2754 1.5157 220.65 0.40772 6.6114 0.012706
-28.625 25.687 0.0019547 131.56 131.96 0.73933 564.99 0.0017699 130.84 131.16 0.73604 1.4818 2.3126 1072.8 -0.0045124 169.42 0.12143 4.0663 0.24592 498.46 542.01 2.4162 1.2802 1.5222 220.79 0.40356 6.6378 0.012800
-27.625 26.700 0.0020113 133.89 134.30 0.74882 563.78 0.0017737 133.15 133.48 0.74547 1.4846 2.3180 1066.2 -0.0044621 167.62 0.12087 4.2163 0.23717 499.53 543.19 2.4142 1.2850 1.5286 220.91 0.39947 6.6642 0.012894
-26.625 27.743 0.0020686 136.22 136.65 0.75830 562.57 0.0017775 135.47 135.81 0.75487 1.4874 2.3234 1059.7 -0.0044111 165.84 0.12031 4.3705 0.22881 500.60 544.37 2.4122 1.2899 1.5352 221.03 0.39547 6.6906 0.012989
-25.625 28.817 0.0021267 138.56 139.00 0.76776 561.36 0.0017814 137.78 138.14 0.76426 1.4902 2.3289 1053.2 -0.0043593 164.09 0.11975 4.5290 0.22080 501.68 545.55 2.4102 1.2947 1.5418 221.14 0.39154 6.7171 0.013084
-24.625 29.923 0.0021856 140.90 141.36 0.77720 560.14 0.0017853 140.11 140.48 0.77363 1.4931 2.3344 1046.7 -0.0043067 162.36 0.11919 4.6918 0.21314 502.75 546.72 2.4083 1.2996 1.5485 221.25 0.38768 6.7436 0.013180
-23.625 31.061 0.0022451 143.25 143.73 0.78663 558.92 0.0017892 142.44 142.82 0.78298 1.4960 2.3400 1040.1 -0.0042533 160.65 0.11863 4.8592 0.20580 503.82 547.90 2.4064 1.3045 1.5552 221.35 0.38391 6.7701 0.013277
-22.625 32.232 0.0023053 145.60 146.10 0.79604 557.69 0.0017931 144.77 145.17 0.79232 1.4990 2.3457 1033.6 -0.0041990 158.97 0.11807 5.0311 0.19877 504.90 549.07 2.4045 1.3095 1.5621 221.44 0.38020 6.7967 0.013374
-21.625 33.435 0.0023662 147.96 148.48 0.80543 556.46 0.0017971 147.11 147.52 0.80164 1.5019 2.3514 1027.1 -0.0041439 157.30 0.11752 5.2076 0.19203 505.97 550.24 2.4027 1.3144 1.5690 221.52 0.37656 6.8232 0.013471
-20.625 34.673 0.0024277 150.32 150.86 0.81481 555.23 0.0018011 149.45 149.88 0.81095 1.5049 2.3572 1020.6 -0.0040879 155.66 0.11697 5.3889 0.18557 507.04 551.40 2.4010 1.3194 1.5759 221.59 0.37300 6.8499 0.013569
-19.625 35.946 0.0024897 152.69 153.25 0.82417 553.99 0.0018051 151.80 152.25 0.82024 1.5079 2.3630 1014.0 -0.0040311 154.04 0.11642 5.5750 0.17937 508.11 552.57 2.3992 1.3244 1.5829 221.66 0.36950 6.8765 0.013668
-18.625 37.253 0.0025523 155.07 155.64 0.83352 552.74 0.0018092 154.16 154.62 0.82952 1.5109 2.3689 1007.5 -0.0039733 152.44 0.11587 5.7660 0.17343 509.19 553.73 2.3976 1.3294 1.5901 221.72 0.36608 6.9032 0.013767
-17.625 38.596 0.0026154 157.45 158.04 0.84285 551.49 0.0018133 156.52 157.00 0.83878 1.5140 2.3749 1001.0 -0.0039145 150.86 0.11532 5.9621 0.16773 510.26 554.89 2.3959 1.3345 1.5972 221.77 0.36272 6.9300 0.013867
-16.625 39.976 0.0026789 159.83 160.45 0.85217 550.24 0.0018174 158.89 159.39 0.84803 1.5171 2.3810 994.44 -0.0038549 149.29 0.11478 6.1632 0.16225 511.33 556.05 2.3943 1.3395 1.6045 221.81 0.35942 6.9568 0.013968
-15.625 41.392 0.0027428 162.22 162.86 0.86148 548.98 0.0018216 161.26 161.78 0.85726 1.5202 2.3871 987.91 -0.0037942 147.75 0.11423 6.3696 0.15700 512.40 557.20 2.3927 1.3446 1.6119 221.85 0.35619 6.9836 0.014069
-14.625 42.846 0.0028072 164.62 165.28 0.87077 547.71 0.0018258 163.64 164.18 0.86649 1.5233 2.3933 981.37 -0.0037325 146.22 0.11369 6.5812 0.15195 513.47 558.36 2.3912 1.3497 1.6193 221.87 0.35302 7.0105 0.014170
-13.625 44.338 0.0028718 167.02 167.71 0.88004 546.44 0.0018300 166.02 166.58 0.87569 1.5264 2.3996 974.83 -0.0036698 144.72 0.11315 6.7983 0.14710 514.54 559.51 2.3897 1.3549 1.6268 221.89 0.34992 7.0375 0.014273
-12.625 45.870 0.0029367 169.43 170.14 0.88930 545.17 0.0018343 168.41 168.99 0.88489 1.5296 2.4059 968.29 -0.0036061 143.23 0.11261 7.0208 0.14243 515.61 560.65 2.3883 1.3600 1.6344 221.90 0.34688 7.0646 0.014376
-11.625 47.440 0.0030018 171.84 172.58 0.89855 543.89 0.0018386 170.81 171.41 0.89407 1.5328 2.4124 961.75 -0.0035413 141.76 0.11208 7.2490 0.13795 516.68 561.80 2.3868 1.3652 1.6421 221.91 0.34389 7.0917 0.014479
-10.625 49.051 0.0030671 174.26 175.02 0.90779 542.60 0.0018430 173.21 173.83 0.90324 1.5360 2.4189 955.20 -0.0034753 140.30 0.11154 7.4829 0.13364 517.75 562.94 2.3854 1.3704 1.6498 221.90 0.34097 7.1188 0.014584
-9.6250 50.703 0.0031325 176.69 177.48 0.91701 541.31 0.0018474 175.61 176.26 0.91240 1.5393 2.4255 948.65 -0.0034082 138.86 0.11101 7.7226 0.12949 518.81 564.08 2.3841 1.3757 1.6577 221.88 0.33810 7.1461 0.014689
-8.6250 52.396 0.0031979 179.12 179.93 0.92622 540.02 0.0018518 178.03 178.70 0.92154 1.5426 2.4321 942.10 -0.0033400 137.44 0.11048 7.9683 0.12550 519.88 565.21 2.3827 1.3809 1.6657 221.86 0.33529 7.1734 0.014795
-7.6250 54.131 0.0032632 181.56 182.40 0.93541 538.72 0.0018563 180.45 181.14 0.93068 1.5459 2.4389 935.55 -0.0032705 136.03 0.10995 8.2200 0.12165 520.94 566.35 2.3814 1.3862 1.6737 221.83 0.33254 7.2008 0.014902
-6.6250 55.909 0.0033284 184.00 184.87 0.94460 537.41 0.0018608 182.87 183.59 0.93980 1.5492 2.4457 928.99 -0.0031998 134.64 0.10942 8.4779 0.11795 522.01 567.48 2.3801 1.3915 1.6819 221.79 0.32984 7.2284 0.015009
-5.6250 57.730 0.0033935 186.45 187.35 0.95377 536.10 0.0018653 185.30 186.05 0.94892 1.5525 2.4526 922.43 -0.0031279 133.27 0.10889 8.7420 0.11439 523.07 568.60 2.3789 1.3969 1.6902 221.74 0.32720 7.2560 0.015117
-4.6250 59.595 0.0034583 188.91 189.83 0.96293 534.78 0.0018699 187.74 188.51 0.95802 1.5559 2.4596 915.87 -0.0030546 131.91 0.10837 9.0126 0.11096 524.13 569.72 2.3777 1.4022 1.6985 221.68 0.32461 7.2837 0.015226
-3.6250 61.505 0.0035227 191.37 192.32 0.97208 533.45 0.0018746 190.19 190.98 0.96711 1.5593 2.4667 909.30 -0.0029800 130.56 0.10785 9.2896 0.10765 525.19 570.84 2.3765 1.4076 1.7070 221.62 0.32207 7.3115 0.015336
-2.6250 63.461 0.0035867 193.83 194.82 0.98122 532.12 0.0018793 192.64 193.46 0.97620 1.5627 2.4739 902.73 -0.0029041 129.23 0.10733 9.5733 0.10446 526.25 571.96 2.3753 1.4131 1.7156 221.54 0.31958 7.3394 0.015447
-1.6250 65.462 0.0036501 196.31 197.32 0.99034 530.78 0.0018840 195.10 195.95 0.98527 1.5662 2.4811 896.16 -0.0028267 127.91 0.10681 9.8638 0.10138 527.31 573.07 2.3742 1.4185 1.7243 221.45 0.31715 7.3674 0.015559
-0.62500 67.510 0.0037129 198.79 199.83 0.99946 529.44 0.0018888 197.56 198.44 0.99434 1.5696 2.4885 889.58 -0.0027478 126.61 0.10629 10.161 0.098414 528.37 574.18 2.3731 1.4240 1.7331 221.36 0.31476 7.3956 0.015671
0.37500 69.606 0.0037750 201.27 202.35 1.0086 528.09 0.0018936 200.03 200.94 1.0034 1.5731 2.4960 883.00 -0.0026675 125.32 0.10578 10.466 0.095552 529.42 575.28 2.3720 1.4295 1.7421 221.26 0.31242 7.4239 0.015785
1.3750 71.749 0.0038363 203.76 204.88 1.0177 526.73 0.0018985 202.51 203.45 1.0124 1.5767 2.5035 876.42 -0.0025856 124.04 0.10527 10.777 0.092790 530.48 576.38 2.3709 1.4350 1.7512 221.14 0.31013 7.4523 0.015899
2.3750 73.941 0.0038965 206.26 207.41 1.0267 525.37 0.0019034 204.99 205.96 1.0215 1.5802 2.5112 869.83 -0.0025022 122.78 0.10476 11.096 0.090123 531.53 577.47 2.3699 1.4406 1.7604 221.02 0.30789 7.4808 0.016015
3.3750 76.183 0.0039558 208.77 209.95 1.0358 523.99 0.0019084 207.48 208.48 1.0305 1.5838 2.5190 863.24 -0.0024171 121.53 0.10425 11.422 0.087549 532.58 578.56 2.3688 1.4462 1.7697 220.89 0.30569 7.5095 0.016131
4.3750 78.475 0.0040138 211.28 212.49 1.0449 522.62 0.0019134 209.98 211.01 1.0395 1.5874 2.5268 856.64 -0.0023303 120.29 0.10374 11.756 0.085062 533.63 579.65 2.3678 1.4518 1.7792 220.75 0.30354 7.5384 0.016249
5.3750 80.817 0.0040705 213.80 215.05 1.0539 521.23 0.0019185 212.48 213.55 1.0486 1.5910 2.5348 850.04 -0.0022417 119.06 0.10324 12.098 0.082660 534.67 580.73 2.3669 1.4575 1.7888 220.60 0.30144 7.5674 0.016368
6.3750 83.211 0.0041257 216.32 217.61 1.0630 519.84 0.0019237 215.00 216.10 1.0576 1.5946 2.5429 843.43 -0.0021514 117.85 0.10273 12.447 0.080340 535.72 581.81 2.3659 1.4632 1.7986 220.44 0.29938 7.5966 0.016487
7.3750 85.657 0.0041793 218.85 220.18 1.0720 518.44 0.0019289 217.51 218.65 1.0666 1.5983 2.5511 836.82 -0.0020593 116.65 0.10223 12.805 0.078096 536.76 582.88 2.3650 1.4689 1.8085 220.27 0.29736 7.6259 0.016608
8.3750 88.156 0.0042311 221.38 222.75 1.0810 517.03 0.0019341 220.04 221.22 1.0756 1.6020 2.5595 830.20 -0.0019652 115.46 0.10173 13.170 0.075928 537.80 583.95 2.3640 1.4746 1.8186 220.08 0.29538 7.6555 0.016730
9.3750 90.708 0.0042810 223.93 225.33 1.0900 515.62 0.0019394 222.57 223.79 1.0846 1.6057 2.5679 823.58 -0.0018691 114.28 0.10124 13.545 0.073830 538.84 585.01 2.3631 1.4804 1.8288 219.89 0.29345 7.6852 0.016853
10.375 93.315 0.0043288 226.48 227.92 1.0991 514.19 0.0019448 225.11 226.37 1.0936 1.6095 2.5765 816.96 -0.0017710 113.11 0.10074 13.927 0.071802 539.87 586.07 2.3622 1.4863 1.8392 219.69 0.29156 7.7151 0.016978
11.375 95.977 0.0043743 229.03 230.52 1.1081 512.76 0.0019502 227.66 228.95 1.1025 1.6132 2.5852 810.32 -0.0016708 111.95 0.10025 14.319 0.069840 540.90 587.12 2.3614 1.4921 1.8498 219.48 0.28971 7.7452 0.017103
12.375 98.694 0.0044173 231.59 233.12 1.1170 511.32 0.0019557 230.22 231.55 1.1115 1.6170 2.5940 803.68 -0.0015685 110.80 0.099756 14.719 0.067941 541.93 588.17 2.3605 1.4980 1.8605 219.26 0.28790 7.7756 0.017230
13.375 101.47 0.0044577 234.16 235.74 1.1260 509.87 0.0019613 232.78 234.15 1.1205 1.6208 2.6030 797.04 -0.0014639 109.67 0.099267 15.128 0.066103 542.96 589.21 2.3597 1.5040 1.8715 219.03 0.28612 7.8061 0.017359
14.375 104.30 0.0044952 236.74 238.36 1.1350 508.42 0.0019669 235.35 236.77 1.1295 1.6247 2.6121 790.39 -0.0013569 108.54 0.098779 15.547 0.064323 543.99 590.24 2.3588 1.5099 1.8826 218.79 0.28439 7.8369 0.017488
15.375 107.19 0.0045297 239.32 240.98 1.1440 506.95 0.0019726 237.93 239.39 1.1384 1.6286 2.6214 783.73 -0.0012476 107.43 0.098294 15.974 0.062600 545.01 591.27 2.3580 1.5159 1.8940 218.53 0.28270 7.8680 0.017619
16.375 110.13 0.0045608 241.91 243.62 1.1529 505.48 0.0019783 240.52 242.02 1.1474 1.6324 2.6308 777.07 -0.0011357 106.32 0.097810 16.412 0.060931 546.03 592.29 2.3572 1.5220 1.9055 218.27 0.28104 7.8993 0.017752
17.375 113.14 0.0045883 244.51 246.26 1.1619 504.00 0.0019841 243.11 244.66 1.1564 1.6364 2.6403 770.40 -0.0010213 105.22 0.097328 16.859 0.059314 547.04 593.31 2.3564 1.5281 1.9172 217.99 0.27942 7.9308 0.017886
18.375 116.21 0.0046120 247.11 248.91 1.1708 502.50 0.0019900 245.72 247.31 1.1653 1.6403 2.6501 763.72 -0.00090422 104.14 0.096848 17.317 0.057747 548.05 594.32 2.3557 1.5342 1.9292 217.71 0.27783 7.9626 0.018021
19.375 119.33 0.0046317 249.72 251.57 1.1798 501.00 0.0019960 248.33 249.97 1.1743 1.6443 2.6599 757.04 -0.00078435 103.06 0.096371 17.785 0.056228 549.06 595.33 2.3549 1.5404 1.9414 217.41 0.27628 7.9947 0.018159
20.375 122.52 0.0046470 252.34 254.23 1.1887 499.49 0.0020020 250.95 252.64 1.1832 1.6483 2.6700 750.35 -0.00066161 101.99 0.095895 18.263 0.054756 550.07 596.32 2.3541 1.5466 1.9538 217.10 0.27477 8.0272 0.018297
21.375 125.77 0.0046576 254.96 256.91 1.1976 497.97 0.0020082 253.57 255.32 1.1922 1.6523 2.6802 743.64 -0.00053589 100.93 0.095420 18.752 0.053328 551.07 597.31 2.3534 1.5528 1.9665 216.78 0.27329 8.0599 0.018438
22.375 129.08 0.0046632 257.59 259.59 1.2065 496.43 0.0020144 256.21 258.00 1.2012 1.6563 2.6906 736.94 -0.00040708 99.877 0.094948 19.252 0.051943 552.07 598.30 2.3526 1.5591 1.9795 216.45 0.27184 8.0929 0.018580
23.375 132.46 0.0046635 260.23 262.28 1.2154 494.89 0.0020206 258.86 260.70 1.2101 1.6604 2.7012 730.22 -0.00027505 98.834 0.094478 19.763 0.050600 553.06 599.27 2.3519 1.5655 1.9927 216.11 0.27043 8.1263 0.018724
24.375 135.90 0.0046581 262.87 264.98 1.2243 493.34 0.0020270 261.51 263.41 1.2191 1.6645 2.7120 723.49 -0.00013968 97.800 0.094009 20.285 0.049297 554.05 600.24 2.3512 1.5718 2.0061 215.75 0.26906 8.1600 0.018870
25.375 139.41 0.0046467 265.52 267.68 1.2332 491.77 0.0020335 264.17 266.13 1.2280 1.6686 2.7230 716.76 -8.3775e-07 96.773 0.093543 20.820 0.048032 555.03 601.20 2.3504 1.5783 2.0199 215.39 0.26771 8.1941 0.019017
26.375 142.98 0.0046289 268.18 270.40 1.2421 490.20 0.0020400 266.84 268.85 1.2370 1.6728 2.7342 710.01 0.00014161 95.755 0.093078 21.366 0.046804 556.01 602.15 2.3497 1.5847 2.0340 215.01 0.26640 8.2286 0.019167
27.375 146.62 0.0046042 270.85 273.12 1.2510 488.61 0.0020466 269.52 271.59 1.2459 1.6770 2.7456 703.26 0.00028782 94.745 0.092615 21.924 0.045612 556.99 603.10 2.3490 1.5913 2.0484 214.62 0.26512 8.2634 0.019319
28.375 150.33 0.0045722 273.52 275.85 1.2599 487.01 0.0020533 272.21 274.34 1.2549 1.6812 2.7573 696.49 0.00043793 93.742 0.092154 22.495 0.044454 557.96 604.03 2.3483 1.5978 2.0631 214.21 0.26387 8.2987 0.019472
29.375 154.10 0.0045325 276.20 278.59 1.2688 485.40 0.0020601 274.91 277.10 1.2638 1.6854 2.7691 689.72 0.00059212 92.747 0.091695 23.079 0.043329 558.92 604.96 2.3476 1.6044 2.0781 213.80 0.26265 8.3344 0.019628
30.375 157.94 0.0044845 278.89 281.34 1.2776 483.78 0.0020671 277.62 279.87 1.2728 1.6897 2.7813 682.93 0.00075055 91.760 0.091238 23.676 0.042237 559.88 605.88 2.3469 1.6111 2.0935 213.37 0.26147 8.3705 0.019786
31.375 161.86 0.0044277 281.58 284.09 1.2865 482.15 0.0020741 280.34 282.66 1.2818 1.6939 2.7936 676.13 0.00091340 90.779 0.090782 24.287 0.041175 560.84 606.79 2.3462 1.6178 2.1092 212.93 0.26031 8.4071 0.019947
32.375 165.84 0.0043616 284.29 286.86 1.2954 480.50 0.0020812 283.07 285.45 1.2908 1.6983 2.8063 669.32 0.0010809 89.806 0.090328 24.911 0.040143 561.79 607.69 2.3455 1.6246 2.1254 212.48 0.25919 8.4442 0.020110
33.375 169.90 0.0042856 287.00 289.63 1.3042 478.83 0.0020884 285.81 288.26 1.2997 1.7026 2.8192 662.50 0.0012532 88.840 0.089876 25.549 0.039140 562.73 608.58 2.3448 1.6314 2.1419 212.01 0.25809 8.4818 0.020275
34.375 174.02 0.0041991 289.71 292.41 1.3131 477.16 0.0020957 288.56 291.07 1.3087 1.7070 2.8324 655.67 0.0014305 87.880 0.089426 26.202 0.038164 563.67 609.46 2.3440 1.6383 2.1589 211.53 0.25702 8.5199 0.020443
35.375 178.22 0.0041013 292.44 295.20 1.3219 475.47 0.0021032 291.32 293.90 1.3177 1.7114 2.8459 648.82 0.0016131 86.927 0.088977 26.870 0.037216 564.60 610.33 2.3433 1.6452 2.1763 211.04 0.25599 8.5586 0.020613
36.375 182.50 0.0039916 295.17 298.00 1.3307 473.77 0.0021107 294.09 296.74 1.3267 1.7158 2.8597 641.96 0.0018012 85.980 0.088531 27.553 0.036293 565.52 611.19 2.3426 1.6522 2.1942 210.53 0.25498 8.5978 0.020786
37.375 186.84 0.0038692 297.91 300.81 1.3396 472.05 0.0021184 296.87 299.60 1.3357 1.7203 2.8739 635.08 0.0019950 85.040 0.088085 28.252 0.035395 566.44 612.04 2.3419 1.6592 2.2125 210.01 0.25400 8.6376 0.020962
38.375 191.27 0.0037334 300.66 303.62 1.3484 470.31 0.0021262 299.66 302.46 1.3447 1.7248 2.8884 628.19 0.0021949 84.105 0.087642 28.967 0.034522 567.35 612.88 2.3411 1.6663 2.2314 209.47 0.25305 8.6780 0.021141
39.375 195.77 0.0035832 303.41 306.45 1.3573 468.56 0.0021342 302.46 305.34 1.3537 1.7293 2.9033 621.29 0.0024011 83.177 0.087200 29.699 0.033671 568.26 613.70 2.3404 1.6734 2.2508 208.92 0.25213 8.7190 0.021323
40.375 200.34 0.0034178 306.18 309.28 1.3661 466.80 0.0021423 305.27 308.23 1.3627 1.7339 2.9185 614.37 0.0026140 82.254 0.086760 30.447 0.032844 569.15 614.52 2.3396 1.6806 2.2708 208.36 0.25123 8.7608 0.021508
41.375 205.00 0.0032362 308.95 312.12 1.3749 465.01 0.0021505 308.10 311.14 1.3718 1.7385 2.9342 607.43 0.0028338 81.338 0.086322 31.214 0.032037 570.04 615.32 2.3389 1.6879 2.2913 207.78 0.25037 8.8032 0.021696
42.375 209.73 0.0030372 311.73 314.98 1.3837 463.21 0.0021588 310.94 314.06 1.3808 1.7432 2.9502 600.47 0.0030609 80.426 0.085885 31.998 0.031252 570.92 616.11 2.3381 1.6952 2.3125 207.19 0.24953 8.8463 0.021888
43.375 214.54 0.0028199 314.51 317.84 1.3925 461.40 0.0021673 313.79 316.99 1.3899 1.7478 2.9667 593.50 0.0032957 79.520 0.085449 32.800 0.030488 571.79 616.88 2.3373 1.7027 2.3344 206.58 0.24871 8.8902 0.022084
44.375 219.43 0.0025830 317.31 320.71 1.4014 459.56 0.0021760 316.65 319.94 1.3989 1.7525 2.9837 586.51 0.0035386 78.619 0.085015 33.622 0.029742 572.65 617.65 2.3365 1.7101 2.3569 205.96 0.24793 8.9349 0.022283
45.375 224.41 0.0023252 320.11 323.59 1.4102 457.71 0.0021848 319.52 322.90 1.4080 1.7573 3.0012 579.50 0.0037900 77.723 0.084583 34.463 0.029016 573.50 618.40 2.3357 1.7177 2.3802 205.32 0.24717 8.9805 0.022485
46.375 229.46 0.0020451 322.92 326.48 1.4190 455.83 0.0021938 322.41 325.88 1.4171 1.7621 3.0192 572.46 0.0040504 76.832 0.084152 35.325 0.028308 574.34 619.13 2.3349 1.7253 2.4042 204.67 0.24644 9.0269 0.022692
47.375 234.60 0.0017413 325.74 329.38 1.4278 453.94 0.0022029 325.31 328.87 1.4262 1.7669 3.0377 565.41 0.0043202 75.946 0.083723 36.208 0.027618 575.17 619.85 2.3340 1.7329 2.4291 204.00 0.24573 9.0742 0.022903
48.375 239.83 0.0014121 328.57 332.29 1.4366 452.03 0.0022123 328.22 331.88 1.4353 1.7718 3.0569 558.34 0.0046000 75.064 0.083295 37.112 0.026945 576.00 620.55 2.3332 1.7407 2.4548 203.31 0.24505 9.1224 0.023119
49.375 245.13 0.0010558 331.41 335.21 1.4454 450.09 0.0022218 331.15 334.90 1.4445 1.7767 3.0766 551.24 0.0048904 74.186 0.082868 38.039 0.026289 576.81 621.24 2.3323 1.7485 2.4815 202.61 0.24440 9.1716 0.023339
50.375 250.53 0.00067057 334.25 338.13 1.4542 448.13 0.0022315 334.09 337.94 1.4536 1.7817 3.0970 544.13 0.0051920 73.313 0.082442 38.989 0.025648 577.61 621.91 2.3314 1.7564 2.5092 201.89 0.24377 9.2219 0.023564
51.375 256.01 0.00025435 337.11 341.07 1.4630 446.15 0.0022414 337.04 341.00 1.4628 1.7867 3.1181 536.98 0.0055054 72.443 0.082018 39.962 0.025024 578.39 622.56 2.3304 1.7644 2.5379 201.16 0.24317 9.2733 0.023794
52.375 281.63 undefined 339.51 343.87 1.4704 445.00 0.0022472 339.51 343.87 1.4704 1.7909 3.1248 534.34 0.0056141 71.953 0.081813 445.00 0.0022472 339.51 343.87 1.4704 1.7909 3.1248 534.34 0.0056141 71.953 0.081813
53.375 334.53 undefined 341.30 346.49 1.4759 445.00 0.0022472 341.30 346.49 1.4759 1.7938 3.1117 537.77 0.0054366 71.972 0.081902 445.00 0.0022472 341.30 346.49 1.4759 1.7938 3.1117 537.77 0.0054366 71.972 0.081902
54.375 387.52 undefined 343.10 349.10 1.4814 445.00 0.0022472 343.10 349.10 1.4814 1.7968 3.0991 541.14 0.0052645 71.991 0.081993 445.00 0.0022472 343.10 349.10 1.4814 1.7968 3.0991 541.14 0.0052645 71.991 0.081993
55.375 440.59 undefined 344.90 351.72 1.4869 445.00 0.0022472 344.90 351.72 1.4869 1.7999 3.0871 544.45 0.0050976 72.010 0.082084 445.00 0.0022472 344.90 351.72 1.4869 1.7999 3.0871 544.45 0.0050976 72.010 0.082084
56.375 493.74 undefined 346.70 354.35 1.4924 445.00 0.0022472 346.70 354.35 1.4924 1.8030 3.0757 547.70 0.0049357 72.029 0.082175 445.00 0.0022472 346.70 354.35 1.4924 1.8030 3.0757 547.70 0.0049357 72.029 0.082175
57.375 546.97 undefined 348.50 356.98 1.4978 445.00 0.0022472 348.50 356.98 1.4978 1.8062 3.0648 550.90 0.0047784 72.049 0.082267 445.00 0.0022472 348.50 356.98 1.4978 1.8062 3.0648 550.90 0.0047784 72.049 0.082267
58.375 600.27 undefined 350.31 359.61 1.5033 445.00 0.0022472 350.31 359.61 1.5033 1.8094 3.0544 554.05 0.0046256 72.068 0.082360 445.00 0.0022472 350.31 359.61 1.5033 1.8094 3.0544 554.05 0.0046256 72.068 0.082360
59.375 653.64 undefined 352.12 362.25 1.5088 445.00 0.0022472 352.12 362.25 1.5088 1.8126 3.0444 557.15 0.0044770 72.087 0.082453 445.00 0.0022472 352.12 362.25 1.5088 1.8126 3.0444 557.15 0.0044770 72.087 0.082453
60.375 707.07 undefined 353.94 364.89 1.5142 445.00 0.0022472 353.94 364.89 1.5142 1.8159 3.0349 560.20 0.0043325 72.107 0.082546 445.00 0.0022472 353.94 364.89 1.5142 1.8159 3.0349 560.20 0.0043325 72.107 0.082546
61.375 760.57 undefined 355.75 367.54 1.5196 445.00 0.0022472 355.75 367.54 1.5196 1.8192 3.0258 563.21 0.0041918 72.126 0.082640 445.00 0.0022472 355.75 367.54 1.5196 1.8192 3.0258 563.21 0.0041918 72.126 0.082640
62.375 814.13 undefined 357.57 370.19 1.5251 445.00 0.0022472 357.57 370.19 1.5251 1.8226 3.0171 566.17 0.0040548 72.145 0.082735 445.00 0.0022472 357.57 370.19 1.5251 1.8226 3.0171 566.17 0.0040548 72.145 0.082735
63.375 867.75 undefined 359.40 372.84 1.5305 445.00 0.0022472 359.40 372.84 1.5305 1.8260 3.0088 569.09 0.0039212 72.165 0.082829 445.00 0.0022472 359.40 372.84 1.5305 1.8260 3.0088 569.09 0.0039212 72.165 0.082829
64.375 921.42 undefined 361.23 375.50 1.5359 445.00 0.0022472 361.23 375.50 1.5359 1.8295 3.0008 571.96 0.0037911 72.184 0.082925 445.00 0.0022472 361.23 375.50 1.5359 1.8295 3.0008 571.96 0.0037911 72.184 0.082925
65.375 975.14 undefined 363.06 378.17 1.5414 445.00 0.0022472 363.06 378.17 1.5414 1.8330 2.9931 574.80 0.0036642 72.204 0.083021 445.00 0.0022472 363.06 378.17 1.5414 1.8330 2.9931 574.80 0.0036642 72.204 0.083021
66.375 1028.9 undefined 364.89 380.83 1.5468 445.00 0.0022472 364.89 380.83 1.5468 1.8365 2.9858 577.60 0.0035403 72.223 0.083117 445.00 0.0022472 364.89 380.83 1.5468 1.8365 2.9858 577.60 0.0035403 72.223 0.083117
67.375 1082.7 undefined 366.73 383.51 1.5522 445.00 0.0022472 366.73 383.51 1.5522 1.8400 2.9788 580.37 0.0034195 72.243 0.083214 445.00 0.0022472 366.73 383.51 1.5522 1.8400 2.9788 580.37 0.0034195 72.243 0.083214
68.375 1136.6 undefined 368.57 386.18 1.5576 445.00 0.0022472 368.57 386.18 1.5576 1.8436 2.9721 583.10 0.0033014 72.262 0.083311 445.00 0.0022472 368.57 386.18 1.5576 1.8436 2.9721 583.10 0.0033014 72.262 0.083311
69.375 1190.5 undefined 370.42 388.86 1.5630 445.00 0.0022472 370.42 388.86 1.5630 1.8472 2.9657 585.79 0.0031861 72.282 0.083409 445.00 0.0022472 370.42 388.86 1.5630 1.8472 2.9657 585.79 0.0031861 72.282 0.083409
70.375 1244.4 undefined 372.27 391.55 1.5684 445.00 0.0022472 372.27 391.55 1.5684 1.8509 2.9596 588.46 0.0030735 72.301 0.083507 445.00 0.0022472 372.27 391.55 1.5684 1.8509 2.9596 588.46 0.0030735 72.301 0.083507
71.375 1298.4 undefined 374.12 394.24 1.5737 445.00 0.0022472 374.12 394.24 1.5737 1.8545 2.9537 591.09 0.0029634 72.321 0.083605 445.00 0.0022472 374.12 394.24 1.5737 1.8545 2.9537 591.09 0.0029634 72.321 0.083605
72.375 1352.4 undefined 375.98 396.93 1.5791 445.00 0.0022472 375.98 396.93 1.5791 1.8582 2.9480 593.69 0.0028558 72.340 0.083704 445.00 0.0022472 375.98 396.93 1.5791 1.8582 2.9480 593.69 0.0028558 72.340 0.083704
73.375 1406.5 undefined 377.84 399.63 1.5845 445.00 0.0022472 377.84 399.63 1.5845 1.8620 2.9426 596.27 0.0027505 72.360 0.083803 445.00 0.0022472 377.84 399.63 1.5845 1.8620 2.9426 596.27 0.0027505 72.360 0.083803
74.375 1460.5 undefined 379.70 402.33 1.5899 445.00 0.0022472 379.70 402.33 1.5899 1.8657 2.9375 598.81 0.0026475 72.380 0.083903 445.00 0.0022472 379.70 402.33 1.5899 1.8657 2.9375 598.81 0.0026475 72.380 0.083903
75.375 1514.6 undefined 381.57 405.03 1.5952 445.00 0.0022472 381.57 405.03 1.5952 1.8695 2.9325 601.33 0.0025467 72.399 0.084003 445.00 0.0022472 381.57 405.03 1.5952 1.8695 2.9325 601.33 0.0025467 72.399 0.084003
76.375 1568.8 undefined 383.44 407.74 1.6006 445.00 0.0022472 383.44 407.74 1.6006 1.8733 2.9278 603.82 0.0024481 72.419 0.084103 445.00 0.0022472 383.44 407.74 1.6006 1.8733 2.9278 603.82 0.0024481 72.419 0.084103
77.375 1622.9 undefined 385.31 410.46 1.6060 445.00 0.0022472 385.31 410.46 1.6060 1.8771 2.9233 606.29 0.0023515 72.439 0.084204 445.00 0.0022472 385.31 410.46 1.6060 1.8771 2.9233 606.29 0.0023515 72.439 0.084204
78.375 1677.1 undefined 387.19 413.18 1.6113 445.00 0.0022472 387.19 413.18 1.6113 1.8809 2.9190 608.73 0.0022570 72.458 0.084305 445.00 0.0022472 387.19 413.18 1.6113 1.8809 2.9190 608.73 0.0022570 72.458 0.084305
79.375 1731.3 undefined 389.08 415.90 1.6167 445.00 0.0022472 389.08 415.90 1.6167 1.8848 2.9148 611.15 0.0021643 72.478 0.084407 445.00 0.0022472 389.08 415.90 1.6167 1.8848 2.9148 611.15 0.0021643 72.478 0.084407
80.375 1785.5 undefined 390.96 418.63 1.6220 445.00 0.0022472 390.96 418.63 1.6220 1.8886 2.9109 613.55 0.0020736 72.498 0.084509 445.00 0.0022472 390.96 418.63 1.6220 1.8886 2.9109 613.55 0.0020736 72.498 0.084509
81.375 1839.8 undefined 392.85 421.36 1.6273 445.00 0.0022472 392.85 421.36 1.6273 1.8925 2.9071 615.92 0.0019847 72.518 0.084611 445.00 0.0022472 392.85 421.36 1.6273 1.8925 2.9071 615.92 0.0019847 72.518 0.084611
82.375 1894.1 undefined 394.75 424.09 1.6327 445.00 0.0022472 394.75 424.09 1.6327 1.8964 2.9035 618.27 0.0018975 72.537 0.084714 445.00 0.0022472 394.75 424.09 1.6327 1.8964 2.9035 618.27 0.0018975 72.537 0.084714
83.375 1948.4 undefined 396.65 426.83 1.6380 445.00 0.0022472 396.65 426.83 1.6380 1.9003 2.9001 620.60 0.0018121 72.557 0.084817 445.00 0.0022472 396.65 426.83 1.6380 1.9003 2.9001 620.60 0.0018121 72.557 0.084817
84.375 2002.7 undefined 398.55 429.58 1.6433 445.00 0.0022472 398.55 429.58 1.6433 1.9042 2.8968 622.91 0.0017284 72.577 0.084920 445.00 0.0022472 398.55 429.58 1.6433 1.9042 2.8968 622.91 0.0017284 72.577 0.084920
85.375 2057.0 undefined 400.45 432.32 1.6487 445.00 0.0022472 400.45 432.32 1.6487 1.9082 2.8937 625.20 0.0016462 72.597 0.085024 445.00 0.0022472 400.45 432.32 1.6487 1.9082 2.8937 625.20 0.0016462 72.597 0.085024
86.375 2111.3 undefined 402.36 435.08 1.6540 445.00 0.0022472 402.36 435.08 1.6540 1.9122 2.8907 627.47 0.0015657 72.617 0.085128 445.00 0.0022472 402.36 435.08 1.6540 1.9122 2.8907 627.47 0.0015657 72.617 0.085128
87.375 2165.7 undefined 404.28 437.83 1.6593 445.00 0.0022472 404.28 437.83 1.6593 1.9161 2.8879 629.73 0.0014867 72.637 0.085232 445.00 0.0022472 404.28 437.83 1.6593 1.9161 2.8879 629.73 0.0014867 72.637 0.085232
88.375 2220.0 undefined 406.20 440.59 1.6646 445.00 0.0022472 406.20 440.59 1.6646 1.9201 2.8852 631.96 0.0014091 72.657 0.085337 445.00 0.0022472 406.20 440.59 1.6646 1.9201 2.8852 631.96 0.0014091 72.657 0.085337
89.375 2274.4 undefined 408.12 443.36 1.6699 445.00 0.0022472 408.12 443.36 1.6699 1.9241 2.8827 634.18 0.0013331 72.676 0.085442 445.00 0.0022472 408.12 443.36 1.6699 1.9241 2.8827 634.18 0.0013331 72.676 0.085442
90.375 2328.8 undefined 410.04 446.13 1.6752 445.00 0.0022472 410.04 446.13 1.6752 1.9281 2.8803 636.38 0.0012584 72.696 0.085548 445.00 0.0022472 410.04 446.13 1.6752 1.9281 2.8803 636.38 0.0012584 72.696 0.085548
91.375 2383.2 undefined 411.97 448.90 1.6805 445.00 0.0022472 411.97 448.90 1.6805 1.9321 2.8780 638.57 0.0011851 72.716 0.085654 445.00 0.0022472 411.97 448.90 1.6805 1.9321 2.8780 638.57 0.0011851 72.716 0.085654
92.375 2437.6 undefined 413.91 451.68 1.6858 445.00 0.0022472 413.91 451.68 1.6858 1.9361 2.8758 640.73 0.0011132 72.736 0.085760 445.00 0.0022472 413.91 451.68 1.6858 1.9361 2.8758 640.73 0.0011132 72.736 0.085760
93.375 2492.0 undefined 415.85 454.46 1.6911 445.00 0.0022472 415.85 454.46 1.6911 1.9402 2.8738 642.88 0.0010426 72.756 0.085867 445.00 0.0022472 415.85 454.46 1.6911 1.9402 2.8738 642.88 0.0010426 72.756 0.085867
94.375 2546.4 undefined 417.79 457.24 1.6964 445.00 0.0022472 417.79 457.24 1.6964 1.9442 2.8719 645.02 0.00097324 72.776 0.085973 445.00 0.0022472 417.79 457.24 1.6964 1.9442 2.8719 645.02 0.00097324 72.776 0.085973
95.375 2600.8 undefined 419.74 460.03 1.7017 445.00 0.0022472 419.74 460.03 1.7017 1.9482 2.8701 647.14 0.00090515 72.796 0.086081 445.00 0.0022472 419.74 460.03 1.7017 1.9482 2.8701 647.14 0.00090515 72.796 0.086081
96.375 2655.2 undefined 421.69 462.83 1.7070 445.00 0.0022472 421.69 462.83 1.7070 1.9523 2.8684 649.25 0.00083826 72.816 0.086188 445.00 0.0022472 421.69 462.83 1.7070 1.9523 2.8684 649.25 0.00083826 72.816 0.086188
97.375 2709.7 undefined 423.64 465.62 1.7123 445.00 0.0022472 423.64 465.62 1.7123 1.9564 2.8668 651.34 0.00077257 72.836 0.086296 445.00 0.0022472 423.64 465.62 1.7123 1.9564 2.8668 651.34 0.00077257 72.836 0.086296
98.375 2764.1 undefined 425.60 468.43 1.7175 445.00 0.0022472 425.60 468.43 1.7175 1.9604 2.8653 653.42 0.00070803 72.856 0.086404 445.00 0.0022472 425.60 468.43 1.7175 1.9604 2.8653 653.42 0.00070803 72.856 0.086404
99.375 2818.6 undefined 427.56 471.23 1.7228 445.00 0.0022472 427.56 471.23 1.7228 1.9645 2.8639 655.48 0.00064462 72.876 0.086513 445.00 0.0022472 427.56 471.23 1.7228 1.9645 2.8639 655.48 0.00064462 72.876 0.086513
100.38 2873.0 undefined 429.53 474.04 1.7281 445.00 0.0022472 429.53 474.04 1.7281 1.9686 2.8626 657.54 0.00058231 72.896 0.086622 445.00 0.0022472 429.53 474.04 1.7281 1.9686 2.8626 657.54 0.00058231 72.896 0.086622
101.38 2927.5 undefined 431.50 476.86 1.7334 445.00 0.0022472 431.50 476.86 1.7334 1.9727 2.8614 659.57 0.00052108 72.917 0.086731 445.00 0.0022472 431.50 476.86 1.7334 1.9727 2.8614 659.57 0.00052108 72.917 0.086731
102.38 2981.9 undefined 433.47 479.67 1.7386 445.00 0.0022472 433.47 479.67 1.7386 1.9767 2.8603 661.60 0.00046090 72.937 0.086841 445.00 0.0022472 433.47 479.67 1.7386 1.9767 2.8603 661.60 0.00046090 72.937 0.086841
103.38 3036.4 undefined 435.45 482.50 1.7439 445.00 0.0022472 435.45 482.50 1.7439 1.9808 2.8592 663.61 0.00040175 72.957 0.086951 445.00 0.0022472 435.45 482.50 1.7439 1.9808 2.8592 663.61 0.00040175 72.957 0.086951
104.38 3090.8 undefined 437.43 485.32 1.7491 445.00 0.0022472 437.43 485.32 1.7491 1.9849 2.8583 665.61 0.00034361 72.977 0.087061 445.00 0.0022472 437.43 485.32 1.7491 1.9849 2.8583 665.61 0.00034361 72.977 0.087061
105.38 3145.3 undefined 439.42 488.15 1.7544 445.00 0.0022472 439.42 488.15 1.7544 1.9890 2.8574 667.60 0.00028645 72.997 0.087171 445.00 0.0022472 439.42 488.15 1.7544 1.9890 2.8574 667.60 0.00028645 72.997 0.087171
106.38 3199.7 undefined 441.41 490.99 1.7597 445.00 0.0022472 441.41 490.99 1.7597 1.9931 2.8567 669.58 0.00023025 73.017 0.087282 445.00 0.0022472 441.41 490.99 1.7597 1.9931 2.8567 669.58 0.00023025 73.017 0.087282
107.38 3254.2 undefined 443.41 493.83 1.7649 445.00 0.0022472 443.41 493.83 1.7649 1.9972 2.8560 671.54 0.00017498 73.037 0.087393 445.00 0.0022472 443.41 493.83 1.7649 1.9972 2.8560 671.54 0.00017498 73.037 0.087393
108.38 3308.6 undefined 445.41 496.67 1.7702 445.00 0.0022472 445.41 496.67 1.7702 2.0013 2.8554 673.50 0.00012064 73.058 0.087505 445.00 0.0022472 445.41 496.67 1.7702 2.0013 2.8554 673.50 0.00012064 73.058 0.087505
109.38 3363.1 undefined 447.41 499.52 1.7754 445.00 0.0022472 447.41 499.52 1.7754 2.0054 2.8548 675.44 6.7191e-05 73.078 0.087617 445.00 0.0022472 447.41 499.52 1.7754 2.0054 2.8548 675.44 6.7191e-05 73.078 0.087617
110.38 3417.5 undefined 449.42 502.37 1.7806 445.00 0.0022472 449.42 502.37 1.7806 2.0096 2.8544 677.37 1.4623e-05 73.098 0.087729 445.00 0.0022472 449.42 502.37 1.7806 2.0096 2.8544 677.37 1.4623e-05 73.098 0.087729
111.38 3471.9 undefined 451.43 505.22 1.7859 445.00 0.0022472 451.43 505.22 1.7859 2.0137 2.8540 679.30 -3.7085e-05 73.118 0.087841 445.00 0.0022472 451.43 505.22 1.7859 2.0137 2.8540 679.30 -3.7085e-05 73.118 0.087841
112.38 3526.4 undefined 453.45 508.08 1.7911 445.00 0.0022472 453.45 508.08 1.7911 2.0178 2.8536 681.21 -8.7952e-05 73.139 0.087954 445.00 0.0022472 453.45 508.08 1.7911 2.0178 2.8536 681.21 -8.7952e-05 73.139 0.087954
113.38 3580.8 undefined 455.47 510.95 1.7963 445.00 0.0022472 455.47 510.95 1.7963 2.0219 2.8534 683.11 -0.00013799 73.159 0.088067 445.00 0.0022472 455.47 510.95 1.7963 2.0219 2.8534 683.11 -0.00013799 73.159 0.088067
114.38 3635.2 undefined 457.49 513.81 1.8016 445.00 0.0022472 457.49 513.81 1.8016 2.0260 2.8532 685.00 -0.00018723 73.179 0.088181 445.00 0.0022472 457.49 513.81 1.8016 2.0260 2.8532 685.00 -0.00018723 73.179 0.088181
115.38 3689.7 undefined 459.52 516.68 1.8068 445.00 0.0022472 459.52 516.68 1.8068 2.0301 2.8531 686.88 -0.00023568 73.199 0.088294 445.00 0.0022472 459.52 516.68 1.8068 2.0301 2.8531 686.88 -0.00023568 73.199 0.088294
116.38 3744.1 undefined 461.55 519.56 1.8120 445.00 0.0022472 461.55 519.56 1.8120 2.0343 2.8530 688.75 -0.00028335 73.220 0.088408 445.00 0.0022472 461.55 519.56 1.8120 2.0343 2.8530 688.75 -0.00028335 73.220 0.088408
117.38 3798.5 undefined 463.59 522.44 1.8172 445.00 0.0022472 463.59 522.44 1.8172 2.0384 2.8530 690.61 -0.00033027 73.240 0.088523 445.00 0.0022472 463.59 522.44 1.8172 2.0384 2.8530 690.61 -0.00033027 73.240 0.088523
118.38 3852.9 undefined 465.63 525.32 1.8225 445.00 0.0022472 465.63 525.32 1.8225 2.0425 2.8531 692.46 -0.00037645 73.260 0.088637 445.00 0.0022472 465.63 525.32 1.8225 2.0425 2.8531 692.46 -0.00037645 73.260 0.088637
119.38 3907.3 undefined 467.67 528.21 1.8277 445.00 0.0022472 467.67 528.21 1.8277 2.0466 2.8532 694.30 -0.00042190 73.281 0.088752 445.00 0.0022472 467.67 528.21 1.8277 2.0466 2.8532 694.30 -0.00042190 73.281 0.088752
120.38 3961.7 undefined 469.72 531.10 1.8329 445.00 0.0022472 469.72 531.10 1.8329 2.0508 2.8533 696.14 -0.00046663 73.301 0.088868 445.00 0.0022472 469.72 531.10 1.8329 2.0508 2.8533 696.14 -0.00046663 73.301 0.088868
121.38 4016.1 undefined 471.77 534.00 1.8381 445.00 0.0022472 471.77 534.00 1.8381 2.0549 2.8536 697.96 -0.00051067 73.321 0.088983 445.00 0.0022472 471.77 534.00 1.8381 2.0549 2.8536 697.96 -0.00051067 73.321 0.088983
122.38 4070.5 undefined 473.83 536.90 1.8433 445.00 0.0022472 473.83 536.90 1.8433 2.0590 2.8538 699.78 -0.00055403 73.342 0.089099 445.00 0.0022472 473.83 536.90 1.8433 2.0590 2.8538 699.78 -0.00055403 73.342 0.089099
123.38 4124.9 undefined 475.89 539.80 1.8485 445.00 0.0022472 475.89 539.80 1.8485 2.0631 2.8542 701.58 -0.00059672 73.362 0.089216 445.00 0.0022472 475.89 539.80 1.8485 2.0631 2.8542 701.58 -0.00059672 73.362 0.089216
124.38 4179.3 undefined 477.96 542.71 1.8537 445.00 0.0022472 477.96 542.71 1.8537 2.0672 2.8545 703.38 -0.00063875 73.382 0.089332 445.00 0.0022472 477.96 542.71 1.8537 2.0672 2.8545 703.38 -0.00063875 73.382 0.089332
125.38 4233.6 undefined 480.02 545.62 1.8589 445.00 0.0022472 480.02 545.62 1.8589 2.0714 2.8550 705.17 -0.00068014 73.403 0.089449 445.00 0.0022472 480.02 545.62 1.8589 2.0714 2.8550 705.17 -0.00068014 73.403 0.089449
126.38 4288.0 undefined 482.10 548.54 1.8641 445.00 0.0022472 482.10 548.54 1.8641 2.0755 2.8555 706.95 -0.00072090 73.423 0.089566 445.00 0.0022472 482.10 548.54 1.8641 2.0755 2.8555 706.95 -0.00072090 73.423 0.089566
127.38 4342.3 undefined 484.18 551.46 1.8693 445.00 0.0022472 484.18 551.46 1.8693 2.0796 2.8560 708.72 -0.00076103 73.443 0.089684 445.00 0.0022472 484.18 551.46 1.8693 2.0796 2.8560 708.72 -0.00076103 73.443 0.089684
128.38 4396.7 undefined 486.26 554.38 1.8745 445.00 0.0022472 486.26 554.38 1.8745 2.0837 2.8566 710.49 -0.00080057 73.464 0.089801 445.00 0.0022472 486.26 554.38 1.8745 2.0837 2.8566 710.49 -0.00080057 73.464 0.089801
129.38 4451.0 undefined 488.34 557.31 1.8797 445.00 0.0022472 488.34 557.31 1.8797 2.0878 2.8572 712.24 -0.00083950 73.484 0.089919 445.00 0.0022472 488.34 557.31 1.8797 2.0878 2.8572 712.24 -0.00083950 73.484 0.089919
130.38 4505.3 undefined 490.43 560.24 1.8849 445.00 0.0022472 490.43 560.24 1.8849 2.0920 2.8578 713.99 -0.00087785 73.505 0.090038 445.00 0.0022472 490.43 560.24 1.8849 2.0920 2.8578 713.99 -0.00087785 73.505 0.090038
131.38 4559.6 undefined 492.53 563.17 1.8901 445.00 0.0022472 492.53 563.17 1.8901 2.0961 2.8585 715.73 -0.00091564 73.525 0.090157 445.00 0.0022472 492.53 563.17 1.8901 2.0961 2.8585 715.73 -0.00091564 73.525 0.090157
132.38 4613.9 undefined 494.63 566.11 1.8952 445.00 0.0022472 494.63 566.11 1.8952 2.1002 2.8593 717.47 -0.00095285 73.546 0.090276 445.00 0.0022472 494.63 566.11 1.8952 2.1002 2.8593 717.47 -0.00095285 73.546 0.090276
133.38 4668.2 undefined 496.73 569.06 1.9004 445.00 0.0022472 496.73 569.06 1.9004 2.1043 2.8601 719.19 -0.00098952 73.566 0.090395 445.00 0.0022472 496.73 569.06 1.9004 2.1043 2.8601 719.19 -0.00098952 73.566 0.090395
134.38 4722.5 undefined 498.83 572.00 1.9056 445.00 0.0022472 498.83 572.00 1.9056 2.1084 2.8609 720.91 -0.0010256 73.586 0.090515 445.00 0.0022472 498.83 572.00 1.9056 2.1084 2.8609 720.91 -0.0010256 73.586 0.090515
135.38 4776.8 undefined 500.94 574.95 1.9108 445.00 0.0022472 500.94 574.95 1.9108 2.1125 2.8618 722.62 -0.0010612 73.607 0.090634 445.00 0.0022472 500.94 574.95 1.9108 2.1125 2.8618 722.62 -0.0010612 73.607 0.090634
136.38 4831.0 undefined 503.06 577.91 1.9159 445.00 0.0022472 503.06 577.91 1.9159 2.1166 2.8627 724.32 -0.0010963 73.627 0.090755 445.00 0.0022472 503.06 577.91 1.9159 2.1166 2.8627 724.32 -0.0010963 73.627 0.090755
137.38 4885.3 undefined 505.18 580.87 1.9211 445.00 0.0022472 505.18 580.87 1.9211 2.1207 2.8636 726.02 -0.0011309 73.648 0.090875 445.00 0.0022472 505.18 580.87 1.9211 2.1207 2.8636 726.02 -0.0011309 73.648 0.090875
138.38 4939.5 undefined 507.30 583.83 1.9263 445.00 0.0022472 507.30 583.83 1.9263 2.1248 2.8646 727.71 -0.0011649 73.668 0.090996 445.00 0.0022472 507.30 583.83 1.9263 2.1248 2.8646 727.71 -0.0011649 73.668 0.090996
139.38 4993.8 undefined 509.43 586.80 1.9314 445.00 0.0022472 509.43 586.80 1.9314 2.1289 2.8656 729.39 -0.0011985 73.689 0.091117 445.00 0.0022472 509.43 586.80 1.9314 2.1289 2.8656 729.39 -0.0011985 73.689 0.091117
140.38 5048.0 undefined 511.56 589.77 1.9366 445.00 0.0022472 511.56 589.77 1.9366 2.1330 2.8666 731.06 -0.0012316 73.709 0.091239 445.00 0.0022472 511.56 589.77 1.9366 2.1330 2.8666 731.06 -0.0012316 73.709 0.091239
141.38 5102.2 undefined 513.69 592.75 1.9417 445.00 0.0022472 513.69 592.75 1.9417 2.1371 2.8677 732.73 -0.0012642 73.730 0.091360 445.00 0.0022472 513.69 592.75 1.9417 2.1371 2.8677 732.73 -0.0012642 73.730 0.091360
142.38 5156.4 undefined 515.83 595.72 1.9469 445.00 0.0022472 515.83 595.72 1.9469 2.1412 2.8688 734.39 -0.0012964 73.750 0.091482 445.00 0.0022472 515.83 595.72 1.9469 2.1412 2.8688 734.39 -0.0012964 73.750 0.091482
143.38 5210.6 undefined 517.98 598.71 1.9520 445.00 0.0022472 517.98 598.71 1.9520 2.1453 2.8700 736.05 -0.0013280 73.771 0.091605 445.00 0.0022472 517.98 598.71 1.9520 2.1453 2.8700 736.05 -0.0013280 73.771 0.091605
144.38 5264.7 undefined 520.12 601.69 1.9572 445.00 0.0022472 520.12 601.69 1.9572 2.1494 2.8712 737.69 -0.0013593 73.791 0.091727 445.00 0.0022472 520.12 601.69 1.9572 2.1494 2.8712 737.69 -0.0013593 73.791 0.091727
145.38 5318.9 undefined 522.27 604.68 1.9623 445.00 0.0022472 522.27 604.68 1.9623 2.1535 2.8724 739.34 -0.0013901 73.812 0.091850 445.00 0.0022472 522.27 604.68 1.9623 2.1535 2.8724 739.34 -0.0013901 73.812 0.091850
146.38 5373.0 undefined 524.43 607.68 1.9675 445.00 0.0022472 524.43 607.68 1.9675 2.1576 2.8736 740.97 -0.0014204 73.832 0.091974 445.00 0.0022472 524.43 607.68 1.9675 2.1576 2.8736 740.97 -0.0014204 73.832 0.091974
147.38 5427.2 undefined 526.59 610.68 1.9726 445.00 0.0022472 526.59 610.68 1.9726 2.1616 2.8749 742.60 -0.0014504 73.853 0.092097 445.00 0.0022472 526.59 610.68 1.9726 2.1616 2.8749 742.60 -0.0014504 73.853 0.092097
148.38 5481.3 undefined 528.75 613.68 1.9778 445.00 0.0022472 528.75 613.68 1.9778 2.1657 2.8762 744.22 -0.0014799 73.874 0.092221 445.00 0.0022472 528.75 613.68 1.9778 2.1657 2.8762 744.22 -0.0014799 73.874 0.092221
149.38 5535.4 undefined 530.92 616.69 1.9829 445.00 0.0022472 530.92 616.69 1.9829 2.1698 2.8775 745.84 -0.0015090 73.894 0.092345 445.00 0.0022472 530.92 616.69 1.9829 2.1698 2.8775 745.84 -0.0015090 73.894 0.092345
150.38 5589.5 undefined 533.09 619.70 1.9880 445.00 0.0022472 533.09 619.70 1.9880 2.1739 2.8788 747.45 -0.0015377 73.915 0.092470 445.00 0.0022472 533.09 619.70 1.9880 2.1739 2.8788 747.45 -0.0015377 73.915 0.092470
151.38 5643.6 undefined 535.27 622.71 1.9932 445.00 0.0022472 535.27 622.71 1.9932 2.1779 2.8802 749.05 -0.0015660 73.935 0.092594 445.00 0.0022472 535.27 622.71 1.9932 2.1779 2.8802 749.05 -0.0015660 73.935 0.092594
152.38 5697.6 undefined 537.45 625.73 1.9983 445.00 0.0022472 537.45 625.73 1.9983 2.1820 2.8816 750.65 -0.0015939 73.956 0.092719 445.00 0.0022472 537.45 625.73 1.9983 2.1820 2.8816 750.65 -0.0015939 73.956 0.092719
153.38 5751.7 undefined 539.63 628.75 2.0034 445.00 0.0022472 539.63 628.75 2.0034 2.1861 2.8831 752.24 -0.0016214 73.976 0.092845 445.00 0.0022472 539.63 628.75 2.0034 2.1861 2.8831 752.24 -0.0016214 73.976 0.092845
154.38 5805.7 undefined 541.82 631.77 2.0085 445.00 0.0022472 541.82 631.77 2.0085 2.1901 2.8845 753.83 -0.0016486 73.997 0.092970 445.00 0.0022472 541.82 631.77 2.0085 2.1901 2.8845 753.83 -0.0016486 73.997 0.092970
155.38 5859.7 undefined 544.01 634.80 2.0137 445.00 0.0022472 544.01 634.80 2.0137 2.1942 2.8860 755.40 -0.0016754 74.018 0.093096 445.00 0.0022472 544.01 634.80 2.0137 2.1942 2.8860 755.40 -0.0016754 74.018 0.093096
156.38 5913.7 undefined 546.21 637.84 2.0188 445.00 0.0022472 546.21 637.84 2.0188 2.1983 2.8875 756.98 -0.0017018 74.038 0.093222 445.00 0.0022472 546.21 637.84 2.0188 2.1983 2.8875 756.98 -0.0017018 74.038 0.093222
157.38 5967.7 undefined 548.41 640.87 2.0239 445.00 0.0022472 548.41 640.87 2.0239 2.2023 2.8890 758.55 -0.0017278 74.059 0.093349 445.00 0.0022472 548.41 640.87 2.0239 2.2023 2.8890 758.55 -0.0017278 74.059 0.093349
158.38 6021.7 undefined 550.61 643.91 2.0290 445.00 0.0022472 550.61 643.91 2.0290 2.2064 2.8906 760.11 -0.0017535 74.079 0.093476 445.00 0.0022472 550.61 643.91 2.0290 2.2064 2.8906 760.11 -0.0017535 74.079 0.093476
159.38 6075.7 undefined 552.82 646.96 2.0341 445.00 0.0022472 552.82 646.96 2.0341 2.2104 2.8922 761.67 -0.0017789 74.100 0.093603 445.00 0.0022472 552.82 646.96 2.0341 2.2104 2.8922 761.67 -0.0017789 74.100 0.093603
160.38 6129.6 undefined 555.03 650.01 2.0392 445.00 0.0022472 555.03 650.01 2.0392 2.2144 2.8938 763.22 -0.0018039 74.121 0.093730 445.00 0.0022472 555.03 650.01 2.0392 2.2144 2.8938 763.22 -0.0018039 74.121 0.093730
161.38 6183.6 undefined 557.25 653.06 2.0443 445.00 0.0022472 557.25 653.06 2.0443 2.2185 2.8954 764.76 -0.0018286 74.141 0.093858 445.00 0.0022472 557.25 653.06 2.0443 2.2185 2.8954 764.76 -0.0018286 74.141 0.093858
162.38 6237.5 undefined 559.47 656.11 2.0494 445.00 0.0022472 559.47 656.11 2.0494 2.2225 2.8970 766.30 -0.0018529 74.162 0.093986 445.00 0.0022472 559.47 656.11 2.0494 2.2225 2.8970 766.30 -0.0018529 74.162 0.093986
163.38 6291.4 undefined 561.70 659.17 2.0546 445.00 0.0022472 561.70 659.17 2.0546 2.2266 2.8987 767.84 -0.0018769 74.182 0.094114 445.00 0.0022472 561.70 659.17 2.0546 2.2266 2.8987 767.84 -0.0018769 74.182 0.094114
164.38 6345.3 undefined 563.92 662.24 2.0597 445.00 0.0022472 563.92 662.24 2.0597 2.2306 2.9004 769.37 -0.0019006 74.203 0.094243 445.00 0.0022472 563.92 662.24 2.0597 2.2306 2.9004 769.37 -0.0019006 74.203 0.094243
165.38 6399.1 undefined 566.16 665.30 2.0647 445.00 0.0022472 566.16 665.30 2.0647 2.2346 2.9021 770.89 -0.0019240 74.224 0.094372 445.00 0.0022472 566.16 665.30 2.0647 2.2346 2.9021 770.89 -0.0019240 74.224 0.094372
166.38 6453.0 undefined 568.39 668.38 2.0698 445.00 0.0022472 568.39 668.38 2.0698 2.2386 2.9038 772.41 -0.0019471 74.244 0.094501 445.00 0.0022472 568.39 668.38 2.0698 2.2386 2.9038 772.41 -0.0019471 74.244 0.094501
167.38 6506.8 undefined 570.63 671.45 2.0749 445.00 0.0022472 570.63 671.45 2.0749 2.2427 2.9056 773.93 -0.0019699 74.265 0.094631 445.00 0.0022472 570.63 671.45 2.0749 2.2427 2.9056 773.93 -0.0019699 74.265 0.094631
168.38 6560.7 undefined 572.88 674.53 2.0800 445.00 0.0022472 572.88 674.53 2.0800 2.2467 2.9073 775.44 -0.0019923 74.286 0.094760 445.00 0.0022472 572.88 674.53 2.0800 2.2467 2.9073 775.44 -0.0019923 74.286 0.094760
169.38 6614.5 undefined 575.13 677.61 2.0851 445.00 0.0022472 575.13 677.61 2.0851 2.2507 2.9091 776.94 -0.0020145 74.306 0.094890 445.00 0.0022472 575.13 677.61 2.0851 2.2507 2.9091 776.94 -0.0020145 74.306 0.094890
170.38 6668.3 undefined 577.38 680.70 2.0902 445.00 0.0022472 577.38 680.70 2.0902 2.2547 2.9109 778.44 -0.0020364 74.327 0.095021 445.00 0.0022472 577.38 680.70 2.0902 2.2547 2.9109 778.44 -0.0020364 74.327 0.095021
171.38 6722.0 undefined 579.64 683.79 2.0953 445.00 0.0022472 579.64 683.79 2.0953 2.2587 2.9127 779.93 -0.0020580 74.348 0.095151 445.00 0.0022472 579.64 683.79 2.0953 2.2587 2.9127 779.93 -0.0020580 74.348 0.095151
172.38 6775.8 undefined 581.90 686.88 2.1004 445.00 0.0022472 581.90 686.88 2.1004 2.2627 2.9145 781.42 -0.0020793 74.368 0.095282 445.00 0.0022472 581.90 686.88 2.1004 2.2627 2.9145 781.42 -0.0020793 74.368 0.095282
173.38 6829.5 undefined 584.16 689.98 2.1054 445.00 0.0022472 584.16 689.98 2.1054 2.2667 2.9164 782.91 -0.0021004 74.389 0.095414 445.00 0.0022472 584.16 689.98 2.1054 2.2667 2.9164 782.91 -0.0021004 74.389 0.095414
174.38 6883.3 undefined 586.43 693.08 2.1105 445.00 0.0022472 586.43 693.08 2.1105 2.2707 2.9183 784.38 -0.0021212 74.409 0.095545 445.00 0.0022472 586.43 693.08 2.1105 2.2707 2.9183 784.38 -0.0021212 74.409 0.095545
175.38 6937.0 undefined 588.70 696.18 2.1156 445.00 0.0022472 588.70 696.18 2.1156 2.2747 2.9201 785.86 -0.0021417 74.430 0.095677 445.00 0.0022472 588.70 696.18 2.1156 2.2747 2.9201 785.86 -0.0021417 74.430 0.095677
176.38 6990.7 undefined 590.98 699.29 2.1207 445.00 0.0022472 590.98 699.29 2.1207 2.2787 2.9220 787.33 -0.0021619 74.451 0.095809 445.00 0.0022472 590.98 699.29 2.1207 2.2787 2.9220 787.33 -0.0021619 74.451 0.095809
177.38 7044.3 undefined 593.26 702.41 2.1257 445.00 0.0022472 593.26 702.41 2.1257 2.2827 2.9240 788.79 -0.0021819 74.471 0.095942 445.00 0.0022472 593.26 702.41 2.1257 2.2827 2.9240 788.79 -0.0021819 74.471 0.095942
178.38 7098.0 undefined 595.55 705.52 2.1308 445.00 0.0022472 595.55 705.52 2.1308 2.2866 2.9259 790.25 -0.0022016 74.492 0.096074 445.00 0.0022472 595.55 705.52 2.1308 2.2866 2.9259 790.25 -0.0022016 74.492 0.096074
179.38 7151.6 undefined 597.83 708.64 2.1358 445.00 0.0022472 597.83 708.64 2.1358 2.2906 2.9278 791.71 -0.0022211 74.513 0.096207 445.00 0.0022472 597.83 708.64 2.1358 2.2906 2.9278 791.71 -0.0022211 74.513 0.096207
180.38 7205.3 undefined 600.13 711.76 2.1409 445.00 0.0022472 600.13 711.76 2.1409 2.2946 2.9298 793.16 -0.0022403 74.533 0.096340 445.00 0.0022472 600.13 711.76 2.1409 2.2946 2.9298 793.16 -0.0022403 74.533 0.096340
181.38 7258.9 undefined 602.42 714.89 2.1460 445.00 0.0022472 602.42 714.89 2.1460 2.2985 2.9318 794.61 -0.0022593 74.554 0.096474 445.00 0.0022472 602.42 714.89 2.1460 2.2985 2.9318 794.61 -0.0022593 74.554 0.096474
182.38 7312.5 undefined 604.72 718.02 2.1510 445.00 0.0022472 604.72 718.02 2.1510 2.3025 2.9337 796.05 -0.0022780 74.575 0.096608 445.00 0.0022472 604.72 718.02 2.1510 2.3025 2.9337 796.05 -0.0022780 74.575 0.096608
183.38 7366.0 undefined 607.03 721.16 2.1561 445.00 0.0022472 607.03 721.16 2.1561 2.3065 2.9357 797.49 -0.0022965 74.595 0.096742 445.00 0.0022472 607.03 721.16 2.1561 2.3065 2.9357 797.49 -0.0022965 74.595 0.096742
184.38 7419.6 undefined 609.34 724.30 2.1611 445.00 0.0022472 609.34 724.30 2.1611 2.3104 2.9378 798.92 -0.0023148 74.616 0.096877 445.00 0.0022472 609.34 724.30 2.1611 2.3104 2.9378 798.92 -0.0023148 74.616 0.096877
185.38 7473.1 undefined 611.65 727.44 2.1662 445.00 0.0022472 611.65 727.44 2.1662 2.3144 2.9398 800.35 -0.0023329 74.637 0.097011 445.00 0.0022472 611.65 727.44 2.1662 2.3144 2.9398 800.35 -0.0023329 74.637 0.097011
186.38 7526.6 undefined 613.97 730.58 2.1712 445.00 0.0022472 613.97 730.58 2.1712 2.3183 2.9418 801.77 -0.0023507 74.657 0.097146 445.00 0.0022472 613.97 730.58 2.1712 2.3183 2.9418 801.77 -0.0023507 74.657 0.097146
187.38 7580.2 undefined 616.29 733.73 2.1763 445.00 0.0022472 616.29 733.73 2.1763 2.3223 2.9439 803.19 -0.0023683 74.678 0.097282 445.00 0.0022472 616.29 733.73 2.1763 2.3223 2.9439 803.19 -0.0023683 74.678 0.097282
188.38 7633.6 undefined 618.61 736.88 2.1813 445.00 0.0022472 618.61 736.88 2.1813 2.3262 2.9459 804.61 -0.0023856 74.699 0.097417 445.00 0.0022472 618.61 736.88 2.1813 2.3262 2.9459 804.61 -0.0023856 74.699 0.097417
189.38 7687.1 undefined 620.94 740.04 2.1863 445.00 0.0022472 620.94 740.04 2.1863 2.3301 2.9480 806.02 -0.0024028 74.719 0.097553 445.00 0.0022472 620.94 740.04 2.1863 2.3301 2.9480 806.02 -0.0024028 74.719 0.097553
190.38 7740.5 undefined 623.27 743.20 2.1914 445.00 0.0022472 623.27 743.20 2.1914 2.3341 2.9501 807.43 -0.0024197 74.740 0.097689 445.00 0.0022472 623.27 743.20 2.1914 2.3341 2.9501 807.43 -0.0024197 74.740 0.097689
191.38 7794.0 undefined 625.61 746.37 2.1964 445.00 0.0022472 625.61 746.37 2.1964 2.3380 2.9522 808.83 -0.0024365 74.761 0.097826 445.00 0.0022472 625.61 746.37 2.1964 2.3380 2.9522 808.83 -0.0024365 74.761 0.097826
192.38 7847.4 undefined 627.95 749.53 2.2015 445.00 0.0022472 627.95 749.53 2.2015 2.3419 2.9543 810.23 -0.0024530 74.781 0.097962 445.00 0.0022472 627.95 749.53 2.2015 2.3419 2.9543 810.23 -0.0024530 74.781 0.097962
193.38 7900.8 undefined 630.29 752.70 2.2065 445.00 0.0022472 630.29 752.70 2.2065 2.3458 2.9564 811.63 -0.0024693 74.802 0.098101 445.00 0.0022472 630.29 752.70 2.2065 2.3458 2.9564 811.63 -0.0024693 74.802 0.098101
194.38 7954.2 undefined 632.64 755.88 2.2115 445.00 0.0022472 632.64 755.88 2.2115 2.3498 2.9586 813.02 -0.0024854 74.823 0.098241 445.00 0.0022472 632.64 755.88 2.2115 2.3498 2.9586 813.02 -0.0024854 74.823 0.098241
195.38 8007.5 undefined 634.99 759.06 2.2165 445.00 0.0022472 634.99 759.06 2.2165 2.3537 2.9607 814.40 -0.0025013 74.843 0.098382 445.00 0.0022472 634.99 759.06 2.2165 2.3537 2.9607 814.40 -0.0025013 74.843 0.098382
196.38 8060.8 undefined 637.35 762.24 2.2216 445.00 0.0022472 637.35 762.24 2.2216 2.3576 2.9629 815.79 -0.0025170 74.864 0.098522 445.00 0.0022472 637.35 762.24 2.2216 2.3576 2.9629 815.79 -0.0025170 74.864 0.098522
197.38 8114.2 undefined 639.71 765.42 2.2266 445.00 0.0022472 639.71 765.42 2.2266 2.3615 2.9650 817.17 -0.0025326 74.885 0.098663 445.00 0.0022472 639.71 765.42 2.2266 2.3615 2.9650 817.17 -0.0025326 74.885 0.098663
198.38 8167.5 undefined 642.07 768.61 2.2316 445.00 0.0022472 642.07 768.61 2.2316 2.3654 2.9672 818.54 -0.0025479 74.905 0.098805 445.00 0.0022472 642.07 768.61 2.2316 2.3654 2.9672 818.54 -0.0025479 74.905 0.098805
199.38 8220.7 undefined 644.44 771.81 2.2366 445.00 0.0022472 644.44 771.81 2.2366 2.3693 2.9694 819.91 -0.0025631 74.926 0.098946 445.00 0.0022472 644.44 771.81 2.2366 2.3693 2.9694 819.91 -0.0025631 74.926 0.098946
200.38 8274.0 undefined 646.81 775.00 2.2416 445.00 0.0022472 646.81 775.00 2.2416 2.3732 2.9716 821.28 -0.0025780 74.946 0.099088 445.00 0.0022472 646.81 775.00 2.2416 2.3732 2.9716 821.28 -0.0025780 74.946 0.099088
201.38 8327.2 undefined 649.18 778.20 2.2466 445.00 0.0022472 649.18 778.20 2.2466 2.3771 2.9738 822.64 -0.0025928 74.967 0.099230 445.00 0.0022472 649.18 778.20 2.2466 2.3771 2.9738 822.64 -0.0025928 74.967 0.099230
202.38 8380.5 undefined 651.56 781.41 2.2516 445.00 0.0022472 651.56 781.41 2.2516 2.3809 2.9760 824.00 -0.0026074 74.988 0.099373 445.00 0.0022472 651.56 781.41 2.2516 2.3809 2.9760 824.00 -0.0026074 74.988 0.099373
203.38 8433.7 undefined 653.94 784.61 2.2566 445.00 0.0022472 653.94 784.61 2.2566 2.3848 2.9782 825.36 -0.0026218 75.008 0.099516 445.00 0.0022472 653.94 784.61 2.2566 2.3848 2.9782 825.36 -0.0026218 75.008 0.099516
204.38 8486.9 undefined 656.33 787.83 2.2616 445.00 0.0022472 656.33 787.83 2.2616 2.3887 2.9805 826.71 -0.0026361 75.029 0.099659 445.00 0.0022472 656.33 787.83 2.2616 2.3887 2.9805 826.71 -0.0026361 75.029 0.099659
205.38 8540.0 undefined 658.72 791.04 2.2666 445.00 0.0022472 658.72 791.04 2.2666 2.3926 2.9827 828.06 -0.0026502 75.050 0.099802 445.00 0.0022472 658.72 791.04 2.2666 2.3926 2.9827 828.06 -0.0026502 75.050 0.099802
206.38 8593.2 undefined 661.12 794.26 2.2716 445.00 0.0022472 661.12 794.26 2.2716 2.3964 2.9850 829.41 -0.0026641 75.070 0.099946 445.00 0.0022472 661.12 794.26 2.2716 2.3964 2.9850 829.41 -0.0026641 75.070 0.099946
207.38 8646.3 undefined 663.51 797.48 2.2766 445.00 0.0022472 663.51 797.48 2.2766 2.4003 2.9872 830.75 -0.0026778 75.091 0.10009 445.00 0.0022472 663.51 797.48 2.2766 2.4003 2.9872 830.75 -0.0026778 75.091 0.10009
208.38 8699.4 undefined 665.92 800.70 2.2816 445.00 0.0022472 665.92 800.70 2.2816 2.4041 2.9895 832.09 -0.0026914 75.112 0.10023 445.00 0.0022472 665.92 800.70 2.2816 2.4041 2.9895 832.09 -0.0026914 75.112 0.10023
209.38 8752.5 undefined 668.32 803.93 2.2866 445.00 0.0022472 668.32 803.93 2.2866 2.4080 2.9918 833.42 -0.0027048 75.132 0.10038 445.00 0.0022472 668.32 803.93 2.2866 2.4080 2.9918 833.42 -0.0027048 75.132 0.10038
210.38 8805.6 undefined 670.73 807.16 2.2916 445.00 0.0022472 670.73 807.16 2.2916 2.4118 2.9941 834.75 -0.0027181 75.153 0.10052 445.00 0.0022472 670.73 807.16 2.2916 2.4118 2.9941 834.75 -0.0027181 75.153 0.10052
211.38 8858.6 undefined 673.15 810.40 2.2966 445.00 0.0022472 673.15 810.40 2.2966 2.4157 2.9963 836.08 -0.0027312 75.173 0.10067 445.00 0.0022472 673.15 810.40 2.2966 2.4157 2.9963 836.08 -0.0027312 75.173 0.10067
212.38 8911.7 undefined 675.56 813.64 2.3016 445.00 0.0022472 675.56 813.64 2.3016 2.4195 2.9986 837.40 -0.0027441 75.194 0.10081 445.00 0.0022472 675.56 813.64 2.3016 2.4195 2.9986 837.40 -0.0027441 75.194 0.10081
213.38 8964.7 undefined 677.99 816.88 2.3066 445.00 0.0022472 677.99 816.88 2.3066 2.4233 3.0009 838.72 -0.0027569 75.215 0.10096 445.00 0.0022472 677.99 816.88 2.3066 2.4233 3.0009 838.72 -0.0027569 75.215 0.10096
214.38 9017.7 undefined 680.41 820.13 2.3116 445.00 0.0022472 680.41 820.13 2.3116 2.4272 3.0033 840.04 -0.0027695 75.235 0.10111 445.00 0.0022472 680.41 820.13 2.3116 2.4272 3.0033 840.04 -0.0027695 75.235 0.10111
215.38 9070.6 undefined 682.84 823.38 2.3165 445.00 0.0022472 682.84 823.38 2.3165 2.4310 3.0056 841.35 -0.0027820 75.256 0.10125 445.00 0.0022472 682.84 823.38 2.3165 2.4310 3.0056 841.35 -0.0027820 75.256 0.10125
216.38 9123.6 undefined 685.27 826.63 2.3215 445.00 0.0022472 685.27 826.63 2.3215 2.4348 3.0079 842.66 -0.0027943 75.277 0.10140 445.00 0.0022472 685.27 826.63 2.3215 2.4348 3.0079 842.66 -0.0027943 75.277 0.10140
217.38 9176.5 undefined 687.71 829.89 2.3265 445.00 0.0022472 687.71 829.89 2.3265 2.4386 3.0102 843.97 -0.0028065 75.297 0.10155 445.00 0.0022472 687.71 829.89 2.3265 2.4386 3.0102 843.97 -0.0028065 75.297 0.10155
218.38 9229.4 undefined 690.15 833.15 2.3314 445.00 0.0022472 690.15 833.15 2.3314 2.4424 3.0126 845.27 -0.0028186 75.318 0.10169 445.00 0.0022472 690.15 833.15 2.3314 2.4424 3.0126 845.27 -0.0028186 75.318 0.10169
219.38 9282.3 undefined 692.59 836.41 2.3364 445.00 0.0022472 692.59 836.41 2.3364 2.4463 3.0149 846.57 -0.0028305 75.338 0.10184 445.00 0.0022472 692.59 836.41 2.3364 2.4463 3.0149 846.57 -0.0028305 75.338 0.10184
220.38 9335.2 undefined 695.04 839.68 2.3414 445.00 0.0022472 695.04 839.68 2.3414 2.4501 3.0173 847.87 -0.0028422 75.359 0.10199 445.00 0.0022472 695.04 839.68 2.3414 2.4501 3.0173 847.87 -0.0028422 75.359 0.10199
221.38 9388.1 undefined 697.49 842.95 2.3463 445.00 0.0022472 697.49 842.95 2.3463 2.4539 3.0196 849.16 -0.0028538 75.380 0.10214 445.00 0.0022472 697.49 842.95 2.3463 2.4539 3.0196 849.16 -0.0028538 75.380 0.10214
222.38 9440.9 undefined 699.95 846.23 2.3513 445.00 0.0022472 699.95 846.23 2.3513 2.4576 3.0220 850.45 -0.0028653 75.400 0.10228 445.00 0.0022472 699.95 846.23 2.3513 2.4576 3.0220 850.45 -0.0028653 75.400 0.10228
223.38 9493.7 undefined 702.41 849.50 2.3563 445.00 0.0022472 702.41 849.50 2.3563 2.4614 3.0244 851.74 -0.0028767 75.421 0.10243 445.00 0.0022472 702.41 849.50 2.3563 2.4614 3.0244 851.74 -0.0028767 75.421 0.10243
224.38 9546.5 undefined 704.87 852.79 2.3612 445.00 0.0022472 704.87 852.79 2.3612 2.4652 3.0267 853.02 -0.0028879 75.441 0.10258 445.00 0.0022472 704.87 852.79 2.3612 2.4652 3.0267 853.02 -0.0028879 75.441 0.10258
225.38 9599.3 undefined 707.34 856.07 2.3662 445.00 0.0022472 707.34 856.07 2.3662 2.4690 3.0291 854.30 -0.0028990 75.462 0.10273 445.00 0.0022472 707.34 856.07 2.3662 2.4690 3.0291 854.30 -0.0028990 75.462 0.10273
226.38 9652.0 undefined 709.81 859.36 2.3711 445.00 0.0022472 709.81 859.36 2.3711 2.4728 3.0315 855.58 -0.0029099 75.483 0.10288 445.00 0.0022472 709.81 859.36 2.3711 2.4728 3.0315 855.58 -0.0029099 75.483 0.10288
227.38 9704.8 undefined 712.29 862.65 2.3761 445.00 0.0022472 712.29 862.65 2.3761 2.4765 3.0339 856.85 -0.0029208 75.503 0.10303 445.00 0.0022472 712.29 862.65 2.3761 2.4765 3.0339 856.85 -0.0029208 75.503 0.10303
228.38 9757.5 undefined 714.76 865.95 2.3810 445.00 0.0022472 714.76 865.95 2.3810 2.4803 3.0363 858.12 -0.0029315 75.524 0.10318 445.00 0.0022472 714.76 865.95 2.3810 2.4803 3.0363 858.12 -0.0029315 75.524 0.10318
229.38 9810.2 undefined 717.25 869.24 2.3860 445.00 0.0022472 717.25 869.24 2.3860 2.4841 3.0387 859.39 -0.0029420 75.544 0.10333 445.00 0.0022472 717.25 869.24 2.3860 2.4841 3.0387 859.39 -0.0029420 75.544 0.10333
230.38 9862.9 undefined 719.73 872.55 2.3909 445.00 0.0022472 719.73 872.55 2.3909 2.4878 3.0411 860.65 -0.0029525 75.565 0.10348 445.00 0.0022472 719.73 872.55 2.3909 2.4878 3.0411 860.65 -0.0029525 75.565 0.10348
231.38 9915.5 undefined 722.22 875.85 2.3958 445.00 0.0022472 722.22 875.85 2.3958 2.4916 3.0435 861.91 -0.0029628 75.585 0.10363 445.00 0.0022472 722.22 875.85 2.3958 2.4916 3.0435 861.91 -0.0029628 75.585 0.10363
232.38 9968.2 undefined 724.72 879.16 2.4008 445.00 0.0022472 724.72 879.16 2.4008 2.4953 3.0460 863.17 -0.0029730 75.606 0.10378 445.00 0.0022472 724.72 879.16 2.4008 2.4953 3.0460 863.17 -0.0029730 75.606 0.10378
233.38 10021. undefined 727.21 882.47 2.4057 445.00 0.0022472 727.21 882.47 2.4057 2.4991 3.0484 864.43 -0.0029831 75.626 0.10394 445.00 0.0022472 727.21 882.47 2.4057 2.4991 3.0484 864.43 -0.0029831 75.626 0.10394
234.38 10073. undefined 729.71 885.79 2.4107 445.00 0.0022472 729.71 885.79 2.4107 2.5028 3.0508 865.68 -0.0029931 75.647 0.10409 445.00 0.0022472 729.71 885.79 2.4107 2.5028 3.0508 865.68 -0.0029931 75.647 0.10409
235.38 10126. undefined 732.22 889.11 2.4156 445.00 0.0022472 732.22 889.11 2.4156 2.5066 3.0532 866.93 -0.0030029 75.667 0.10424 445.00 0.0022472 732.22 889.11 2.4156 2.5066 3.0532 866.93 -0.0030029 75.667 0.10424
236.38 10178. undefined 734.73 892.43 2.4205 445.00 0.0022472 734.73 892.43 2.4205 2.5103 3.0557 868.18 -0.0030127 75.688 0.10439 445.00 0.0022472 734.73 892.43 2.4205 2.5103 3.0557 868.18 -0.0030127 75.688 0.10439
237.38 10231. undefined 737.24 895.76 2.4254 445.00 0.0022472 737.24 895.76 2.4254 2.5140 3.0581 869.42 -0.0030223 75.709 0.10455 445.00 0.0022472 737.24 895.76 2.4254 2.5140 3.0581 869.42 -0.0030223 75.709 0.10455
238.38 10284. undefined 739.75 899.09 2.4304 445.00 0.0022472 739.75 899.09 2.4304 2.5177 3.0606 870.66 -0.0030318 75.729 0.10470 445.00 0.0022472 739.75 899.09 2.4304 2.5177 3.0606 870.66 -0.0030318 75.729 0.10470
239.38 10336. undefined 742.27 902.42 2.4353 445.00 0.0022472 742.27 902.42 2.4353 2.5214 3.0630 871.90 -0.0030412 75.750 0.10485 445.00 0.0022472 742.27 902.42 2.4353 2.5214 3.0630 871.90 -0.0030412 75.750 0.10485
240.38 10389. undefined 744.80 905.76 2.4402 445.00 0.0022472 744.80 905.76 2.4402 2.5252 3.0655 873.13 -0.0030505 75.770 0.10501 445.00 0.0022472 744.80 905.76 2.4402 2.5252 3.0655 873.13 -0.0030505 75.770 0.10501
241.38 10441. undefined 747.32 909.10 2.4451 445.00 0.0022472 747.32 909.10 2.4451 2.5289 3.0679 874.37 -0.0030597 75.791 0.10516 445.00 0.0022472 747.32 909.10 2.4451 2.5289 3.0679 874.37 -0.0030597 75.791 0.10516
242.38 10493. undefined 749.86 912.44 2.4500 445.00 0.0022472 749.86 912.44 2.4500 2.5326 3.0704 875.59 -0.0030688 75.811 0.10531 445.00 0.0022472 749.86 912.44 2.4500 2.5326 3.0704 875.59 -0.0030688 75.811 0.10531
243.38 10546. undefined 752.39 915.79 2.4549 445.00 0.0022472 752.39 915.79 2.4549 2.5363 3.0728 876.82 -0.0030778 75.832 0.10547 445.00 0.0022472 752.39 915.79 2.4549 2.5363 3.0728 876.82 -0.0030778 75.832 0.10547
244.38 10598. undefined 754.93 919.13 2.4598 445.00 0.0022472 754.93 919.13 2.4598 2.5400 3.0753 878.04 -0.0030867 75.852 0.10562 445.00 0.0022472 754.93 919.13 2.4598 2.5400 3.0753 878.04 -0.0030867 75.852 0.10562
245.38 10651. undefined 757.47 922.49 2.4648 445.00 0.0022472 757.47 922.49 2.4648 2.5437 3.0778 879.27 -0.0030954 75.873 0.10578 445.00 0.0022472 757.47 922.49 2.4648 2.5437 3.0778 879.27 -0.0030954 75.873 0.10578
246.38 10703. undefined 760.02 925.84 2.4697 445.00 0.0022472 760.02 925.84 2.4697 2.5473 3.0803 880.48 -0.0031041 75.893 0.10593 445.00 0.0022472 760.02 925.84 2.4697 2.5473 3.0803 880.48 -0.0031041 75.893 0.10593
247.38 10755. undefined 762.56 929.20 2.4746 445.00 0.0022472 762.56 929.20 2.4746 2.5510 3.0827 881.70 -0.0031127 75.913 0.10609 445.00 0.0022472 762.56 929.20 2.4746 2.5510 3.0827 881.70 -0.0031127 75.913 0.10609
248.38 10808. undefined 765.12 932.57 2.4795 445.00 0.0022472 765.12 932.57 2.4795 2.5547 3.0852 882.91 -0.0031212 75.934 0.10624 445.00 0.0022472 765.12 932.57 2.4795 2.5547 3.0852 882.91 -0.0031212 75.934 0.10624
249.38 10860. undefined 767.67 935.93 2.4844 445.00 0.0022472 767.67 935.93 2.4844 2.5584 3.0877 884.12 -0.0031296 75.954 0.10640 445.00 0.0022472 767.67 935.93 2.4844 2.5584 3.0877 884.12 -0.0031296 75.954 0.10640
250.38 10912. undefined 770.23 939.30 2.4893 445.00 0.0022472 770.23 939.30 2.4893 2.5620 3.0902 885.33 -0.0031378 75.975 0.10656 445.00 0.0022472 770.23 939.30 2.4893 2.5620 3.0902 885.33 -0.0031378 75.975 0.10656
251.38 10964. undefined 772.80 942.68 2.4941 445.00 0.0022472 772.80 942.68 2.4941 2.5657 3.0927 886.53 -0.0031460 75.995 0.10671 445.00 0.0022472 772.80 942.68 2.4941 2.5657 3.0927 886.53 -0.0031460 75.995 0.10671
252.38 11017. undefined 775.37 946.05 2.4990 445.00 0.0022472 775.37 946.05 2.4990 2.5693 3.0952 887.73 -0.0031541 76.016 0.10687 445.00 0.0022472 775.37 946.05 2.4990 2.5693 3.0952 887.73 -0.0031541 76.016 0.10687
253.38 11069. undefined 777.94 949.44 2.5039 445.00 0.0022472 777.94 949.44 2.5039 2.5730 3.0977 888.93 -0.0031621 76.036 0.10703 445.00 0.0022472 777.94 949.44 2.5039 2.5730 3.0977 888.93 -0.0031621 76.036 0.10703
254.38 11121. undefined 780.51 952.82 2.5088 445.00 0.0022472 780.51 952.82 2.5088 2.5766 3.1002 890.13 -0.0031700 76.057 0.10719 445.00 0.0022472 780.51 952.82 2.5088 2.5766 3.1002 890.13 -0.0031700 76.057 0.10719
255.38 11173. undefined 783.09 956.21 2.5137 445.00 0.0022472 783.09 956.21 2.5137 2.5803 3.1027 891.32 -0.0031779 76.077 0.10734 445.00 0.0022472 783.09 956.21 2.5137 2.5803 3.1027 891.32 -0.0031779 76.077 0.10734
256.38 11225. undefined 785.67 959.60 2.5186 445.00 0.0022472 785.67 959.60 2.5186 2.5839 3.1052 892.51 -0.0031856 76.097 0.10750 445.00 0.0022472 785.67 959.60 2.5186 2.5839 3.1052 892.51 -0.0031856 76.097 0.10750
257.38 11277. undefined 788.26 962.99 2.5235 445.00 0.0022472 788.26 962.99 2.5235 2.5876 3.1077 893.70 -0.0031932 76.118 0.10766 445.00 0.0022472 788.26 962.99 2.5235 2.5876 3.1077 893.70 -0.0031932 76.118 0.10766
258.38 11330. undefined 790.85 966.39 2.5283 445.00 0.0022472 790.85 966.39 2.5283 2.5912 3.1102 894.89 -0.0032008 76.138 0.10782 445.00 0.0022472 790.85 966.39 2.5283 2.5912 3.1102 894.89 -0.0032008 76.138 0.10782
259.38 11382. undefined 793.44 969.79 2.5332 445.00 0.0022472 793.44 969.79 2.5332 2.5948 3.1127 896.07 -0.0032083 76.159 0.10798 445.00 0.0022472 793.44 969.79 2.5332 2.5948 3.1127 896.07 -0.0032083 76.159 0.10798
260.38 11434. undefined 796.04 973.19 2.5381 445.00 0.0022472 796.04 973.19 2.5381 2.5984 3.1152 897.25 -0.0032157 76.179 0.10814 445.00 0.0022472 796.04 973.19 2.5381 2.5984 3.1152 897.25 -0.0032157 76.179 0.10814
261.38 11486. undefined 798.64 976.60 2.5429 445.00 0.0022472 798.64 976.60 2.5429 2.6020 3.1178 898.43 -0.0032230 76.199 0.10830 445.00 0.0022472 798.64 976.60 2.5429 2.6020 3.1178 898.43 -0.0032230 76.199 0.10830
262.38 11538. undefined 801.24 980.01 2.5478 445.00 0.0022472 801.24 980.01 2.5478 2.6056 3.1203 899.61 -0.0032302 76.220 0.10846 445.00 0.0022472 801.24 980.01 2.5478 2.6056 3.1203 899.61 -0.0032302 76.220 0.10846
263.38 11590. undefined 803.85 983.42 2.5527 445.00 0.0022472 803.85 983.42 2.5527 2.6093 3.1228 900.78 -0.0032373 76.240 0.10862 445.00 0.0022472 803.85 983.42 2.5527 2.6093 3.1228 900.78 -0.0032373 76.240 0.10862
264.38 11642. undefined 806.46 986.83 2.5575 445.00 0.0022472 806.46 986.83 2.5575 2.6129 3.1253 901.95 -0.0032444 76.260 0.10878 445.00 0.0022472 806.46 986.83 2.5575 2.6129 3.1253 901.95 -0.0032444 76.260 0.10878
265.38 11694. undefined 809.07 990.25 2.5624 445.00 0.0022472 809.07 990.25 2.5624 2.6165 3.1279 903.12 -0.0032513 76.281 0.10894 445.00 0.0022472 809.07 990.25 2.5624 2.6165 3.1279 903.12 -0.0032513 76.281 0.10894
266.38 11746. undefined 811.69 993.68 2.5673 445.00 0.0022472 811.69 993.68 2.5673 2.6200 3.1304 904.29 -0.0032582 76.301 0.10910 445.00 0.0022472 811.69 993.68 2.5673 2.6200 3.1304 904.29 -0.0032582 76.301 0.10910
267.38 11798. undefined 814.31 997.10 2.5721 445.00 0.0022472 814.31 997.10 2.5721 2.6236 3.1329 905.45 -0.0032651 76.321 0.10926 445.00 0.0022472 814.31 997.10 2.5721 2.6236 3.1329 905.45 -0.0032651 76.321 0.10926
268.38 11849. undefined 816.94 1000.5 2.5770 445.00 0.0022472 816.94 1000.5 2.5770 2.6272 3.1355 906.61 -0.0032718 76.342 0.10943 445.00 0.0022472 816.94 1000.5 2.5770 2.6272 3.1355 906.61 -0.0032718 76.342 0.10943
269.38 11901. undefined 819.57 1004.0 2.5818 445.00 0.0022472 819.57 1004.0 2.5818 2.6308 3.1380 907.77 -0.0032785 76.362 0.10959 445.00 0.0022472 819.57 1004.0 2.5818 2.6308 3.1380 907.77 -0.0032785 76.362 0.10959
270.38 11953. undefined 822.20 1007.4 2.5867 445.00 0.0022472 822.20 1007.4 2.5867 2.6344 3.1405 908.93 -0.0032850 76.382 0.10975 445.00 0.0022472 822.20 1007.4 2.5867 2.6344 3.1405 908.93 -0.0032850 76.382 0.10975
271.38 12005. undefined 824.84 1010.8 2.5915 445.00 0.0022472 824.84 1010.8 2.5915 2.6379 3.1431 910.08 -0.0032916 76.403 0.10991 445.00 0.0022472 824.84 1010.8 2.5915 2.6379 3.1431 910.08 -0.0032916 76.403 0.10991
272.38 12057. undefined 827.48 1014.3 2.5963 445.00 0.0022472 827.48 1014.3 2.5963 2.6415 3.1456 911.23 -0.0032980 76.423 0.11008 445.00 0.0022472 827.48 1014.3 2.5963 2.6415 3.1456 911.23 -0.0032980 76.423 0.11008
273.38 12109. undefined 830.12 1017.7 2.6012 445.00 0.0022472 830.12 1017.7 2.6012 2.6450 3.1481 912.38 -0.0033044 76.443 0.11024 445.00 0.0022472 830.12 1017.7 2.6012 2.6450 3.1481 912.38 -0.0033044 76.443 0.11024
274.38 12160. undefined 832.77 1021.2 2.6060 445.00 0.0022472 832.77 1021.2 2.6060 2.6486 3.1507 913.53 -0.0033107 76.463 0.11040 445.00 0.0022472 832.77 1021.2 2.6060 2.6486 3.1507 913.53 -0.0033107 76.463 0.11040
275.38 12212. undefined 835.42 1024.6 2.6109 445.00 0.0022472 835.42 1024.6 2.6109 2.6522 3.1532 914.67 -0.0033169 76.484 0.11057 445.00 0.0022472 835.42 1024.6 2.6109 2.6522 3.1532 914.67 -0.0033169 76.484 0.11057
276.38 12264. undefined 838.07 1028.1 2.6157 445.00 0.0022472 838.07 1028.1 2.6157 2.6557 3.1558 915.81 -0.0033230 76.504 0.11073 445.00 0.0022472 838.07 1028.1 2.6157 2.6557 3.1558 915.81 -0.0033230 76.504 0.11073
277.38 12316. undefined 840.73 1031.5 2.6205 445.00 0.0022472 840.73 1031.5 2.6205 2.6592 3.1583 916.95 -0.0033291 76.524 0.11090 445.00 0.0022472 840.73 1031.5 2.6205 2.6592 3.1583 916.95 -0.0033291 76.524 0.11090
278.38 12367. undefined 843.39 1035.0 2.6254 445.00 0.0022472 843.39 1035.0 2.6254 2.6628 3.1609 918.09 -0.0033351 76.544 0.11106 445.00 0.0022472 843.39 1035.0 2.6254 2.6628 3.1609 918.09 -0.0033351 76.544 0.11106
279.38 12419. undefined 846.05 1038.5 2.6302 445.00 0.0022472 846.05 1038.5 2.6302 2.6663 3.1634 919.23 -0.0033411 76.565 0.11123 445.00 0.0022472 846.05 1038.5 2.6302 2.6663 3.1634 919.23 -0.0033411 76.565 0.11123
280.38 12471. undefined 848.72 1041.9 2.6350 445.00 0.0022472 848.72 1041.9 2.6350 2.6698 3.1660 920.36 -0.0033469 76.585 0.11139 445.00 0.0022472 848.72 1041.9 2.6350 2.6698 3.1660 920.36 -0.0033469 76.585 0.11139
281.38 12522. undefined 851.39 1045.4 2.6398 445.00 0.0022472 851.39 1045.4 2.6398 2.6734 3.1685 921.49 -0.0033528 76.605 0.11156 445.00 0.0022472 851.39 1045.4 2.6398 2.6734 3.1685 921.49 -0.0033528 76.605 0.11156
282.38 12574. undefined 854.07 1048.9 2.6447 445.00 0.0022472 854.07 1048.9 2.6447 2.6769 3.1711 922.62 -0.0033585 76.625 0.11133 445.00 0.0022472 854.07 1048.9 2.6447 2.6769 3.1711 922.62 -0.0033585 76.625 0.11133
283.38 12626. undefined 856.75 1052.4 2.6495 445.00 0.0022472 856.75 1052.4 2.6495 2.6804 3.1736 923.75 -0.0033642 76.645 0.11150 445.00 0.0022472 856.75 1052.4 2.6495 2.6804 3.1736 923.75 -0.0033642 76.645 0.11150
284.38 12677. undefined 859.43 1055.8 2.6543 445.00 0.0022472 859.43 1055.8 2.6543 2.6839 3.1762 924.87 -0.0033698 76.666 0.11166 445.00 0.0022472 859.43 1055.8 2.6543 2.6839 3.1762 924.87 -0.0033698 76.666 0.11166
285.38 12729. undefined 862.12 1059.3 2.6591 445.00 0.0022472 862.12 1059.3 2.6591 2.6874 3.1787 925.99 -0.0033753 76.686 0.11183 445.00 0.0022472 862.12 1059.3 2.6591 2.6874 3.1787 925.99 -0.0033753 76.686 0.11183
286.38 12780. undefined 864.80 1062.8 2.6639 445.00 0.0022472 864.80 1062.8 2.6639 2.6909 3.1813 927.11 -0.0033808 76.706 0.11200 445.00 0.0022472 864.80 1062.8 2.6639 2.6909 3.1813 927.11 -0.0033808 76.706 0.11200
287.38 12832. undefined 867.50 1066.3 2.6687 445.00 0.0022472 867.50 1066.3 2.6687 2.6944 3.1839 928.23 -0.0033863 76.726 0.11216 445.00 0.0022472 867.50 1066.3 2.6687 2.6944 3.1839 928.23 -0.0033863 76.726 0.11216
288.38 12883. undefined 870.19 1069.8 2.6735 445.00 0.0022472 870.19 1069.8 2.6735 2.6979 3.1864 929.34 -0.0033916 76.746 0.11233 445.00 0.0022472 870.19 1069.8 2.6735 2.6979 3.1864 929.34 -0.0033916 76.746 0.11233
289.38 12935. undefined 872.89 1073.3 2.6783 445.00 0.0022472 872.89 1073.3 2.6783 2.7014 3.1890 930.46 -0.0033969 76.766 0.11250 445.00 0.0022472 872.89 1073.3 2.6783 2.7014 3.1890 930.46 -0.0033969 76.766 0.11250
290.38 12986. undefined 875.60 1076.8 2.6831 445.00 0.0022472 875.60 1076.8 2.6831 2.7048 3.1915 931.57 -0.0034022 76.787 0.11266 445.00 0.0022472 875.60 1076.8 2.6831 2.7048 3.1915 931.57 -0.0034022 76.787 0.11266
291.38 13038. undefined 878.30 1080.3 2.6879 445.00 0.0022472 878.30 1080.3 2.6879 2.7083 3.1941 932.68 -0.0034073 76.807 0.11283 445.00 0.0022472 878.30 1080.3 2.6879 2.7083 3.1941 932.68 -0.0034073 76.807 0.11283
292.38 13089. undefined 881.01 1083.8 2.6927 445.00 0.0022472 881.01 1083.8 2.6927 2.7118 3.1967 933.78 -0.0034125 76.827 0.11300 445.00 0.0022472 881.01 1083.8 2.6927 2.7118 3.1967 933.78 -0.0034125 76.827 0.11300
293.38 13140. undefined 883.73 1087.3 2.6975 445.00 0.0022472 883.73 1087.3 2.6975 2.7152 3.1992 934.89 -0.0034175 76.847 0.11317 445.00 0.0022472 883.73 1087.3 2.6975 2.7152 3.1992 934.89 -0.0034175 76.847 0.11317
294.38 13192. undefined 886.44 1090.8 2.7023 445.00 0.0022472 886.44 1090.8 2.7023 2.7187 3.2018 935.99 -0.0034225 76.867 0.11334 445.00 0.0022472 886.44 1090.8 2.7023 2.7187 3.2018 935.99 -0.0034225 76.867 0.11334
295.38 13243. undefined 889.16 1094.3 2.7071 445.00 0.0022472 889.16 1094.3 2.7071 2.7222 3.2043 937.09 -0.0034275 76.887 0.11350 445.00 0.0022472 889.16 1094.3 2.7071 2.7222 3.2043 937.09 -0.0034275 76.887 0.11350
296.38 13294. undefined 891.89 1097.9 2.7119 445.00 0.0022472 891.89 1097.9 2.7119 2.7256 3.2069 938.19 -0.0034324 76.907 0.11367 445.00 0.0022472 891.89 1097.9 2.7119 2.7256 3.2069 938.19 -0.0034324 76.907 0.11367
297.38 13346. undefined 894.61 1101.4 2.7167 445.00 0.0022472 894.61 1101.4 2.7167 2.7291 3.2095 939.28 -0.0034372 76.927 0.11384 445.00 0.0022472 894.61 1101.4 2.7167 2.7291 3.2095 939.28 -0.0034372 76.927 0.11384
298.38 13397. undefined 897.35 1104.9 2.7214 445.00 0.0022472 897.35 1104.9 2.7214 2.7325 3.2120 940.38 -0.0034420 76.947 0.11401 445.00 0.0022472 897.35 1104.9 2.7214 2.7325 3.2120 940.38 -0.0034420 76.947 0.11401
299.38 13448. undefined 900.08 1108.4 2.7262 445.00 0.0022472 900.08 1108.4 2.7262 2.7359 3.2146 941.47 -0.0034467 76.967 0.11418 445.00 0.0022472 900.08 1108.4 2.7262 2.7359 3.2146 941.47 -0.0034467 76.967 0.11418
300.38 13499. undefined 902.82 1112.0 2.7310 445.00 0.0022472 902.82 1112.0 2.7310 2.7394 3.2172 942.56 -0.0034514 76.987 0.11435 445.00 0.0022472 902.82 1112.0 2.7310 2.7394 3.2172 942.56 -0.0034514 76.987 0.11435