Temperature (C) Pressure (psia) Quality (l+v) Internal Energy (l+v, kJ/kg) Enthalpy (l+v, kJ/kg) Entropy (l+v, J/g*K) Density (l, kg/m3) Volume (l, m3/kg) Internal Energy (l, kJ/kg) Enthalpy (l, kJ/kg) Entropy (l, J/g*K) Cv (l, J/g*K) Cp (l, J/g*K) Sound Spd. (l, m/s) Joule-Thomson (l, F/psia) Viscosity (l, uPa*s) Therm. Cond. (l, W/m*K) Density (v, kg/m3) Volume (v, m3/kg) Internal Energy (v, kJ/kg) Enthalpy (v, kJ/kg) Entropy (v, J/g*K) Cv (v, J/g*K) Cp (v, J/g*K) Sound Spd. (v, m/s) Joule-Thomson (v, F/psia) Viscosity (v, uPa*s) Therm. Cond. (v, W/m*K)
-187.62 2.4953e-08 9.1559e-12 -196.64 -196.64 -1.3959 733.13 0.0013640 -196.64 -196.64 -1.3959 1.3553 1.9158 2136.4 -0.0077592 10960. 0.20792 1.0669e-08 9.3732e+07 350.13 366.26 5.1858 0.69067 0.87923 143.28 6.1051 2.3259 0.0017061
-186.62 3.7339e-08 1.3512e-11 -194.73 -194.73 -1.3736 732.08 0.0013660 -194.73 -194.73 -1.3736 1.3539 1.9166 2129.6 -0.0077546 10073. 0.20765 1.5780e-08 6.3371e+07 350.82 367.14 5.1200 0.69462 0.88317 144.03 5.9178 2.3534 0.0017533
-185.62 5.5322e-08 1.9745e-11 -192.81 -192.81 -1.3516 731.04 0.0013679 -192.81 -192.81 -1.3516 1.3525 1.9174 2122.9 -0.0077498 9276.1 0.20737 2.3112e-08 4.3267e+07 351.52 368.02 5.0561 0.69857 0.88713 144.77 5.7383 2.3808 0.0018007
-184.62 8.1182e-08 2.8582e-11 -190.89 -190.89 -1.3298 730.00 0.0013699 -190.89 -190.89 -1.3298 1.3513 1.9182 2116.1 -0.0077448 8557.8 0.20708 3.3533e-08 2.9821e+07 352.22 368.91 4.9939 0.70253 0.89108 145.51 5.5662 2.4083 0.0018485
-183.62 1.1803e-07 4.0999e-11 -188.97 -188.97 -1.3083 728.96 0.0013718 -188.97 -188.97 -1.3083 1.3501 1.9191 2109.3 -0.0077395 7909.8 0.20678 4.8211e-08 2.0742e+07 352.92 369.81 4.9333 0.70648 0.89504 146.24 5.4011 2.4357 0.0018965
-182.62 1.7009e-07 5.8292e-11 -187.05 -187.05 -1.2869 727.92 0.0013738 -187.05 -187.05 -1.2869 1.3490 1.9201 2102.5 -0.0077340 7324.3 0.20647 6.8704e-08 1.4555e+07 353.63 370.70 4.8744 0.71043 0.89899 146.97 5.2426 2.4632 0.0019448
-181.62 2.4299e-07 8.2176e-11 -185.13 -185.13 -1.2658 726.88 0.0013757 -185.13 -185.13 -1.2658 1.3480 1.9210 2095.7 -0.0077283 6794.5 0.20616 9.7079e-08 1.0301e+07 354.35 371.60 4.8170 0.71438 0.90294 147.69 5.0904 2.4906 0.0019934
-180.62 3.4425e-07 1.1490e-10 -183.21 -183.21 -1.2450 725.85 0.0013777 -183.21 -183.21 -1.2450 1.3470 1.9220 2088.9 -0.0077225 6314.4 0.20584 1.3605e-07 7.3504e+06 355.06 372.51 4.7612 0.71833 0.90688 148.41 4.9442 2.5181 0.0020423
-179.62 4.8378e-07 1.5937e-10 -181.29 -181.29 -1.2243 724.81 0.0013797 -181.29 -181.29 -1.2243 1.3461 1.9231 2082.0 -0.0077164 5878.8 0.20551 1.8915e-07 5.2868e+06 355.78 373.42 4.7068 0.72227 0.91082 149.13 4.8038 2.5456 0.0020915
-178.62 6.7459e-07 2.1936e-10 -179.37 -179.37 -1.2038 723.78 0.0013816 -179.37 -179.37 -1.2038 1.3453 1.9241 2075.2 -0.0077102 5482.9 0.20517 2.6096e-07 3.8320e+06 356.51 374.33 4.6538 0.72620 0.91475 149.84 4.6688 2.5731 0.0021410
-177.62 9.3358e-07 2.9970e-10 -177.44 -177.44 -1.1836 722.75 0.0013836 -177.44 -177.44 -1.1836 1.3445 1.9252 2068.4 -0.0077039 5122.6 0.20483 3.5737e-07 2.7982e+06 357.23 375.25 4.6022 0.73012 0.91867 150.54 4.5390 2.6005 0.0021907
-176.62 1.2826e-06 4.0651e-10 -175.52 -175.52 -1.1635 721.72 0.0013856 -175.52 -175.52 -1.1635 1.3437 1.9263 2061.5 -0.0076973 4794.1 0.20447 4.8588e-07 2.0581e+06 357.97 376.17 4.5519 0.73403 0.92258 151.25 4.4142 2.6280 0.0022408
-175.62 1.7496e-06 5.4755e-10 -173.59 -173.59 -1.1437 720.69 0.0013876 -173.59 -173.59 -1.1437 1.3430 1.9274 2054.7 -0.0076907 4494.3 0.20411 6.5601e-07 1.5244e+06 358.70 377.09 4.5029 0.73792 0.92648 151.95 4.2941 2.6555 0.0022912
-174.62 2.3705e-06 7.3256e-10 -171.66 -171.66 -1.1240 719.66 0.0013895 -171.66 -171.66 -1.1240 1.3423 1.9286 2047.9 -0.0076838 4220.2 0.20375 8.7976e-07 1.1367e+06 359.44 378.02 4.4551 0.74181 0.93036 152.64 4.1784 2.6830 0.0023418
-173.62 3.1903e-06 9.7369e-10 -169.73 -169.73 -1.1045 718.64 0.0013915 -169.73 -169.73 -1.1045 1.3417 1.9298 2041.0 -0.0076769 3969.3 0.20338 1.1721e-06 8.5314e+05 360.19 378.95 4.4085 0.74568 0.93423 153.33 4.0671 2.7105 0.0023928
-172.62 4.2661e-06 1.2860e-09 -167.80 -167.80 -1.0852 717.61 0.0013935 -167.80 -167.80 -1.0852 1.3411 1.9310 2034.2 -0.0076698 3739.3 0.20300 1.5518e-06 6.4441e+05 360.93 379.89 4.3631 0.74953 0.93809 154.02 3.9599 2.7379 0.0024440
-171.62 5.6692e-06 1.6881e-09 -165.87 -165.87 -1.0661 716.58 0.0013955 -165.87 -165.87 -1.0661 1.3405 1.9322 2027.3 -0.0076625 3528.0 0.20261 2.0419e-06 4.8974e+05 361.69 380.83 4.3188 0.75337 0.94193 154.71 3.8566 2.7654 0.0024955
-170.62 7.4884e-06 2.2026e-09 -163.94 -163.94 -1.0472 715.56 0.0013975 -163.94 -163.94 -1.0472 1.3400 1.9334 2020.5 -0.0076552 3333.8 0.20222 2.6708e-06 3.7442e+05 362.44 381.77 4.2755 0.75720 0.94575 155.39 3.7570 2.7929 0.0025473
-169.62 9.8334e-06 2.8575e-09 -162.00 -162.00 -1.0284 714.54 0.0013995 -162.00 -162.00 -1.0284 1.3395 1.9347 2013.6 -0.0076477 3154.9 0.20182 3.4733e-06 2.8791e+05 363.20 382.72 4.2334 0.76100 0.94956 156.07 3.6609 2.8204 0.0025994
-168.62 1.2839e-05 3.6864e-09 -160.07 -160.07 -1.0098 713.52 0.0014015 -160.07 -160.07 -1.0098 1.3390 1.9359 2006.8 -0.0076401 2989.9 0.20141 4.4917e-06 2.2263e+05 363.96 383.67 4.1922 0.76479 0.95335 156.74 3.5683 2.8479 0.0026518
-167.62 1.6672e-05 4.7298e-09 -158.13 -158.13 -0.99134 712.49 0.0014035 -158.13 -158.13 -0.99134 1.3386 1.9372 2000.0 -0.0076323 2837.5 0.20100 5.7771e-06 1.7310e+05 364.73 384.63 4.1521 0.76856 0.95712 157.41 3.4790 2.8754 0.0027045
-166.62 2.1533e-05 6.0365e-09 -156.19 -156.19 -0.97306 711.47 0.0014055 -156.19 -156.19 -0.97306 1.3382 1.9385 1993.1 -0.0076245 2696.5 0.20058 7.3914e-06 1.3529e+05 365.50 385.59 4.1129 0.77232 0.96087 158.08 3.3927 2.9029 0.0027575
-165.62 2.7666e-05 7.6648e-09 -154.25 -154.25 -0.95494 710.45 0.0014075 -154.25 -154.25 -0.95494 1.3378 1.9398 1986.3 -0.0076165 2566.0 0.20016 9.4084e-06 1.0629e+05 366.27 386.55 4.0746 0.77605 0.96460 158.75 3.3095 2.9304 0.0028108
-164.62 3.5367e-05 9.6839e-09 -152.31 -152.31 -0.93698 709.44 0.0014096 -152.31 -152.31 -0.93698 1.3375 1.9411 1979.4 -0.0076084 2444.9 0.19973 1.1916e-05 83918. 367.05 387.52 4.0372 0.77976 0.96832 159.41 3.2291 2.9579 0.0028643
-163.62 4.4989e-05 1.2176e-08 -150.37 -150.37 -0.91917 708.42 0.0014116 -150.37 -150.37 -0.91917 1.3371 1.9424 1972.6 -0.0076002 2332.3 0.19930 1.5020e-05 66577. 367.83 388.49 4.0008 0.78346 0.97201 160.07 3.1514 2.9854 0.0029182
-162.62 5.6956e-05 1.5237e-08 -148.43 -148.43 -0.90151 707.40 0.0014136 -148.43 -148.43 -0.90151 1.3368 1.9437 1965.8 -0.0075919 2227.7 0.19886 1.8844e-05 53068. 368.62 389.46 3.9651 0.78713 0.97569 160.72 3.0764 3.0129 0.0029723
-161.62 7.1773e-05 1.8981e-08 -146.48 -146.48 -0.88400 706.38 0.0014157 -146.48 -146.48 -0.88400 1.3365 1.9451 1959.0 -0.0075834 2130.2 0.19841 2.3533e-05 42494. 369.41 390.44 3.9304 0.79079 0.97935 161.38 3.0038 3.0404 0.0030268
-160.62 9.0036e-05 2.3539e-08 -144.54 -144.54 -0.86663 705.37 0.0014177 -144.54 -144.54 -0.86663 1.3363 1.9465 1952.1 -0.0075748 2039.2 0.19796 2.9258e-05 34178. 370.20 391.42 3.8964 0.79443 0.98298 162.03 2.9337 3.0679 0.0030815
-159.62 0.00011245 2.9066e-08 -142.59 -142.59 -0.84940 704.35 0.0014197 -142.59 -142.59 -0.84940 1.3360 1.9478 1945.3 -0.0075661 1954.2 0.19751 3.6221e-05 27609. 371.00 392.40 3.8632 0.79805 0.98660 162.68 2.8658 3.0955 0.0031365
-158.62 0.00013985 3.5741e-08 -140.64 -140.64 -0.83231 703.34 0.0014218 -140.64 -140.64 -0.83231 1.3358 1.9492 1938.5 -0.0075573 1874.8 0.19705 4.4652e-05 22395. 371.80 393.39 3.8307 0.80164 0.99020 163.32 2.8002 3.1230 0.0031918
-157.62 0.00017320 4.3768e-08 -138.69 -138.69 -0.81536 702.32 0.0014238 -138.69 -138.69 -0.81536 1.3356 1.9506 1931.7 -0.0075484 1800.3 0.19658 5.4822e-05 18241. 372.60 394.38 3.7990 0.80522 0.99378 163.96 2.7367 3.1505 0.0032474
-156.62 0.00021364 5.3386e-08 -136.74 -136.74 -0.79854 701.31 0.0014259 -136.74 -136.74 -0.79854 1.3354 1.9520 1924.9 -0.0075393 1730.5 0.19611 6.7040e-05 14916. 373.41 395.38 3.7680 0.80878 0.99734 164.60 2.6752 3.1780 0.0033033
-155.62 0.00026248 6.4864e-08 -134.79 -134.79 -0.78185 700.30 0.0014280 -134.79 -134.79 -0.78185 1.3352 1.9534 1918.1 -0.0075302 1664.9 0.19564 8.1666e-05 12245. 374.22 396.38 3.7377 0.81232 1.0009 165.24 2.6157 3.2055 0.0033595
-154.62 0.00032125 7.8513e-08 -132.83 -132.83 -0.76530 699.29 0.0014300 -132.83 -132.83 -0.76530 1.3350 1.9548 1911.3 -0.0075209 1603.3 0.19516 9.9109e-05 10090. 375.03 397.38 3.7081 0.81585 1.0044 165.87 2.5580 3.2330 0.0034160
-153.62 0.00039171 9.4686e-08 -130.88 -130.88 -0.74887 698.27 0.0014321 -130.88 -130.88 -0.74887 1.3349 1.9563 1904.5 -0.0075114 1545.3 0.19468 0.00011984 8344.6 375.85 398.39 3.6792 0.81935 1.0079 166.50 2.5022 3.2606 0.0034727
-152.62 0.00047590 1.1378e-07 -128.92 -128.92 -0.73256 697.26 0.0014342 -128.92 -128.92 -0.73256 1.3348 1.9577 1897.8 -0.0075019 1490.6 0.19419 0.00014439 6925.9 376.67 399.40 3.6509 0.82284 1.0114 167.13 2.4481 3.2881 0.0035298
-151.62 0.00057613 1.3625e-07 -126.96 -126.96 -0.71638 696.25 0.0014363 -126.96 -126.96 -0.71638 1.3346 1.9592 1891.0 -0.0074922 1438.9 0.19370 0.00017336 5768.4 377.49 400.41 3.6232 0.82631 1.0149 167.76 2.3957 3.3156 0.0035872
-150.62 0.00069507 1.6260e-07 -125.00 -125.00 -0.70032 695.24 0.0014384 -125.00 -125.00 -0.70032 1.3345 1.9606 1884.2 -0.0074824 1390.2 0.19320 0.00020744 4820.7 378.32 401.42 3.5962 0.82976 1.0183 168.38 2.3448 3.3431 0.0036448
-149.62 0.00083574 1.9341e-07 -123.04 -123.04 -0.68438 694.23 0.0014404 -123.04 -123.04 -0.68438 1.3345 1.9621 1877.4 -0.0074724 1344.0 0.19270 0.00024740 4042.0 379.15 402.44 3.5697 0.83319 1.0218 169.00 2.2956 3.3706 0.0037027
-148.62 0.0010016 2.2932e-07 -121.08 -121.08 -0.66855 693.22 0.0014425 -121.08 -121.08 -0.66855 1.3344 1.9636 1870.7 -0.0074623 1300.3 0.19220 0.00029412 3400.0 379.99 403.47 3.5438 0.83661 1.0252 169.62 2.2478 3.3982 0.0037610
-147.62 0.0011965 2.7103e-07 -119.11 -119.11 -0.65284 692.21 0.0014447 -119.11 -119.11 -0.65284 1.3343 1.9651 1863.9 -0.0074521 1258.9 0.19169 0.00034856 2869.0 380.83 404.49 3.5185 0.84001 1.0286 170.24 2.2014 3.4257 0.0038195
-146.62 0.0014249 3.1934e-07 -117.15 -117.15 -0.63724 691.20 0.0014468 -117.15 -117.15 -0.63724 1.3343 1.9666 1857.2 -0.0074417 1219.6 0.19117 0.00041181 2428.3 381.67 405.52 3.4938 0.84340 1.0320 170.85 2.1565 3.4532 0.0038783
-145.62 0.0016917 3.7514e-07 -115.18 -115.18 -0.62175 690.19 0.0014489 -115.18 -115.18 -0.62175 1.3343 1.9682 1850.4 -0.0074312 1182.3 0.19066 0.00048510 2061.4 382.51 406.56 3.4695 0.84677 1.0353 171.46 2.1128 3.4807 0.0039374
-144.62 0.0020026 4.3941e-07 -113.21 -113.21 -0.60637 689.18 0.0014510 -113.21 -113.21 -0.60637 1.3343 1.9697 1843.7 -0.0074206 1146.8 0.19014 0.00056976 1755.1 383.36 407.59 3.4458 0.85012 1.0387 172.07 2.0705 3.5082 0.0039967
-143.62 0.0023637 5.1322e-07 -111.24 -111.24 -0.59110 688.17 0.0014531 -111.24 -111.24 -0.59110 1.3343 1.9713 1836.9 -0.0074098 1113.0 0.18962 0.00066731 1498.6 384.21 408.63 3.4226 0.85346 1.0420 172.68 2.0294 3.5358 0.0040564
-142.62 0.0027820 5.9776e-07 -109.27 -109.27 -0.57593 687.16 0.0014553 -109.27 -109.27 -0.57593 1.3343 1.9728 1830.2 -0.0073988 1080.8 0.18909 0.00077939 1283.1 385.07 409.68 3.3999 0.85679 1.0454 173.28 1.9896 3.5633 0.0041164
-141.62 0.0032653 6.9433e-07 -107.30 -107.30 -0.56087 686.15 0.0014574 -107.30 -107.30 -0.56087 1.3343 1.9744 1823.5 -0.0073878 1050.1 0.18856 0.00090784 1101.5 385.93 410.72 3.3777 0.86011 1.0487 173.88 1.9508 3.5908 0.0041766
-140.62 0.0038222 8.0436e-07 -105.32 -105.32 -0.54590 685.14 0.0014596 -105.32 -105.32 -0.54591 1.3344 1.9760 1816.7 -0.0073765 1020.7 0.18803 0.0010547 948.16 386.79 411.77 3.3560 0.86341 1.0520 174.48 1.9133 3.6183 0.0042372
-139.62 0.0044623 9.2942e-07 -103.34 -103.34 -0.53104 684.13 0.0014617 -103.34 -103.34 -0.53105 1.3344 1.9776 1810.0 -0.0073651 992.74 0.18749 0.0012221 818.26 387.65 412.83 3.3347 0.86670 1.0553 175.08 1.8768 3.6459 0.0042980
-138.62 0.0051963 1.0712e-06 -101.37 -101.37 -0.51628 683.12 0.0014639 -101.37 -101.37 -0.51629 1.3345 1.9792 1803.3 -0.0073536 965.97 0.18695 0.0014125 707.94 388.52 413.88 3.3139 0.86998 1.0586 175.67 1.8413 3.6734 0.0043592
-137.62 0.0060358 1.2316e-06 -99.386 -99.385 -0.50162 682.11 0.0014660 -99.386 -99.386 -0.50162 1.3346 1.9808 1796.6 -0.0073419 940.35 0.18641 0.0016287 614.00 389.39 414.94 3.2935 0.87325 1.0619 176.26 1.8069 3.7009 0.0044206
-136.62 0.0069938 1.4125e-06 -97.404 -97.404 -0.48705 681.10 0.0014682 -97.404 -97.404 -0.48705 1.3347 1.9825 1789.9 -0.0073301 915.81 0.18586 0.0018733 533.80 390.26 416.00 3.2735 0.87650 1.0651 176.85 1.7734 3.7284 0.0044823
-135.62 0.0080843 1.6162e-06 -95.420 -95.420 -0.47257 680.09 0.0014704 -95.421 -95.421 -0.47258 1.3348 1.9841 1783.2 -0.0073180 892.30 0.18531 0.0021497 465.17 391.14 417.07 3.2540 0.87975 1.0684 177.44 1.7409 3.7559 0.0045443
-134.62 0.0093230 1.8451e-06 -93.435 -93.435 -0.45819 679.08 0.0014726 -93.436 -93.436 -0.45820 1.3350 1.9858 1776.5 -0.0073059 869.75 0.18476 0.0024613 406.30 392.02 418.14 3.2348 0.88299 1.0716 178.02 1.7093 3.7834 0.0046066
-133.62 0.010727 2.1015e-06 -91.449 -91.448 -0.44390 678.07 0.0014748 -91.450 -91.449 -0.44391 1.3351 1.9875 1769.8 -0.0072935 848.11 0.18421 0.0028116 355.67 392.91 419.21 3.2161 0.88622 1.0749 178.61 1.6786 3.8109 0.0046691
-132.62 0.012315 2.3884e-06 -89.460 -89.460 -0.42970 677.06 0.0014770 -89.461 -89.461 -0.42971 1.3353 1.9892 1763.1 -0.0072810 827.32 0.18365 0.0032049 312.03 393.79 420.29 3.1977 0.88944 1.0781 179.19 1.6488 3.8385 0.0047320
-131.62 0.014106 2.7085e-06 -87.470 -87.470 -0.41559 676.04 0.0014792 -87.471 -87.471 -0.41560 1.3354 1.9909 1756.4 -0.0072684 807.34 0.18309 0.0036453 274.33 394.68 421.36 3.1798 0.89266 1.0813 179.76 1.6197 3.8660 0.0047951
-130.62 0.016124 3.0651e-06 -85.478 -85.478 -0.40156 675.03 0.0014814 -85.479 -85.479 -0.40157 1.3356 1.9926 1749.7 -0.0072555 788.12 0.18253 0.0041375 241.69 395.58 422.44 3.1622 0.89586 1.0846 180.34 1.5915 3.8935 0.0048586
-129.62 0.018392 3.4615e-06 -83.484 -83.484 -0.38762 674.02 0.0014836 -83.486 -83.486 -0.38763 1.3358 1.9944 1743.0 -0.0072425 769.63 0.18196 0.0046867 213.37 396.47 423.53 3.1450 0.89906 1.0878 180.91 1.5641 3.9210 0.0049223
-128.62 0.020935 3.9013e-06 -81.489 -81.488 -0.37377 673.01 0.0014859 -81.491 -81.490 -0.37378 1.3360 1.9961 1736.3 -0.0072294 751.83 0.18140 0.0052981 188.75 397.37 424.62 3.1281 0.90226 1.0910 181.48 1.5374 3.9485 0.0049863
-127.62 0.023783 4.3883e-06 -79.492 -79.491 -0.36000 672.00 0.0014881 -79.494 -79.493 -0.36001 1.3363 1.9979 1729.6 -0.0072160 734.67 0.18083 0.0059776 167.29 398.27 425.71 3.1116 0.90545 1.0942 182.05 1.5114 3.9760 0.0050506
-126.62 0.026966 4.9265e-06 -77.493 -77.492 -0.34631 670.98 0.0014904 -77.495 -77.495 -0.34632 1.3365 1.9997 1722.9 -0.0072025 718.14 0.18025 0.0067313 148.56 399.18 426.80 3.0954 0.90863 1.0974 182.62 1.4861 4.0035 0.0051152
-125.62 0.030515 5.5203e-06 -75.492 -75.491 -0.33270 669.97 0.0014926 -75.494 -75.494 -0.33272 1.3368 2.0015 1716.2 -0.0071888 702.18 0.17968 0.0075660 132.17 400.09 427.89 3.0795 0.91181 1.1006 183.18 1.4615 4.0310 0.0051800
-124.62 0.034467 6.1742e-06 -73.489 -73.488 -0.31917 668.95 0.0014949 -73.492 -73.492 -0.31919 1.3371 2.0033 1709.5 -0.0071749 686.79 0.17910 0.0084885 117.81 401.00 428.99 3.0640 0.91499 1.1038 183.74 1.4375 4.0584 0.0052452
-123.62 0.038859 6.8931e-06 -71.484 -71.484 -0.30572 667.94 0.0014971 -71.488 -71.487 -0.30574 1.3374 2.0051 1702.8 -0.0071609 671.93 0.17852 0.0095065 105.19 401.91 430.10 3.0488 0.91816 1.1070 184.30 1.4141 4.0859 0.0053106
-122.62 0.043731 7.6820e-06 -69.478 -69.477 -0.29234 666.92 0.0014994 -69.482 -69.481 -0.29237 1.3377 2.0070 1696.2 -0.0071466 657.57 0.17794 0.010628 94.092 402.83 431.20 3.0339 0.92134 1.1102 184.86 1.3913 4.1134 0.0053764
-121.62 0.049128 8.5463e-06 -67.470 -67.469 -0.27904 665.91 0.0015017 -67.474 -67.473 -0.27907 1.3380 2.0089 1689.5 -0.0071322 643.70 0.17736 0.011861 84.309 403.75 432.31 3.0193 0.92451 1.1134 185.41 1.3691 4.1409 0.0054424
-120.62 0.055096 9.4917e-06 -65.459 -65.459 -0.26582 664.89 0.0015040 -65.464 -65.463 -0.26585 1.3384 2.0107 1682.8 -0.0071176 630.28 0.17678 0.013215 75.669 404.67 433.42 3.0050 0.92767 1.1166 185.96 1.3475 4.1683 0.0055087
-119.62 0.061684 1.0524e-05 -63.447 -63.446 -0.25267 663.87 0.0015063 -63.452 -63.452 -0.25271 1.3387 2.0126 1676.1 -0.0071028 617.30 0.17619 0.014700 68.027 405.60 434.53 2.9909 0.93084 1.1198 186.51 1.3264 4.1958 0.0055752
-118.62 0.068946 1.1650e-05 -61.433 -61.432 -0.23960 662.86 0.0015086 -61.439 -61.438 -0.23963 1.3391 2.0146 1669.4 -0.0070878 604.74 0.17560 0.016325 61.255 406.53 435.64 2.9772 0.93401 1.1231 187.06 1.3058 4.2233 0.0056421
-117.62 0.076937 1.2875e-05 -59.417 -59.416 -0.22659 661.84 0.0015109 -59.423 -59.422 -0.22663 1.3395 2.0165 1662.8 -0.0070726 592.58 0.17501 0.018101 55.245 407.46 436.76 2.9638 0.93718 1.1263 187.60 1.2857 4.2507 0.0057092
-116.62 0.085718 1.4208e-05 -57.399 -57.398 -0.21366 660.82 0.0015133 -57.406 -57.405 -0.21370 1.3400 2.0184 1656.1 -0.0070573 580.80 0.17442 0.020040 49.901 408.39 437.88 2.9506 0.94035 1.1295 188.14 1.2660 4.2782 0.0057767
-115.62 0.095353 1.5653e-05 -55.379 -55.378 -0.20079 659.80 0.0015156 -55.386 -55.385 -0.20084 1.3404 2.0204 1649.4 -0.0070417 569.38 0.17383 0.022152 45.142 409.33 439.01 2.9377 0.94352 1.1327 188.68 1.2468 4.3056 0.0058444
-114.62 0.10591 1.7221e-05 -53.357 -53.355 -0.18800 658.78 0.0015180 -53.365 -53.364 -0.18805 1.3409 2.0224 1642.7 -0.0070260 558.32 0.17323 0.024451 40.898 410.27 440.13 2.9250 0.94669 1.1360 189.22 1.2281 4.3330 0.0059123
-113.62 0.11746 1.8917e-05 -51.333 -51.331 -0.17527 657.76 0.0015203 -51.342 -51.340 -0.17533 1.3413 2.0244 1636.0 -0.0070100 547.59 0.17264 0.026949 37.107 411.21 441.26 2.9126 0.94987 1.1392 189.75 1.2097 4.3604 0.0059806
-112.62 0.13008 2.0750e-05 -49.307 -49.305 -0.16261 656.73 0.0015227 -49.316 -49.315 -0.16267 1.3418 2.0264 1629.3 -0.0069938 537.18 0.17204 0.029661 33.715 412.16 442.39 2.9005 0.95305 1.1424 190.28 1.1918 4.3879 0.0060491
-111.62 0.14384 2.2728e-05 -47.278 -47.276 -0.15001 655.71 0.0015251 -47.289 -47.287 -0.15008 1.3424 2.0285 1622.7 -0.0069774 527.08 0.17144 0.032600 30.675 413.10 443.53 2.8885 0.95623 1.1457 190.81 1.1742 4.4153 0.0061180
-110.62 0.15884 2.4861e-05 -45.248 -45.245 -0.13748 654.69 0.0015274 -45.259 -45.258 -0.13755 1.3429 2.0305 1616.0 -0.0069609 517.28 0.17084 0.035781 27.948 414.06 444.66 2.8769 0.95942 1.1490 191.34 1.1570 4.4427 0.0061871
-109.62 0.17516 2.7156e-05 -43.215 -43.213 -0.12501 653.66 0.0015298 -43.228 -43.226 -0.12509 1.3435 2.0326 1609.3 -0.0069441 507.76 0.17024 0.039220 25.497 415.01 445.80 2.8654 0.96261 1.1522 191.86 1.1402 4.4701 0.0062564
-108.62 0.19290 2.9624e-05 -41.181 -41.178 -0.11261 652.64 0.0015322 -41.194 -41.192 -0.11269 1.3441 2.0347 1602.6 -0.0069271 498.51 0.16964 0.042933 23.292 415.96 446.94 2.8542 0.96581 1.1555 192.38 1.1236 4.4974 0.0063261
-107.62 0.21215 3.2274e-05 -39.144 -39.140 -0.10026 651.61 0.0015347 -39.158 -39.156 -0.10036 1.3447 2.0369 1595.9 -0.0069098 489.52 0.16903 0.046937 21.305 416.92 448.09 2.8433 0.96901 1.1588 192.90 1.1075 4.5248 0.0063960
-106.62 0.23301 3.5116e-05 -37.105 -37.101 -0.087980 650.58 0.0015371 -37.120 -37.118 -0.088082 1.3453 2.0390 1589.2 -0.0068924 480.79 0.16843 0.051250 19.512 417.88 449.23 2.8325 0.97222 1.1621 193.41 1.0916 4.5522 0.0064662
-105.62 0.25561 3.8160e-05 -35.063 -35.059 -0.075758 649.55 0.0015395 -35.080 -35.078 -0.075868 1.3460 2.0412 1582.6 -0.0068747 472.30 0.16782 0.055891 17.892 418.85 450.38 2.8220 0.97544 1.1655 193.93 1.0760 4.5795 0.0065367
-104.62 0.28004 4.1416e-05 -33.019 -33.015 -0.063595 648.52 0.0015420 -33.038 -33.035 -0.063714 1.3467 2.0434 1575.9 -0.0068569 464.04 0.16721 0.060878 16.426 419.81 451.53 2.8116 0.97867 1.1688 194.44 1.0608 4.6069 0.0066074
-103.62 0.30643 4.4896e-05 -30.974 -30.969 -0.051491 647.49 0.0015444 -30.994 -30.991 -0.051619 1.3474 2.0456 1569.2 -0.0068387 456.00 0.16660 0.066231 15.099 420.78 452.68 2.8015 0.98191 1.1722 194.94 1.0458 4.6342 0.0066785
-102.62 0.33490 4.8610e-05 -28.925 -28.920 -0.039444 646.46 0.0015469 -28.947 -28.944 -0.039582 1.3481 2.0478 1562.5 -0.0068204 448.18 0.16600 0.071971 13.894 421.75 453.84 2.7916 0.98516 1.1755 195.44 1.0310 4.6615 0.0067498
-101.62 0.36558 5.2570e-05 -26.875 -26.869 -0.027454 645.43 0.0015494 -26.898 -26.894 -0.027602 1.3489 2.0501 1555.8 -0.0068018 440.57 0.16539 0.078120 12.801 422.73 454.99 2.7818 0.98841 1.1789 195.95 1.0166 4.6888 0.0068213
-100.62 0.39862 5.6787e-05 -24.822 -24.816 -0.015520 644.39 0.0015519 -24.847 -24.843 -0.015678 1.3497 2.0524 1549.1 -0.0067830 433.16 0.16478 0.084699 11.807 423.70 456.15 2.7723 0.99168 1.1823 196.44 1.0024 4.7161 0.0068932
-99.625 0.43414 6.1273e-05 -22.766 -22.760 -0.0036407 643.36 0.0015544 -22.794 -22.789 -0.0038103 1.3505 2.0547 1542.4 -0.0067639 425.95 0.16416 0.091731 10.901 424.68 457.31 2.7630 0.99496 1.1858 196.94 0.98838 4.7434 0.0069653
-98.625 0.47230 6.6041e-05 -20.709 -20.701 0.0081841 642.32 0.0015569 -20.738 -20.733 0.0080027 1.3514 2.0570 1535.7 -0.0067447 418.92 0.16355 0.099240 10.077 425.66 458.48 2.7538 0.99825 1.1892 197.43 0.97464 4.7707 0.0070377
-97.625 0.51325 7.1102e-05 -18.648 -18.640 0.019955 641.28 0.0015594 -18.680 -18.674 0.019762 1.3522 2.0594 1529.0 -0.0067251 412.07 0.16294 0.10725 9.3239 426.65 459.64 2.7448 1.0016 1.1927 197.92 0.96112 4.7979 0.0071103
-96.625 0.55714 7.6470e-05 -16.586 -16.577 0.031674 640.24 0.0015619 -16.620 -16.614 0.031467 1.3531 2.0618 1522.3 -0.0067053 405.39 0.16233 0.11579 8.6365 427.63 460.81 2.7360 1.0049 1.1962 198.40 0.94783 4.8251 0.0071832
-95.625 0.60416 8.2157e-05 -14.520 -14.511 0.043341 639.20 0.0015645 -14.557 -14.550 0.043120 1.3540 2.0642 1515.7 -0.0066853 398.88 0.16171 0.12488 8.0078 428.62 461.98 2.7274 1.0082 1.1997 198.88 0.93475 4.8524 0.0072564
-94.625 0.65446 8.8176e-05 -12.452 -12.442 0.054956 638.16 0.0015670 -12.491 -12.484 0.054721 1.3550 2.0667 1509.0 -0.0066650 392.53 0.16110 0.13455 7.4323 429.61 463.15 2.7189 1.0116 1.2032 199.36 0.92188 4.8796 0.0073299
-93.625 0.70822 9.4540e-05 -10.382 -10.371 0.066521 637.12 0.0015696 -10.424 -10.416 0.066271 1.3560 2.0691 1502.3 -0.0066444 386.34 0.16048 0.14482 6.9050 430.60 464.32 2.7107 1.0149 1.2068 199.83 0.90921 4.9068 0.0074036
-92.625 0.76564 0.00010126 -8.3090 -8.2972 0.078036 636.07 0.0015722 -8.3535 -8.3452 0.077771 1.3570 2.0716 1495.6 -0.0066236 380.31 0.15987 0.15573 6.4212 431.60 465.49 2.7025 1.0183 1.2104 200.30 0.89673 4.9340 0.0074776
-91.625 0.82689 0.00010836 -6.2333 -6.2206 0.089503 635.02 0.0015747 -6.2808 -6.2719 0.089220 1.3580 2.0742 1488.9 -0.0066025 374.41 0.15925 0.16731 5.9769 432.59 466.67 2.6946 1.0217 1.2140 200.77 0.88445 4.9611 0.0075518
-90.625 0.89218 0.00011584 -4.1549 -4.1412 0.10092 633.98 0.0015773 -4.2056 -4.1959 0.10062 1.3591 2.0767 1482.2 -0.0065811 368.66 0.15864 0.17958 5.5685 433.59 467.84 2.6868 1.0251 1.2177 201.24 0.87236 4.9883 0.0076263
-89.625 0.96172 0.00012372 -2.0738 -2.0591 0.11229 632.93 0.0015800 -2.1279 -2.1174 0.11197 1.3602 2.0793 1475.5 -0.0065595 363.05 0.15802 0.19258 5.1928 434.59 469.02 2.6791 1.0285 1.2213 201.70 0.86045 5.0154 0.0077011
-88.625 1.0357 0.00013202 0.0099964 0.025865 0.12361 631.88 0.0015826 -0.047516 -0.036215 0.12328 1.3613 2.0819 1468.8 -0.0065375 357.56 0.15740 0.20633 4.8466 435.59 470.20 2.6717 1.0320 1.2250 202.15 0.84873 5.0425 0.0077761
-87.625 1.1144 0.00014074 2.0966 2.1137 0.13489 630.83 0.0015852 2.0355 2.0476 0.13454 1.3625 2.0846 1462.1 -0.0065153 352.21 0.15679 0.22087 4.5276 436.60 471.39 2.6643 1.0354 1.2288 202.61 0.83718 5.0696 0.0078514
-86.625 1.1979 0.00014991 4.1860 4.2044 0.14612 629.77 0.0015879 4.1211 4.1342 0.14575 1.3637 2.0873 1455.4 -0.0064928 346.98 0.15617 0.23623 4.2331 437.61 472.57 2.6571 1.0389 1.2325 203.06 0.82580 5.0967 0.0079270
-85.625 1.2866 0.00015953 6.2783 6.2981 0.15731 628.72 0.0015905 6.2094 6.2235 0.15691 1.3649 2.0900 1448.8 -0.0064701 341.87 0.15555 0.25245 3.9612 438.61 473.75 2.6501 1.0424 1.2363 203.50 0.81460 5.1237 0.0080028
-84.625 1.3806 0.00016963 8.3735 8.3947 0.16845 627.66 0.0015932 8.3004 8.3155 0.16803 1.3661 2.0927 1442.1 -0.0064470 336.87 0.15494 0.26956 3.7097 439.63 474.94 2.6432 1.0460 1.2402 203.95 0.80356 5.1508 0.0080789
-83.625 1.4803 0.00018021 10.472 10.494 0.17955 626.60 0.0015959 10.394 10.410 0.17911 1.3674 2.0955 1435.4 -0.0064236 331.99 0.15432 0.28760 3.4771 440.64 476.13 2.6364 1.0495 1.2440 204.38 0.79269 5.1778 0.0081553
-82.625 1.5858 0.00019129 12.573 12.597 0.19061 625.54 0.0015986 12.491 12.508 0.19014 1.3687 2.0983 1428.7 -0.0063999 327.22 0.15370 0.30659 3.2616 441.65 477.31 2.6298 1.0531 1.2479 204.82 0.78199 5.2048 0.0082319
-81.625 1.6975 0.00020289 14.677 14.703 0.20163 624.48 0.0016013 14.590 14.609 0.20113 1.3700 2.1012 1422.0 -0.0063759 322.55 0.15309 0.32659 3.0619 442.67 478.50 2.6233 1.0567 1.2519 205.25 0.77144 5.2318 0.0083088
-80.625 1.8155 0.00021501 16.784 16.812 0.21260 623.42 0.0016041 16.692 16.712 0.21208 1.3714 2.1041 1415.4 -0.0063516 317.99 0.15247 0.34763 2.8766 443.69 479.70 2.6169 1.0603 1.2558 205.67 0.76106 5.2587 0.0083860
-79.625 1.9402 0.00022768 18.894 18.924 0.22353 622.36 0.0016068 18.797 18.819 0.22299 1.3728 2.1070 1408.7 -0.0063270 313.52 0.15186 0.36974 2.7046 444.71 480.89 2.6106 1.0639 1.2598 206.10 0.75083 5.2857 0.0084634
-78.625 2.0718 0.00024091 21.007 21.039 0.23442 621.29 0.0016096 20.905 20.928 0.23385 1.3742 2.1099 1402.0 -0.0063021 309.15 0.15124 0.39296 2.5448 445.73 482.08 2.6045 1.0676 1.2639 206.51 0.74076 5.3126 0.0085411
-77.625 2.2107 0.00025471 23.124 23.158 0.24528 620.22 0.0016123 23.016 23.040 0.24468 1.3757 2.1129 1395.3 -0.0062768 304.88 0.15062 0.41735 2.3961 446.75 483.27 2.5985 1.0712 1.2680 206.93 0.73084 5.3395 0.0086190
-76.625 2.3571 0.00026910 25.243 25.280 0.25609 619.15 0.0016151 25.130 25.156 0.25546 1.3772 2.1159 1388.7 -0.0062512 300.69 0.15001 0.44292 2.2577 447.78 484.47 2.5926 1.0749 1.2721 207.34 0.72107 5.3664 0.0086972
-75.625 2.5113 0.00028408 27.366 27.405 0.26686 618.08 0.0016179 27.247 27.275 0.26620 1.3787 2.1190 1382.0 -0.0062253 296.59 0.14939 0.46974 2.1288 448.81 485.67 2.5869 1.0787 1.2762 207.74 0.71146 5.3933 0.0087757
-74.625 2.6736 0.00029969 29.492 29.533 0.27760 617.01 0.0016207 29.366 29.396 0.27691 1.3802 2.1221 1375.4 -0.0061990 292.58 0.14878 0.49783 2.0087 449.83 486.86 2.5812 1.0824 1.2804 208.14 0.70200 5.4201 0.0088544
-73.625 2.8444 0.00031592 31.622 31.665 0.28830 615.93 0.0016236 31.489 31.521 0.28758 1.3818 2.1252 1368.7 -0.0061724 288.65 0.14816 0.52725 1.8966 450.86 488.06 2.5757 1.0862 1.2847 208.54 0.69268 5.4469 0.0089334
-72.625 3.0240 0.00033280 33.755 33.801 0.29896 614.85 0.0016264 33.615 33.649 0.29821 1.3834 2.1284 1362.0 -0.0061454 284.81 0.14755 0.55804 1.7920 451.90 489.26 2.5703 1.0900 1.2889 208.93 0.68351 5.4737 0.0090126
-71.625 3.2127 0.00035033 35.891 35.940 0.30959 613.78 0.0016293 35.745 35.781 0.30880 1.3851 2.1316 1355.4 -0.0061181 281.03 0.14694 0.59024 1.6942 452.93 490.46 2.5650 1.0938 1.2932 209.32 0.67448 5.5005 0.0090922
-70.625 3.4108 0.00036853 38.030 38.083 0.32018 612.69 0.0016321 37.877 37.915 0.31935 1.3867 2.1349 1348.7 -0.0060904 277.34 0.14632 0.62390 1.6028 453.96 491.66 2.5598 1.0976 1.2976 209.70 0.66560 5.5273 0.0091720
-69.625 3.6187 0.00038742 40.173 40.229 0.33073 611.61 0.0016350 40.013 40.053 0.32987 1.3884 2.1382 1342.1 -0.0060624 273.72 0.14571 0.65906 1.5173 455.00 492.86 2.5547 1.1015 1.3020 210.08 0.65687 5.5540 0.0092520
-68.625 3.8367 0.00040700 42.320 42.379 0.34126 610.53 0.0016379 42.152 42.195 0.34036 1.3902 2.1415 1335.5 -0.0060339 270.17 0.14510 0.69577 1.4372 456.04 494.06 2.5497 1.1054 1.3064 210.45 0.64827 5.5807 0.0093324
-67.625 4.0652 0.00042729 44.470 44.532 0.35174 609.44 0.0016409 44.294 44.340 0.35080 1.3919 2.1449 1328.8 -0.0060051 266.69 0.14449 0.73408 1.3622 457.08 495.26 2.5448 1.1093 1.3109 210.82 0.63981 5.6074 0.0094130
-66.625 4.3046 0.00044830 46.624 46.690 0.36220 608.35 0.0016438 46.439 46.488 0.36122 1.3937 2.1483 1322.2 -0.0059760 263.28 0.14388 0.77404 1.2919 458.12 496.46 2.5400 1.1133 1.3154 211.18 0.63150 5.6341 0.0094939
-65.625 4.5551 0.00047005 48.781 48.851 0.37262 607.26 0.0016467 48.588 48.640 0.37160 1.3955 2.1518 1315.6 -0.0059464 259.93 0.14327 0.81570 1.2259 459.16 497.67 2.5353 1.1172 1.3200 211.54 0.62332 5.6608 0.0095750
-64.625 4.8173 0.00049254 50.942 51.016 0.38300 606.16 0.0016497 50.740 50.795 0.38195 1.3974 2.1553 1308.9 -0.0059164 256.65 0.14266 0.85910 1.1640 460.21 498.87 2.5307 1.1212 1.3246 211.89 0.61527 5.6874 0.0096564
-63.625 5.0915 0.00051578 53.107 53.185 0.39336 605.07 0.0016527 52.896 52.954 0.39226 1.3993 2.1588 1302.3 -0.0058861 253.42 0.14205 0.90429 1.1058 461.25 500.07 2.5262 1.1252 1.3293 212.24 0.60736 5.7140 0.0097382
-62.625 5.3781 0.00053980 55.275 55.358 0.40369 603.97 0.0016557 55.055 55.117 0.40254 1.4012 2.1624 1295.7 -0.0058553 250.26 0.14144 0.95134 1.0511 462.30 501.28 2.5218 1.1293 1.3340 212.58 0.59958 5.7406 0.0098201
-61.625 5.6774 0.00056459 57.447 57.534 0.41398 602.87 0.0016587 57.218 57.283 0.41279 1.4031 2.1660 1289.1 -0.0058241 247.16 0.14084 1.0003 0.99972 463.35 502.48 2.5175 1.1333 1.3387 212.92 0.59194 5.7672 0.0099024
-60.625 5.9899 0.00059017 59.624 59.715 0.42424 601.77 0.0016618 59.385 59.453 0.42301 1.4051 2.1697 1282.5 -0.0057925 244.12 0.14023 1.0512 0.95131 464.40 503.68 2.5133 1.1374 1.3435 213.26 0.58442 5.7938 0.0099850
-59.625 6.3160 0.00061654 61.804 61.900 0.43448 600.66 0.0016648 61.554 61.627 0.43320 1.4071 2.1734 1275.9 -0.0057605 241.13 0.13962 1.1041 0.90573 465.45 504.89 2.5091 1.1415 1.3483 213.58 0.57704 5.8203 0.010068
-58.625 6.6561 0.00064373 63.987 64.089 0.44468 599.55 0.0016679 63.728 63.805 0.44335 1.4091 2.1772 1269.3 -0.0057280 238.19 0.13902 1.1591 0.86277 466.50 506.09 2.5051 1.1457 1.3532 213.90 0.56978 5.8468 0.010151
-57.625 7.0107 0.00067173 66.175 66.283 0.45485 598.44 0.0016710 65.905 65.986 0.45348 1.4111 2.1810 1262.7 -0.0056951 235.31 0.13842 1.2161 0.82228 467.55 507.30 2.5011 1.1498 1.3581 214.22 0.56265 5.8733 0.010234
-56.625 7.3801 0.00070055 68.367 68.480 0.46500 597.33 0.0016741 68.086 68.172 0.46358 1.4132 2.1848 1256.1 -0.0056617 232.48 0.13781 1.2754 0.78408 468.60 508.50 2.4972 1.1540 1.3631 214.53 0.55564 5.8998 0.010318
-55.625 7.7648 0.00073021 70.563 70.682 0.47512 596.22 0.0016772 70.271 70.361 0.47364 1.4153 2.1887 1249.5 -0.0056279 229.69 0.13721 1.3369 0.74802 469.66 509.71 2.4934 1.1582 1.3681 214.84 0.54875 5.9263 0.010402
-54.625 8.1652 0.00076070 72.763 72.888 0.48521 595.10 0.0016804 72.460 72.554 0.48368 1.4174 2.1927 1242.9 -0.0055937 226.96 0.13661 1.4006 0.71396 470.72 510.91 2.4897 1.1624 1.3731 215.14 0.54199 5.9527 0.010486
-53.625 8.5819 0.00079204 74.967 75.098 0.49527 593.98 0.0016836 74.652 74.752 0.49369 1.4196 2.1967 1236.3 -0.0055589 224.27 0.13601 1.4667 0.68178 471.77 512.11 2.4860 1.1667 1.3782 215.43 0.53535 5.9792 0.010571
-52.625 9.0151 0.00082422 77.175 77.313 0.50531 592.86 0.0016867 76.849 76.954 0.50368 1.4218 2.2007 1229.8 -0.0055237 221.63 0.13541 1.5353 0.65136 472.83 513.32 2.4824 1.1710 1.3834 215.72 0.52882 6.0056 0.010656
-51.625 9.4655 0.00085727 79.388 79.533 0.51532 591.73 0.0016900 79.049 79.159 0.51363 1.4240 2.2048 1223.2 -0.0054880 219.04 0.13482 1.6062 0.62258 473.89 514.52 2.4789 1.1752 1.3886 216.00 0.52241 6.0320 0.010741
-50.625 9.9335 0.00089117 81.604 81.756 0.52530 590.60 0.0016932 81.253 81.369 0.52356 1.4262 2.2089 1216.6 -0.0054519 216.48 0.13422 1.6797 0.59534 474.95 515.73 2.4755 1.1796 1.3938 216.28 0.51612 6.0584 0.010827
-49.625 10.419 0.00092593 83.825 83.985 0.53526 589.47 0.0016964 83.462 83.584 0.53347 1.4285 2.2131 1210.1 -0.0054152 213.98 0.13363 1.7558 0.56954 476.01 516.93 2.4722 1.1839 1.3991 216.55 0.50994 6.0848 0.010913
-48.625 10.924 0.00096157 86.050 86.218 0.54519 588.34 0.0016997 85.674 85.802 0.54334 1.4308 2.2173 1203.5 -0.0053780 211.51 0.13303 1.8345 0.54510 477.07 518.13 2.4689 1.1883 1.4044 216.82 0.50387 6.1112 0.010999
-47.625 11.448 0.00099807 88.280 88.456 0.55510 587.20 0.0017030 87.891 88.025 0.55319 1.4331 2.2216 1196.9 -0.0053403 209.08 0.13244 1.9159 0.52194 478.14 519.33 2.4657 1.1927 1.4098 217.08 0.49792 6.1375 0.011085
-46.625 11.991 0.0010354 90.514 90.698 0.56499 586.06 0.0017063 90.111 90.252 0.56302 1.4354 2.2259 1190.4 -0.0053020 206.69 0.13185 2.0001 0.49997 479.20 520.53 2.4625 1.1971 1.4153 217.33 0.49207 6.1639 0.011172
-45.625 12.554 0.0010737 92.753 92.945 0.57485 584.92 0.0017096 92.336 92.484 0.57282 1.4378 2.2303 1183.8 -0.0052633 204.34 0.13126 2.0872 0.47912 480.27 521.74 2.4594 1.2015 1.4207 217.58 0.48633 6.1902 0.011259
-44.625 13.137 0.0011128 94.996 95.197 0.58468 583.77 0.0017130 94.565 94.720 0.58260 1.4402 2.2347 1177.3 -0.0052240 202.03 0.13067 2.1771 0.45933 481.33 522.94 2.4564 1.2060 1.4263 217.82 0.48069 6.2165 0.011347
-43.625 13.741 0.0011528 97.243 97.454 0.59450 582.62 0.0017164 96.799 96.961 0.59235 1.4426 2.2392 1170.7 -0.0051841 199.75 0.13008 2.2700 0.44053 482.40 524.14 2.4535 1.2104 1.4319 218.05 0.47516 6.2429 0.011435
-42.625 14.367 0.0011936 99.495 99.715 0.60429 581.47 0.0017198 99.036 99.207 0.60208 1.4450 2.2437 1164.2 -0.0051437 197.51 0.12949 2.3659 0.42267 483.46 525.33 2.4506 1.2149 1.4375 218.28 0.46973 6.2692 0.011523
-41.625 15.015 0.0012353 101.75 101.98 0.61406 580.32 0.0017232 101.28 101.46 0.61179 1.4475 2.2483 1157.7 -0.0051027 195.30 0.12891 2.4649 0.40569 484.53 526.53 2.4478 1.2195 1.4432 218.50 0.46440 6.2955 0.011612
-40.625 15.686 0.0012779 104.01 104.25 0.62380 579.16 0.0017266 103.52 103.71 0.62147 1.4500 2.2529 1151.1 -0.0050611 193.13 0.12832 2.5671 0.38954 485.60 527.73 2.4450 1.2240 1.4489 218.72 0.45917 6.3218 0.011701
-39.625 16.380 0.0013213 106.28 106.53 0.63353 578.00 0.0017301 105.78 105.97 0.63113 1.4525 2.2576 1144.6 -0.0050189 190.99 0.12774 2.6725 0.37418 486.67 528.93 2.4423 1.2286 1.4547 218.93 0.45403 6.3481 0.011790
-38.625 17.097 0.0013656 108.55 108.81 0.64323 576.83 0.0017336 108.03 108.24 0.64077 1.4550 2.2623 1138.0 -0.0049761 188.88 0.12716 2.7813 0.35955 487.74 530.12 2.4397 1.2332 1.4606 219.13 0.44900 6.3744 0.011880
-37.625 17.838 0.0014107 110.83 111.10 0.65291 575.66 0.0017371 110.29 110.51 0.65039 1.4576 2.2671 1131.5 -0.0049327 186.81 0.12658 2.8934 0.34562 488.81 531.32 2.4371 1.2378 1.4665 219.33 0.44405 6.4007 0.011970
-36.625 18.604 0.0014566 113.11 113.39 0.66257 574.49 0.0017407 112.56 112.78 0.65999 1.4602 2.2719 1125.0 -0.0048887 184.76 0.12600 3.0089 0.33235 489.88 532.51 2.4346 1.2424 1.4724 219.52 0.43920 6.4270 0.012060
-35.625 19.395 0.0015033 115.39 115.69 0.67221 573.32 0.0017442 114.83 115.06 0.66956 1.4628 2.2768 1118.5 -0.0048440 182.75 0.12542 3.1280 0.31969 490.95 533.70 2.4321 1.2471 1.4784 219.70 0.43444 6.4533 0.012151
-34.625 20.212 0.0015509 117.68 117.99 0.68183 572.14 0.0017478 117.10 117.34 0.67912 1.4654 2.2818 1111.9 -0.0047987 180.76 0.12485 3.2506 0.30763 492.02 534.89 2.4297 1.2517 1.4845 219.88 0.42977 6.4797 0.012243
-33.625 21.056 0.0015993 119.98 120.30 0.69143 570.96 0.0017514 119.38 119.63 0.68865 1.4681 2.2868 1105.4 -0.0047527 178.80 0.12427 3.3770 0.29612 493.09 536.08 2.4273 1.2564 1.4906 220.05 0.42519 6.5060 0.012334
-32.625 21.926 0.0016484 122.28 122.61 0.70102 569.77 0.0017551 121.66 121.93 0.69817 1.4708 2.2918 1098.9 -0.0047061 176.87 0.12370 3.5071 0.28514 494.17 537.27 2.4250 1.2611 1.4968 220.21 0.42070 6.5323 0.012426
-31.625 22.823 0.0016983 124.58 124.93 0.71058 568.58 0.0017588 123.95 124.23 0.70767 1.4735 2.2970 1092.3 -0.0046587 174.97 0.12313 3.6410 0.27465 495.24 538.46 2.4227 1.2659 1.5031 220.36 0.41629 6.5587 0.012519
-30.625 23.749 0.0017489 126.89 127.25 0.72012 567.39 0.0017625 126.24 126.53 0.71714 1.4762 2.3021 1085.8 -0.0046107 173.09 0.12256 3.7787 0.26464 496.31 539.64 2.4205 1.2706 1.5094 220.51 0.41196 6.5850 0.012612
-29.625 24.703 0.0018003 129.21 129.58 0.72965 566.19 0.0017662 128.54 128.84 0.72660 1.4790 2.3074 1079.3 -0.0045619 171.24 0.12200 3.9205 0.25507 497.38 540.83 2.4184 1.2754 1.5157 220.65 0.40772 6.6114 0.012706
-28.625 25.687 0.0018524 131.53 131.92 0.73916 564.99 0.0017699 130.84 131.16 0.73604 1.4818 2.3126 1072.8 -0.0045124 169.42 0.12143 4.0663 0.24592 498.46 542.01 2.4162 1.2802 1.5222 220.79 0.40356 6.6378 0.012800
-27.625 26.700 0.0019052 133.85 134.26 0.74864 563.78 0.0017737 133.15 133.48 0.74547 1.4846 2.3180 1066.2 -0.0044621 167.62 0.12087 4.2163 0.23717 499.53 543.19 2.4142 1.2850 1.5286 220.91 0.39947 6.6642 0.012894
-26.625 27.743 0.0019587 136.18 136.61 0.75812 562.57 0.0017775 135.47 135.81 0.75487 1.4874 2.3234 1059.7 -0.0044111 165.84 0.12031 4.3705 0.22881 500.60 544.37 2.4122 1.2899 1.5352 221.03 0.39547 6.6906 0.012989
-25.625 28.817 0.0020127 138.52 138.96 0.76757 561.36 0.0017814 137.78 138.14 0.76426 1.4902 2.3289 1053.2 -0.0043593 164.09 0.11975 4.5290 0.22080 501.68 545.55 2.4102 1.2947 1.5418 221.14 0.39154 6.7171 0.013084
-24.625 29.923 0.0020674 140.86 141.32 0.77701 560.14 0.0017853 140.11 140.48 0.77363 1.4931 2.3344 1046.7 -0.0043067 162.36 0.11919 4.6918 0.21314 502.75 546.72 2.4083 1.2996 1.5485 221.25 0.38768 6.7436 0.013180
-23.625 31.061 0.0021227 143.20 143.68 0.78643 558.92 0.0017892 142.44 142.82 0.78298 1.4960 2.3400 1040.1 -0.0042533 160.65 0.11863 4.8592 0.20580 503.82 547.90 2.4064 1.3045 1.5552 221.35 0.38391 6.7701 0.013277
-22.625 32.232 0.0021786 145.55 146.05 0.79583 557.69 0.0017931 144.77 145.17 0.79232 1.4990 2.3457 1033.6 -0.0041990 158.97 0.11807 5.0311 0.19877 504.90 549.07 2.4045 1.3095 1.5621 221.44 0.38020 6.7967 0.013374
-21.625 33.435 0.0022349 147.91 148.42 0.80522 556.46 0.0017971 147.11 147.52 0.80164 1.5019 2.3514 1027.1 -0.0041439 157.30 0.11752 5.2076 0.19203 505.97 550.24 2.4027 1.3144 1.5690 221.52 0.37656 6.8232 0.013471
-20.625 34.673 0.0022918 150.27 150.80 0.81460 555.23 0.0018011 149.45 149.88 0.81095 1.5049 2.3572 1020.6 -0.0040879 155.66 0.11697 5.3889 0.18557 507.04 551.40 2.4010 1.3194 1.5759 221.59 0.37300 6.8499 0.013569
-19.625 35.946 0.0023491 152.64 153.19 0.82395 553.99 0.0018051 151.80 152.25 0.82024 1.5079 2.3630 1014.0 -0.0040311 154.04 0.11642 5.5750 0.17937 508.11 552.57 2.3992 1.3244 1.5829 221.66 0.36950 6.8765 0.013668
-18.625 37.253 0.0024068 155.01 155.58 0.83329 552.74 0.0018092 154.16 154.62 0.82952 1.5109 2.3689 1007.5 -0.0039733 152.44 0.11587 5.7660 0.17343 509.19 553.73 2.3976 1.3294 1.5901 221.72 0.36608 6.9032 0.013767
-17.625 38.596 0.0024649 157.39 157.98 0.84262 551.49 0.0018133 156.52 157.00 0.83878 1.5140 2.3749 1001.0 -0.0039145 150.86 0.11532 5.9621 0.16773 510.26 554.89 2.3959 1.3345 1.5972 221.77 0.36272 6.9300 0.013867
-16.625 39.976 0.0025233 159.78 160.39 0.85193 550.24 0.0018174 158.89 159.39 0.84803 1.5171 2.3810 994.44 -0.0038549 149.29 0.11478 6.1632 0.16225 511.33 556.05 2.3943 1.3395 1.6045 221.81 0.35942 6.9568 0.013968
-15.625 41.392 0.0025819 162.17 162.80 0.86123 548.98 0.0018216 161.26 161.78 0.85726 1.5202 2.3871 987.91 -0.0037942 147.75 0.11423 6.3696 0.15700 512.40 557.20 2.3927 1.3446 1.6119 221.85 0.35619 6.9836 0.014069
-14.625 42.846 0.0026408 164.56 165.22 0.87051 547.71 0.0018258 163.64 164.18 0.86649 1.5233 2.3933 981.37 -0.0037325 146.22 0.11369 6.5812 0.15195 513.47 558.36 2.3912 1.3497 1.6193 221.87 0.35302 7.0105 0.014170
-13.625 44.338 0.0026999 166.96 167.64 0.87978 546.44 0.0018300 166.02 166.58 0.87569 1.5264 2.3996 974.83 -0.0036698 144.72 0.11315 6.7983 0.14710 514.54 559.51 2.3897 1.3549 1.6268 221.89 0.34992 7.0375 0.014273
-12.625 45.870 0.0027591 169.37 170.07 0.88904 545.17 0.0018343 168.41 168.99 0.88489 1.5296 2.4059 968.29 -0.0036061 143.23 0.11261 7.0208 0.14243 515.61 560.65 2.3883 1.3600 1.6344 221.90 0.34688 7.0646 0.014376
-11.625 47.440 0.0028184 171.78 172.51 0.89828 543.89 0.0018386 170.81 171.41 0.89407 1.5328 2.4124 961.75 -0.0035413 141.76 0.11208 7.2490 0.13795 516.68 561.80 2.3868 1.3652 1.6421 221.91 0.34389 7.0917 0.014479
-10.625 49.051 0.0028776 174.20 174.95 0.90751 542.60 0.0018430 173.21 173.83 0.90324 1.5360 2.4189 955.20 -0.0034753 140.30 0.11154 7.4829 0.13364 517.75 562.94 2.3854 1.3704 1.6498 221.90 0.34097 7.1188 0.014584
-9.6250 50.703 0.0029368 176.62 177.40 0.91672 541.31 0.0018474 175.61 176.26 0.91240 1.5393 2.4255 948.65 -0.0034082 138.86 0.11101 7.7226 0.12949 518.81 564.08 2.3841 1.3757 1.6577 221.88 0.33810 7.1461 0.014689
-8.6250 52.396 0.0029959 179.05 179.85 0.92592 540.02 0.0018518 178.03 178.70 0.92154 1.5426 2.4321 942.10 -0.0033400 137.44 0.11048 7.9683 0.12550 519.88 565.21 2.3827 1.3809 1.6657 221.86 0.33529 7.1734 0.014795
-7.6250 54.131 0.0030548 181.49 182.32 0.93511 538.72 0.0018563 180.45 181.14 0.93068 1.5459 2.4389 935.55 -0.0032705 136.03 0.10995 8.2200 0.12165 520.94 566.35 2.3814 1.3862 1.6737 221.83 0.33254 7.2008 0.014902
-6.6250 55.909 0.0031134 183.93 184.79 0.94429 537.41 0.0018608 182.87 183.59 0.93980 1.5492 2.4457 928.99 -0.0031998 134.64 0.10942 8.4779 0.11795 522.01 567.48 2.3801 1.3915 1.6819 221.79 0.32984 7.2284 0.015009
-5.6250 57.730 0.0031716 186.38 187.26 0.95345 536.10 0.0018653 185.30 186.05 0.94892 1.5525 2.4526 922.43 -0.0031279 133.27 0.10889 8.7420 0.11439 523.07 568.60 2.3789 1.3969 1.6902 221.74 0.32720 7.2560 0.015117
-4.6250 59.595 0.0032294 188.83 189.74 0.96261 534.78 0.0018699 187.74 188.51 0.95802 1.5559 2.4596 915.87 -0.0030546 131.91 0.10837 9.0126 0.11096 524.13 569.72 2.3777 1.4022 1.6985 221.68 0.32461 7.2837 0.015226
-3.6250 61.505 0.0032866 191.29 192.23 0.97175 533.45 0.0018746 190.19 190.98 0.96711 1.5593 2.4667 909.30 -0.0029800 130.56 0.10785 9.2896 0.10765 525.19 570.84 2.3765 1.4076 1.7070 221.62 0.32207 7.3115 0.015336
-2.6250 63.461 0.0033433 193.75 194.73 0.98088 532.12 0.0018793 192.64 193.46 0.97620 1.5627 2.4739 902.73 -0.0029041 129.23 0.10733 9.5733 0.10446 526.25 571.96 2.3753 1.4131 1.7156 221.54 0.31958 7.3394 0.015447
-1.6250 65.462 0.0033992 196.22 197.23 0.98999 530.78 0.0018840 195.10 195.95 0.98527 1.5662 2.4811 896.16 -0.0028267 127.91 0.10681 9.8638 0.10138 527.31 573.07 2.3742 1.4185 1.7243 221.45 0.31715 7.3674 0.015559
-0.62500 67.510 0.0034543 198.70 199.74 0.99910 529.44 0.0018888 197.56 198.44 0.99434 1.5696 2.4885 889.58 -0.0027478 126.61 0.10629 10.161 0.098414 528.37 574.18 2.3731 1.4240 1.7331 221.36 0.31476 7.3956 0.015671
0.37500 69.606 0.0035084 201.19 202.25 1.0082 528.09 0.0018936 200.03 200.94 1.0034 1.5731 2.4960 883.00 -0.0026675 125.32 0.10578 10.466 0.095552 529.42 575.28 2.3720 1.4295 1.7421 221.26 0.31242 7.4239 0.015785
1.3750 71.749 0.0035615 203.67 204.77 1.0173 526.73 0.0018985 202.51 203.45 1.0124 1.5767 2.5035 876.42 -0.0025856 124.04 0.10527 10.777 0.092790 530.48 576.38 2.3709 1.4350 1.7512 221.14 0.31013 7.4523 0.015899
2.3750 73.941 0.0036135 206.17 207.30 1.0264 525.37 0.0019034 204.99 205.96 1.0215 1.5802 2.5112 869.83 -0.0025022 122.78 0.10476 11.096 0.090123 531.53 577.47 2.3699 1.4406 1.7604 221.02 0.30789 7.4808 0.016015
3.3750 76.183 0.0036642 208.67 209.84 1.0354 523.99 0.0019084 207.48 208.48 1.0305 1.5838 2.5190 863.24 -0.0024171 121.53 0.10425 11.422 0.087549 532.58 578.56 2.3688 1.4462 1.7697 220.89 0.30569 7.5095 0.016131
4.3750 78.475 0.0037135 211.18 212.38 1.0445 522.62 0.0019134 209.98 211.01 1.0395 1.5874 2.5268 856.64 -0.0023303 120.29 0.10374 11.756 0.085062 533.63 579.65 2.3678 1.4518 1.7792 220.75 0.30354 7.5384 0.016249
5.3750 80.817 0.0037612 213.70 214.93 1.0535 521.23 0.0019185 212.48 213.55 1.0486 1.5910 2.5348 850.04 -0.0022417 119.06 0.10324 12.098 0.082660 534.67 580.73 2.3669 1.4575 1.7888 220.60 0.30144 7.5674 0.016368
6.3750 83.211 0.0038072 216.22 217.49 1.0626 519.84 0.0019237 215.00 216.10 1.0576 1.5946 2.5429 843.43 -0.0021514 117.85 0.10273 12.447 0.080340 535.72 581.81 2.3659 1.4632 1.7986 220.44 0.29938 7.5966 0.016487
7.3750 85.657 0.0038514 218.74 220.06 1.0716 518.44 0.0019289 217.51 218.65 1.0666 1.5983 2.5511 836.82 -0.0020593 116.65 0.10223 12.805 0.078096 536.76 582.88 2.3650 1.4689 1.8085 220.27 0.29736 7.6259 0.016608
8.3750 88.156 0.0038936 221.28 222.63 1.0806 517.03 0.0019341 220.04 221.22 1.0756 1.6020 2.5595 830.20 -0.0019652 115.46 0.10173 13.170 0.075928 537.80 583.95 2.3640 1.4746 1.8186 220.08 0.29538 7.6555 0.016730
9.3750 90.708 0.0039337 223.82 225.21 1.0896 515.62 0.0019394 222.57 223.79 1.0846 1.6057 2.5679 823.58 -0.0018691 114.28 0.10124 13.545 0.073830 538.84 585.01 2.3631 1.4804 1.8288 219.89 0.29345 7.6852 0.016853
10.375 93.315 0.0039713 226.36 227.79 1.0986 514.19 0.0019448 225.11 226.37 1.0936 1.6095 2.5765 816.96 -0.0017710 113.11 0.10074 13.927 0.071802 539.87 586.07 2.3622 1.4863 1.8392 219.69 0.29156 7.7151 0.016978
11.375 95.977 0.0040065 228.92 230.39 1.1076 512.76 0.0019502 227.66 228.95 1.1025 1.6132 2.5852 810.32 -0.0016708 111.95 0.10025 14.319 0.069840 540.90 587.12 2.3614 1.4921 1.8498 219.48 0.28971 7.7452 0.017103
12.375 98.694 0.0040389 231.48 232.99 1.1166 511.32 0.0019557 230.22 231.55 1.1115 1.6170 2.5940 803.68 -0.0015685 110.80 0.099756 14.719 0.067941 541.93 588.17 2.3605 1.4980 1.8605 219.26 0.28790 7.7756 0.017230
13.375 101.47 0.0040684 234.04 235.60 1.1255 509.87 0.0019613 232.78 234.15 1.1205 1.6208 2.6030 797.04 -0.0014639 109.67 0.099267 15.128 0.066103 542.96 589.21 2.3597 1.5040 1.8715 219.03 0.28612 7.8061 0.017359
14.375 104.30 0.0040948 236.62 238.21 1.1345 508.42 0.0019669 235.35 236.77 1.1295 1.6247 2.6121 790.39 -0.0013569 108.54 0.098779 15.547 0.064323 543.99 590.24 2.3588 1.5099 1.8826 218.79 0.28439 7.8369 0.017488
15.375 107.19 0.0041178 239.20 240.84 1.1435 506.95 0.0019726 237.93 239.39 1.1384 1.6286 2.6214 783.73 -0.0012476 107.43 0.098294 15.974 0.062600 545.01 591.27 2.3580 1.5159 1.8940 218.53 0.28270 7.8680 0.017619
16.375 110.13 0.0041372 241.78 243.47 1.1524 505.48 0.0019783 240.52 242.02 1.1474 1.6324 2.6308 777.07 -0.0011357 106.32 0.097810 16.412 0.060931 546.03 592.29 2.3572 1.5220 1.9055 218.27 0.28104 7.8993 0.017752
17.375 113.14 0.0041528 244.37 246.11 1.1614 504.00 0.0019841 243.11 244.66 1.1564 1.6364 2.6403 770.40 -0.0010213 105.22 0.097328 16.859 0.059314 547.04 593.31 2.3564 1.5281 1.9172 217.99 0.27942 7.9308 0.017886
18.375 116.21 0.0041642 246.97 248.75 1.1703 502.50 0.0019900 245.72 247.31 1.1653 1.6403 2.6501 763.72 -0.00090422 104.14 0.096848 17.317 0.057747 548.05 594.32 2.3557 1.5342 1.9292 217.71 0.27783 7.9626 0.018021
19.375 119.33 0.0041713 249.58 251.41 1.1792 501.00 0.0019960 248.33 249.97 1.1743 1.6443 2.6599 757.04 -0.00078435 103.06 0.096371 17.785 0.056228 549.06 595.33 2.3549 1.5404 1.9414 217.41 0.27628 7.9947 0.018159
20.375 122.52 0.0041736 252.19 254.07 1.1881 499.49 0.0020020 250.95 252.64 1.1832 1.6483 2.6700 750.35 -0.00066161 101.99 0.095895 18.263 0.054756 550.07 596.32 2.3541 1.5466 1.9538 217.10 0.27477 8.0272 0.018297
21.375 125.77 0.0041710 254.81 256.74 1.1970 497.97 0.0020082 253.57 255.32 1.1922 1.6523 2.6802 743.64 -0.00053589 100.93 0.095420 18.752 0.053328 551.07 597.31 2.3534 1.5528 1.9665 216.78 0.27329 8.0599 0.018438
22.375 129.08 0.0041631 257.44 259.42 1.2059 496.43 0.0020144 256.21 258.00 1.2012 1.6563 2.6906 736.94 -0.00040708 99.877 0.094948 19.252 0.051943 552.07 598.30 2.3526 1.5591 1.9795 216.45 0.27184 8.0929 0.018580
23.375 132.46 0.0041495 260.08 262.11 1.2148 494.89 0.0020206 258.86 260.70 1.2101 1.6604 2.7012 730.22 -0.00027505 98.834 0.094478 19.763 0.050600 553.06 599.27 2.3519 1.5655 1.9927 216.11 0.27043 8.1263 0.018724
24.375 135.90 0.0041299 262.72 264.80 1.2237 493.34 0.0020270 261.51 263.41 1.2191 1.6645 2.7120 723.49 -0.00013968 97.800 0.094009 20.285 0.049297 554.05 600.24 2.3512 1.5718 2.0061 215.75 0.26906 8.1600 0.018870
25.375 139.41 0.0041039 265.37 267.50 1.2326 491.77 0.0020335 264.17 266.13 1.2280 1.6686 2.7230 716.76 -8.3775e-07 96.773 0.093543 20.820 0.048032 555.03 601.20 2.3504 1.5783 2.0199 215.39 0.26771 8.1941 0.019017
26.375 142.98 0.0040711 268.02 270.21 1.2415 490.20 0.0020400 266.84 268.85 1.2370 1.6728 2.7342 710.01 0.00014161 95.755 0.093078 21.366 0.046804 556.01 602.15 2.3497 1.5847 2.0340 215.01 0.26640 8.2286 0.019167
27.375 146.62 0.0040310 270.68 272.93 1.2504 488.61 0.0020466 269.52 271.59 1.2459 1.6770 2.7456 703.26 0.00028782 94.745 0.092615 21.924 0.045612 556.99 603.10 2.3490 1.5913 2.0484 214.62 0.26512 8.2634 0.019319
28.375 150.33 0.0039833 273.35 275.66 1.2592 487.01 0.0020533 272.21 274.34 1.2549 1.6812 2.7573 696.49 0.00043793 93.742 0.092154 22.495 0.044454 557.96 604.03 2.3483 1.5978 2.0631 214.21 0.26387 8.2987 0.019472
29.375 154.10 0.0039274 276.03 278.39 1.2681 485.40 0.0020601 274.91 277.10 1.2638 1.6854 2.7691 689.72 0.00059212 92.747 0.091695 23.079 0.043329 558.92 604.96 2.3476 1.6044 2.0781 213.80 0.26265 8.3344 0.019628
30.375 157.94 0.0038629 278.71 281.13 1.2770 483.78 0.0020671 277.62 279.87 1.2728 1.6897 2.7813 682.93 0.00075055 91.760 0.091238 23.676 0.042237 559.88 605.88 2.3469 1.6111 2.0935 213.37 0.26147 8.3705 0.019786
31.375 161.86 0.0037891 281.40 283.88 1.2858 482.15 0.0020741 280.34 282.66 1.2818 1.6939 2.7936 676.13 0.00091340 90.779 0.090782 24.287 0.041175 560.84 606.79 2.3462 1.6178 2.1092 212.93 0.26031 8.4071 0.019947
32.375 165.84 0.0037056 284.10 286.64 1.2947 480.50 0.0020812 283.07 285.45 1.2908 1.6983 2.8063 669.32 0.0010809 89.806 0.090328 24.911 0.040143 561.79 607.69 2.3455 1.6246 2.1254 212.48 0.25919 8.4442 0.020110
33.375 169.90 0.0036117 286.81 289.41 1.3035 478.83 0.0020884 285.81 288.26 1.2997 1.7026 2.8192 662.50 0.0012532 88.840 0.089876 25.549 0.039140 562.73 608.58 2.3448 1.6314 2.1419 212.01 0.25809 8.4818 0.020275
34.375 174.02 0.0035068 289.52 292.19 1.3123 477.16 0.0020957 288.56 291.07 1.3087 1.7070 2.8324 655.67 0.0014305 87.880 0.089426 26.202 0.038164 563.67 609.46 2.3440 1.6383 2.1589 211.53 0.25702 8.5199 0.020443
35.375 178.22 0.0033902 292.24 294.97 1.3212 475.47 0.0021032 291.32 293.90 1.3177 1.7114 2.8459 648.82 0.0016131 86.927 0.088977 26.870 0.037216 564.60 610.33 2.3433 1.6452 2.1763 211.04 0.25599 8.5586 0.020613
36.375 182.50 0.0032611 294.97 297.77 1.3300 473.77 0.0021107 294.09 296.74 1.3267 1.7158 2.8597 641.96 0.0018012 85.980 0.088531 27.553 0.036293 565.52 611.19 2.3426 1.6522 2.1942 210.53 0.25498 8.5978 0.020786
37.375 186.84 0.0031189 297.71 300.57 1.3388 472.05 0.0021184 296.87 299.60 1.3357 1.7203 2.8739 635.08 0.0019950 85.040 0.088085 28.252 0.035395 566.44 612.04 2.3419 1.6592 2.2125 210.01 0.25400 8.6376 0.020962
38.375 191.27 0.0029626 300.45 303.38 1.3477 470.31 0.0021262 299.66 302.46 1.3447 1.7248 2.8884 628.19 0.0021949 84.105 0.087642 28.967 0.034522 567.35 612.88 2.3411 1.6663 2.2314 209.47 0.25305 8.6780 0.021141
39.375 195.77 0.0027915 303.20 306.20 1.3565 468.56 0.0021342 302.46 305.34 1.3537 1.7293 2.9033 621.29 0.0024011 83.177 0.087200 29.699 0.033671 568.26 613.70 2.3404 1.6734 2.2508 208.92 0.25213 8.7190 0.021323
40.375 200.34 0.0026045 305.96 309.03 1.3653 466.80 0.0021423 305.27 308.23 1.3627 1.7339 2.9185 614.37 0.0026140 82.254 0.086760 30.447 0.032844 569.15 614.52 2.3396 1.6806 2.2708 208.36 0.25123 8.7608 0.021508
41.375 205.00 0.0024007 308.73 311.87 1.3741 465.01 0.0021505 308.10 311.14 1.3718 1.7385 2.9342 607.43 0.0028338 81.338 0.086322 31.214 0.032037 570.04 615.32 2.3389 1.6879 2.2913 207.78 0.25037 8.8032 0.021696
42.375 209.73 0.0021790 311.50 314.72 1.3829 463.21 0.0021588 310.94 314.06 1.3808 1.7432 2.9502 600.47 0.0030609 80.426 0.085885 31.998 0.031252 570.92 616.11 2.3381 1.6952 2.3125 207.19 0.24953 8.8463 0.021888
43.375 214.54 0.0019382 314.29 317.57 1.3917 461.40 0.0021673 313.79 316.99 1.3899 1.7478 2.9667 593.50 0.0032957 79.520 0.085449 32.800 0.030488 571.79 616.88 2.3373 1.7027 2.3344 206.58 0.24871 8.8902 0.022084
44.375 219.43 0.0016772 317.08 320.44 1.4005 459.56 0.0021760 316.65 319.94 1.3989 1.7525 2.9837 586.51 0.0035386 78.619 0.085015 33.622 0.029742 572.65 617.65 2.3365 1.7101 2.3569 205.96 0.24793 8.9349 0.022283
45.375 224.41 0.0013946 319.88 323.31 1.4093 457.71 0.0021848 319.52 322.90 1.4080 1.7573 3.0012 579.50 0.0037900 77.723 0.084583 34.463 0.029016 573.50 618.40 2.3357 1.7177 2.3802 205.32 0.24717 8.9805 0.022485
46.375 229.46 0.0010890 322.68 326.20 1.4181 455.83 0.0021938 322.41 325.88 1.4171 1.7621 3.0192 572.46 0.0040504 76.832 0.084152 35.325 0.028308 574.34 619.13 2.3349 1.7253 2.4042 204.67 0.24644 9.0269 0.022692
47.375 234.60 0.00075885 325.50 329.09 1.4269 453.94 0.0022029 325.31 328.87 1.4262 1.7669 3.0377 565.41 0.0043202 75.946 0.083723 36.208 0.027618 575.17 619.85 2.3340 1.7329 2.4291 204.00 0.24573 9.0742 0.022903
48.375 239.83 0.00040256 328.32 332.00 1.4357 452.03 0.0022123 328.22 331.88 1.4353 1.7718 3.0569 558.34 0.0046000 75.064 0.083295 37.112 0.026945 576.00 620.55 2.3332 1.7407 2.4548 203.31 0.24505 9.1224 0.023119
49.375 245.13 1.8341e-05 331.15 334.91 1.4445 450.09 0.0022218 331.15 334.90 1.4445 1.7767 3.0766 551.24 0.0048904 74.186 0.082868 38.039 0.026289 576.81 621.24 2.3323 1.7485 2.4815 202.61 0.24440 9.1716 0.023339
50.375 297.76 undefined 332.98 337.54 1.4501 450.00 0.0022222 332.98 337.54 1.4501 1.7798 3.0660 554.18 0.0047466 74.164 0.082935 450.00 0.0022222 332.98 337.54 1.4501 1.7798 3.0660 554.18 0.0047466 74.164 0.082935
51.375 352.75 undefined 334.76 340.17 1.4556 450.00 0.0022222 334.76 340.17 1.4556 1.7829 3.0544 557.55 0.0045864 74.182 0.083026 450.00 0.0022222 334.76 340.17 1.4556 1.7829 3.0544 557.55 0.0045864 74.182 0.083026
52.375 407.82 undefined 336.55 342.79 1.4611 450.00 0.0022222 336.55 342.79 1.4611 1.7861 3.0433 560.86 0.0044311 74.201 0.083117 450.00 0.0022222 336.55 342.79 1.4611 1.7861 3.0433 560.86 0.0044311 74.201 0.083117
53.375 462.97 undefined 338.33 345.43 1.4666 450.00 0.0022222 338.33 345.43 1.4666 1.7892 3.0328 564.11 0.0042802 74.219 0.083209 450.00 0.0022222 338.33 345.43 1.4666 1.7892 3.0328 564.11 0.0042802 74.219 0.083209
54.375 518.20 undefined 340.12 348.06 1.4721 450.00 0.0022222 340.12 348.06 1.4721 1.7924 3.0227 567.31 0.0041337 74.238 0.083302 450.00 0.0022222 340.12 348.06 1.4721 1.7924 3.0227 567.31 0.0041337 74.238 0.083302
55.375 573.49 undefined 341.92 350.70 1.4776 450.00 0.0022222 341.92 350.70 1.4776 1.7957 3.0131 570.45 0.0039912 74.257 0.083395 450.00 0.0022222 341.92 350.70 1.4776 1.7957 3.0131 570.45 0.0039912 74.257 0.083395
56.375 628.86 undefined 343.71 353.35 1.4830 450.00 0.0022222 343.71 353.35 1.4830 1.7990 3.0039 573.55 0.0038527 74.275 0.083488 450.00 0.0022222 343.71 353.35 1.4830 1.7990 3.0039 573.55 0.0038527 74.275 0.083488
57.375 684.28 undefined 345.52 356.00 1.4885 450.00 0.0022222 345.52 356.00 1.4885 1.8024 2.9951 576.60 0.0037178 74.294 0.083582 450.00 0.0022222 345.52 356.00 1.4885 1.8024 2.9951 576.60 0.0037178 74.294 0.083582
58.375 739.77 undefined 347.32 358.65 1.4939 450.00 0.0022222 347.32 358.65 1.4939 1.8057 2.9867 579.61 0.0035865 74.313 0.083677 450.00 0.0022222 347.32 358.65 1.4939 1.8057 2.9867 579.61 0.0035865 74.313 0.083677
59.375 795.31 undefined 349.13 361.31 1.4994 450.00 0.0022222 349.13 361.31 1.4994 1.8092 2.9787 582.57 0.0034586 74.331 0.083772 450.00 0.0022222 349.13 361.31 1.4994 1.8092 2.9787 582.57 0.0034586 74.331 0.083772
60.375 850.91 undefined 350.94 363.98 1.5048 450.00 0.0022222 350.94 363.98 1.5048 1.8126 2.9710 585.49 0.0033339 74.350 0.083867 450.00 0.0022222 350.94 363.98 1.5048 1.8126 2.9710 585.49 0.0033339 74.350 0.083867
61.375 906.57 undefined 352.75 366.64 1.5102 450.00 0.0022222 352.75 366.64 1.5102 1.8161 2.9636 588.37 0.0032123 74.369 0.083963 450.00 0.0022222 352.75 366.64 1.5102 1.8161 2.9636 588.37 0.0032123 74.369 0.083963
62.375 962.27 undefined 354.57 369.31 1.5157 450.00 0.0022222 354.57 369.31 1.5157 1.8196 2.9566 591.21 0.0030937 74.388 0.084059 450.00 0.0022222 354.57 369.31 1.5157 1.8196 2.9566 591.21 0.0030937 74.388 0.084059
63.375 1018.0 undefined 356.39 371.99 1.5211 450.00 0.0022222 356.39 371.99 1.5211 1.8232 2.9498 594.02 0.0029780 74.407 0.084156 450.00 0.0022222 356.39 371.99 1.5211 1.8232 2.9498 594.02 0.0029780 74.407 0.084156
64.375 1073.8 undefined 358.22 374.67 1.5265 450.00 0.0022222 358.22 374.67 1.5265 1.8268 2.9434 596.79 0.0028650 74.426 0.084253 450.00 0.0022222 358.22 374.67 1.5265 1.8268 2.9434 596.79 0.0028650 74.426 0.084253
65.375 1129.6 undefined 360.05 377.35 1.5319 450.00 0.0022222 360.05 377.35 1.5319 1.8304 2.9372 599.52 0.0027546 74.445 0.084351 450.00 0.0022222 360.05 377.35 1.5319 1.8304 2.9372 599.52 0.0027546 74.445 0.084351
66.375 1185.5 undefined 361.88 380.04 1.5373 450.00 0.0022222 361.88 380.04 1.5373 1.8340 2.9313 602.22 0.0026468 74.463 0.084449 450.00 0.0022222 361.88 380.04 1.5373 1.8340 2.9313 602.22 0.0026468 74.463 0.084449
67.375 1241.4 undefined 363.71 382.73 1.5427 450.00 0.0022222 363.71 382.73 1.5427 1.8377 2.9256 604.89 0.0025414 74.482 0.084547 450.00 0.0022222 363.71 382.73 1.5427 1.8377 2.9256 604.89 0.0025414 74.482 0.084547
68.375 1297.4 undefined 365.55 385.43 1.5481 450.00 0.0022222 365.55 385.43 1.5481 1.8414 2.9202 607.53 0.0024384 74.501 0.084646 450.00 0.0022222 365.55 385.43 1.5481 1.8414 2.9202 607.53 0.0024384 74.501 0.084646
69.375 1353.3 undefined 367.40 388.13 1.5535 450.00 0.0022222 367.40 388.13 1.5535 1.8452 2.9150 610.13 0.0023376 74.520 0.084745 450.00 0.0022222 367.40 388.13 1.5535 1.8452 2.9150 610.13 0.0023376 74.520 0.084745
70.375 1409.3 undefined 369.24 390.84 1.5589 450.00 0.0022222 369.24 390.84 1.5589 1.8489 2.9101 612.71 0.0022391 74.539 0.084845 450.00 0.0022222 369.24 390.84 1.5589 1.8489 2.9101 612.71 0.0022391 74.539 0.084845
71.375 1465.4 undefined 371.09 393.55 1.5643 450.00 0.0022222 371.09 393.55 1.5643 1.8527 2.9053 615.26 0.0021427 74.559 0.084944 450.00 0.0022222 371.09 393.55 1.5643 1.8527 2.9053 615.26 0.0021427 74.559 0.084944
72.375 1521.5 undefined 372.95 396.26 1.5696 450.00 0.0022222 372.95 396.26 1.5696 1.8565 2.9008 617.79 0.0020483 74.578 0.085045 450.00 0.0022222 372.95 396.26 1.5696 1.8565 2.9008 617.79 0.0020483 74.578 0.085045
73.375 1577.5 undefined 374.81 398.98 1.5750 450.00 0.0022222 374.81 398.98 1.5750 1.8603 2.8965 620.29 0.0019559 74.597 0.085146 450.00 0.0022222 374.81 398.98 1.5750 1.8603 2.8965 620.29 0.0019559 74.597 0.085146
74.375 1633.7 undefined 376.67 401.70 1.5804 450.00 0.0022222 376.67 401.70 1.5804 1.8641 2.8923 622.76 0.0018655 74.616 0.085247 450.00 0.0022222 376.67 401.70 1.5804 1.8641 2.8923 622.76 0.0018655 74.616 0.085247
75.375 1689.8 undefined 378.54 404.43 1.5857 450.00 0.0022222 378.54 404.43 1.5857 1.8680 2.8884 625.21 0.0017769 74.635 0.085348 450.00 0.0022222 378.54 404.43 1.5857 1.8680 2.8884 625.21 0.0017769 74.635 0.085348
76.375 1746.0 undefined 380.41 407.16 1.5911 450.00 0.0022222 380.41 407.16 1.5911 1.8719 2.8846 627.63 0.0016901 74.654 0.085450 450.00 0.0022222 380.41 407.16 1.5911 1.8719 2.8846 627.63 0.0016901 74.654 0.085450
77.375 1802.1 undefined 382.28 409.89 1.5965 450.00 0.0022222 382.28 409.89 1.5965 1.8758 2.8810 630.03 0.0016051 74.673 0.085552 450.00 0.0022222 382.28 409.89 1.5965 1.8758 2.8810 630.03 0.0016051 74.673 0.085552
78.375 1858.3 undefined 384.16 412.63 1.6018 450.00 0.0022222 384.16 412.63 1.6018 1.8797 2.8776 632.41 0.0015217 74.693 0.085655 450.00 0.0022222 384.16 412.63 1.6018 1.8797 2.8776 632.41 0.0015217 74.693 0.085655
79.375 1914.5 undefined 386.04 415.37 1.6071 450.00 0.0022222 386.04 415.37 1.6071 1.8836 2.8743 634.77 0.0014400 74.712 0.085757 450.00 0.0022222 386.04 415.37 1.6071 1.8836 2.8743 634.77 0.0014400 74.712 0.085757
80.375 1970.8 undefined 387.92 418.12 1.6125 450.00 0.0022222 387.92 418.12 1.6125 1.8875 2.8712 637.11 0.0013600 74.731 0.085861 450.00 0.0022222 387.92 418.12 1.6125 1.8875 2.8712 637.11 0.0013600 74.731 0.085861
81.375 2027.0 undefined 389.81 420.87 1.6178 450.00 0.0022222 389.81 420.87 1.6178 1.8915 2.8683 639.42 0.0012815 74.750 0.085964 450.00 0.0022222 389.81 420.87 1.6178 1.8915 2.8683 639.42 0.0012815 74.750 0.085964
82.375 2083.3 undefined 391.71 423.63 1.6232 450.00 0.0022222 391.71 423.63 1.6232 1.8955 2.8654 641.72 0.0012045 74.770 0.086068 450.00 0.0022222 391.71 423.63 1.6232 1.8955 2.8654 641.72 0.0012045 74.770 0.086068
83.375 2139.6 undefined 393.60 426.39 1.6285 450.00 0.0022222 393.60 426.39 1.6285 1.8995 2.8628 644.00 0.0011289 74.789 0.086173 450.00 0.0022222 393.60 426.39 1.6285 1.8995 2.8628 644.00 0.0011289 74.789 0.086173
84.375 2195.8 undefined 395.51 429.15 1.6338 450.00 0.0022222 395.51 429.15 1.6338 1.9034 2.8602 646.26 0.0010548 74.808 0.086277 450.00 0.0022222 395.51 429.15 1.6338 1.9034 2.8602 646.26 0.0010548 74.808 0.086277
85.375 2252.1 undefined 397.41 431.92 1.6391 450.00 0.0022222 397.41 431.92 1.6391 1.9075 2.8578 648.50 0.00098214 74.828 0.086382 450.00 0.0022222 397.41 431.92 1.6391 1.9075 2.8578 648.50 0.00098214 74.828 0.086382
86.375 2308.4 undefined 399.32 434.69 1.6445 450.00 0.0022222 399.32 434.69 1.6445 1.9115 2.8556 650.72 0.00091081 74.847 0.086488 450.00 0.0022222 399.32 434.69 1.6445 1.9115 2.8556 650.72 0.00091081 74.847 0.086488
87.375 2364.8 undefined 401.23 437.47 1.6498 450.00 0.0022222 401.23 437.47 1.6498 1.9155 2.8534 652.93 0.00084080 74.866 0.086593 450.00 0.0022222 401.23 437.47 1.6498 1.9155 2.8534 652.93 0.00084080 74.866 0.086593
88.375 2421.1 undefined 403.15 440.25 1.6551 450.00 0.0022222 403.15 440.25 1.6551 1.9195 2.8514 655.12 0.00077207 74.886 0.086699 450.00 0.0022222 403.15 440.25 1.6551 1.9195 2.8514 655.12 0.00077207 74.886 0.086699
89.375 2477.4 undefined 405.07 443.03 1.6604 450.00 0.0022222 405.07 443.03 1.6604 1.9236 2.8495 657.29 0.00070461 74.905 0.086806 450.00 0.0022222 405.07 443.03 1.6604 1.9236 2.8495 657.29 0.00070461 74.905 0.086806
90.375 2533.7 undefined 407.00 445.82 1.6657 450.00 0.0022222 407.00 445.82 1.6657 1.9276 2.8477 659.45 0.00063837 74.925 0.086913 450.00 0.0022222 407.00 445.82 1.6657 1.9276 2.8477 659.45 0.00063837 74.925 0.086913
91.375 2590.1 undefined 408.93 448.61 1.6710 450.00 0.0022222 408.93 448.61 1.6710 1.9317 2.8460 661.59 0.00057333 74.944 0.087020 450.00 0.0022222 408.93 448.61 1.6710 1.9317 2.8460 661.59 0.00057333 74.944 0.087020
92.375 2646.4 undefined 410.86 451.41 1.6763 450.00 0.0022222 410.86 451.41 1.6763 1.9358 2.8444 663.72 0.00050945 74.964 0.087127 450.00 0.0022222 410.86 451.41 1.6763 1.9358 2.8444 663.72 0.00050945 74.964 0.087127
93.375 2702.8 undefined 412.80 454.21 1.6816 450.00 0.0022222 412.80 454.21 1.6816 1.9398 2.8429 665.84 0.00044671 74.983 0.087235 450.00 0.0022222 412.80 454.21 1.6816 1.9398 2.8429 665.84 0.00044671 74.983 0.087235
94.375 2759.1 undefined 414.74 457.02 1.6869 450.00 0.0022222 414.74 457.02 1.6869 1.9439 2.8416 667.93 0.00038508 75.003 0.087343 450.00 0.0022222 414.74 457.02 1.6869 1.9439 2.8416 667.93 0.00038508 75.003 0.087343
95.375 2815.5 undefined 416.69 459.83 1.6922 450.00 0.0022222 416.69 459.83 1.6922 1.9480 2.8403 670.02 0.00032454 75.022 0.087451 450.00 0.0022222 416.69 459.83 1.6922 1.9480 2.8403 670.02 0.00032454 75.022 0.087451
96.375 2871.8 undefined 418.64 462.64 1.6975 450.00 0.0022222 418.64 462.64 1.6975 1.9521 2.8391 672.09 0.00026505 75.042 0.087560 450.00 0.0022222 418.64 462.64 1.6975 1.9521 2.8391 672.09 0.00026505 75.042 0.087560
97.375 2928.2 undefined 420.59 465.46 1.7027 450.00 0.0022222 420.59 465.46 1.7027 1.9562 2.8380 674.15 0.00020660 75.062 0.087669 450.00 0.0022222 420.59 465.46 1.7027 1.9562 2.8380 674.15 0.00020660 75.062 0.087669
98.375 2984.5 undefined 422.55 468.28 1.7080 450.00 0.0022222 422.55 468.28 1.7080 1.9603 2.8370 676.19 0.00014917 75.081 0.087778 450.00 0.0022222 422.55 468.28 1.7080 1.9603 2.8370 676.19 0.00014917 75.081 0.087778
99.375 3040.9 undefined 424.51 471.10 1.7133 450.00 0.0022222 424.51 471.10 1.7133 1.9644 2.8361 678.23 9.2713e-05 75.101 0.087888 450.00 0.0022222 424.51 471.10 1.7133 1.9644 2.8361 678.23 9.2713e-05 75.101 0.087888
100.38 3097.2 undefined 426.48 473.93 1.7186 450.00 0.0022222 426.48 473.93 1.7186 1.9685 2.8353 680.25 3.7226e-05 75.120 0.087998 450.00 0.0022222 426.48 473.93 1.7186 1.9685 2.8353 680.25 3.7226e-05 75.120 0.087998
101.38 3153.6 undefined 428.45 476.77 1.7238 450.00 0.0022222 428.45 476.77 1.7238 1.9727 2.8345 682.25 -1.7318e-05 75.140 0.088108 450.00 0.0022222 428.45 476.77 1.7238 1.9727 2.8345 682.25 -1.7318e-05 75.140 0.088108
102.38 3209.9 undefined 430.42 479.61 1.7291 450.00 0.0022222 430.42 479.61 1.7291 1.9768 2.8338 684.25 -7.0940e-05 75.160 0.088219 450.00 0.0022222 430.42 479.61 1.7291 1.9768 2.8338 684.25 -7.0940e-05 75.160 0.088219
103.38 3266.3 undefined 432.40 482.45 1.7344 450.00 0.0022222 432.40 482.45 1.7344 1.9809 2.8333 686.23 -0.00012366 75.179 0.088330 450.00 0.0022222 432.40 482.45 1.7344 1.9809 2.8333 686.23 -0.00012366 75.179 0.088330
104.38 3322.6 undefined 434.39 485.29 1.7396 450.00 0.0022222 434.39 485.29 1.7396 1.9850 2.8327 688.20 -0.00017550 75.199 0.088441 450.00 0.0022222 434.39 485.29 1.7396 1.9850 2.8327 688.20 -0.00017550 75.199 0.088441
105.38 3379.0 undefined 436.37 488.14 1.7449 450.00 0.0022222 436.37 488.14 1.7449 1.9892 2.8323 690.17 -0.00022647 75.219 0.088553 450.00 0.0022222 436.37 488.14 1.7449 1.9892 2.8323 690.17 -0.00022647 75.219 0.088553
106.38 3435.3 undefined 438.36 491.00 1.7501 450.00 0.0022222 438.36 491.00 1.7501 1.9933 2.8319 692.11 -0.00027660 75.239 0.088665 450.00 0.0022222 438.36 491.00 1.7501 1.9933 2.8319 692.11 -0.00027660 75.239 0.088665
107.38 3491.6 undefined 440.36 493.86 1.7554 450.00 0.0022222 440.36 493.86 1.7554 1.9974 2.8316 694.05 -0.00032591 75.258 0.088777 450.00 0.0022222 440.36 493.86 1.7554 1.9974 2.8316 694.05 -0.00032591 75.258 0.088777
108.38 3548.0 undefined 442.36 496.72 1.7606 450.00 0.0022222 442.36 496.72 1.7606 2.0016 2.8314 695.98 -0.00037440 75.278 0.088890 450.00 0.0022222 442.36 496.72 1.7606 2.0016 2.8314 695.98 -0.00037440 75.278 0.088890
109.38 3604.3 undefined 444.36 499.59 1.7659 450.00 0.0022222 444.36 499.59 1.7659 2.0057 2.8312 697.90 -0.00042211 75.298 0.089002 450.00 0.0022222 444.36 499.59 1.7659 2.0057 2.8312 697.90 -0.00042211 75.298 0.089002
110.38 3660.6 undefined 446.37 502.46 1.7711 450.00 0.0022222 446.37 502.46 1.7711 2.0098 2.8311 699.81 -0.00046904 75.318 0.089116 450.00 0.0022222 446.37 502.46 1.7711 2.0098 2.8311 699.81 -0.00046904 75.318 0.089116
111.38 3716.9 undefined 448.38 505.33 1.7763 450.00 0.0022222 448.38 505.33 1.7763 2.0140 2.8311 701.70 -0.00051521 75.337 0.089229 450.00 0.0022222 448.38 505.33 1.7763 2.0140 2.8311 701.70 -0.00051521 75.337 0.089229
112.38 3773.2 undefined 450.40 508.21 1.7816 450.00 0.0022222 450.40 508.21 1.7816 2.0181 2.8311 703.59 -0.00056064 75.357 0.089343 450.00 0.0022222 450.40 508.21 1.7816 2.0181 2.8311 703.59 -0.00056064 75.357 0.089343
113.38 3829.5 undefined 452.42 511.09 1.7868 450.00 0.0022222 452.42 511.09 1.7868 2.0223 2.8312 705.47 -0.00060534 75.377 0.089457 450.00 0.0022222 452.42 511.09 1.7868 2.0223 2.8312 705.47 -0.00060534 75.377 0.089457
114.38 3885.8 undefined 454.44 513.98 1.7920 450.00 0.0022222 454.44 513.98 1.7920 2.0264 2.8314 707.34 -0.00064933 75.397 0.089572 450.00 0.0022222 454.44 513.98 1.7920 2.0264 2.8314 707.34 -0.00064933 75.397 0.089572
115.38 3942.1 undefined 456.47 516.87 1.7973 450.00 0.0022222 456.47 516.87 1.7973 2.0306 2.8316 709.20 -0.00069262 75.417 0.089686 450.00 0.0022222 456.47 516.87 1.7973 2.0306 2.8316 709.20 -0.00069262 75.417 0.089686
116.38 3998.4 undefined 458.50 519.77 1.8025 450.00 0.0022222 458.50 519.77 1.8025 2.0347 2.8318 711.05 -0.00073523 75.437 0.089801 450.00 0.0022222 458.50 519.77 1.8025 2.0347 2.8318 711.05 -0.00073523 75.437 0.089801
117.38 4054.6 undefined 460.54 522.67 1.8077 450.00 0.0022222 460.54 522.67 1.8077 2.0389 2.8321 712.89 -0.00077716 75.457 0.089917 450.00 0.0022222 460.54 522.67 1.8077 2.0389 2.8321 712.89 -0.00077716 75.457 0.089917
118.38 4110.9 undefined 462.58 525.57 1.8129 450.00 0.0022222 462.58 525.57 1.8129 2.0430 2.8325 714.72 -0.00081844 75.476 0.090033 450.00 0.0022222 462.58 525.57 1.8129 2.0430 2.8325 714.72 -0.00081844 75.476 0.090033
119.38 4167.2 undefined 464.63 528.48 1.8182 450.00 0.0022222 464.63 528.48 1.8182 2.0471 2.8329 716.54 -0.00085908 75.496 0.090149 450.00 0.0022222 464.63 528.48 1.8182 2.0471 2.8329 716.54 -0.00085908 75.496 0.090149
120.38 4223.4 undefined 466.68 531.39 1.8234 450.00 0.0022222 466.68 531.39 1.8234 2.0513 2.8334 718.35 -0.00089908 75.516 0.090265 450.00 0.0022222 466.68 531.39 1.8234 2.0513 2.8334 718.35 -0.00089908 75.516 0.090265
121.38 4279.6 undefined 468.73 534.30 1.8286 450.00 0.0022222 468.73 534.30 1.8286 2.0554 2.8339 720.16 -0.00093847 75.536 0.090381 450.00 0.0022222 468.73 534.30 1.8286 2.0554 2.8339 720.16 -0.00093847 75.536 0.090381
122.38 4335.9 undefined 470.79 537.22 1.8338 450.00 0.0022222 470.79 537.22 1.8338 2.0596 2.8344 721.95 -0.00097725 75.556 0.090498 450.00 0.0022222 470.79 537.22 1.8338 2.0596 2.8344 721.95 -0.00097725 75.556 0.090498
123.38 4392.1 undefined 472.85 540.14 1.8390 450.00 0.0022222 472.85 540.14 1.8390 2.0637 2.8350 723.74 -0.0010154 75.576 0.090616 450.00 0.0022222 472.85 540.14 1.8390 2.0637 2.8350 723.74 -0.0010154 75.576 0.090616
124.38 4448.3 undefined 474.91 543.07 1.8442 450.00 0.0022222 474.91 543.07 1.8442 2.0679 2.8357 725.52 -0.0010530 75.596 0.090733 450.00 0.0022222 474.91 543.07 1.8442 2.0679 2.8357 725.52 -0.0010530 75.596 0.090733
125.38 4504.5 undefined 476.98 546.00 1.8494 450.00 0.0022222 476.98 546.00 1.8494 2.0720 2.8364 727.29 -0.0010901 75.616 0.090851 450.00 0.0022222 476.98 546.00 1.8494 2.0720 2.8364 727.29 -0.0010901 75.616 0.090851
126.38 4560.6 undefined 479.06 548.94 1.8546 450.00 0.0022222 479.06 548.94 1.8546 2.0761 2.8371 729.06 -0.0011265 75.636 0.090969 450.00 0.0022222 479.06 548.94 1.8546 2.0761 2.8371 729.06 -0.0011265 75.636 0.090969
127.38 4616.8 undefined 481.14 551.87 1.8598 450.00 0.0022222 481.14 551.87 1.8598 2.0803 2.8379 730.81 -0.0011625 75.656 0.091088 450.00 0.0022222 481.14 551.87 1.8598 2.0803 2.8379 730.81 -0.0011625 75.656 0.091088
128.38 4673.0 undefined 483.22 554.82 1.8650 450.00 0.0022222 483.22 554.82 1.8650 2.0844 2.8387 732.56 -0.0011978 75.676 0.091206 450.00 0.0022222 483.22 554.82 1.8650 2.0844 2.8387 732.56 -0.0011978 75.676 0.091206
129.38 4729.1 undefined 485.31 557.76 1.8702 450.00 0.0022222 485.31 557.76 1.8702 2.0886 2.8396 734.30 -0.0012327 75.696 0.091326 450.00 0.0022222 485.31 557.76 1.8702 2.0886 2.8396 734.30 -0.0012327 75.696 0.091326
130.38 4785.3 undefined 487.40 560.71 1.8754 450.00 0.0022222 487.40 560.71 1.8754 2.0927 2.8405 736.03 -0.0012670 75.716 0.091445 450.00 0.0022222 487.40 560.71 1.8754 2.0927 2.8405 736.03 -0.0012670 75.716 0.091445
131.38 4841.4 undefined 489.49 563.67 1.8805 450.00 0.0022222 489.49 563.67 1.8805 2.0968 2.8414 737.76 -0.0013008 75.736 0.091565 450.00 0.0022222 489.49 563.67 1.8805 2.0968 2.8414 737.76 -0.0013008 75.736 0.091565
132.38 4897.5 undefined 491.59 566.63 1.8857 450.00 0.0022222 491.59 566.63 1.8857 2.1010 2.8424 739.47 -0.0013342 75.756 0.091685 450.00 0.0022222 491.59 566.63 1.8857 2.1010 2.8424 739.47 -0.0013342 75.756 0.091685
133.38 4953.6 undefined 493.69 569.59 1.8909 450.00 0.0022222 493.69 569.59 1.8909 2.1051 2.8434 741.19 -0.0013670 75.776 0.091805 450.00 0.0022222 493.69 569.59 1.8909 2.1051 2.8434 741.19 -0.0013670 75.776 0.091805
134.38 5009.7 undefined 495.80 572.56 1.8961 450.00 0.0022222 495.80 572.56 1.8961 2.1092 2.8445 742.89 -0.0013993 75.796 0.091925 450.00 0.0022222 495.80 572.56 1.8961 2.1092 2.8445 742.89 -0.0013993 75.796 0.091925
135.38 5065.8 undefined 497.91 575.53 1.9013 450.00 0.0022222 497.91 575.53 1.9013 2.1133 2.8455 744.58 -0.0014312 75.817 0.092046 450.00 0.0022222 497.91 575.53 1.9013 2.1133 2.8455 744.58 -0.0014312 75.817 0.092046
136.38 5121.8 undefined 500.03 578.50 1.9064 450.00 0.0022222 500.03 578.50 1.9064 2.1175 2.8467 746.27 -0.0014626 75.837 0.092168 450.00 0.0022222 500.03 578.50 1.9064 2.1175 2.8467 746.27 -0.0014626 75.837 0.092168
137.38 5177.9 undefined 502.15 581.48 1.9116 450.00 0.0022222 502.15 581.48 1.9116 2.1216 2.8478 747.96 -0.0014936 75.857 0.092289 450.00 0.0022222 502.15 581.48 1.9116 2.1216 2.8478 747.96 -0.0014936 75.857 0.092289
138.38 5233.9 undefined 504.27 584.46 1.9168 450.00 0.0022222 504.27 584.46 1.9168 2.1257 2.8490 749.63 -0.0015241 75.877 0.092411 450.00 0.0022222 504.27 584.46 1.9168 2.1257 2.8490 749.63 -0.0015241 75.877 0.092411
139.38 5289.9 undefined 506.40 587.45 1.9219 450.00 0.0022222 506.40 587.45 1.9219 2.1298 2.8502 751.30 -0.0015541 75.897 0.092533 450.00 0.0022222 506.40 587.45 1.9219 2.1298 2.8502 751.30 -0.0015541 75.897 0.092533
140.38 5345.9 undefined 508.53 590.44 1.9271 450.00 0.0022222 508.53 590.44 1.9271 2.1339 2.8515 752.96 -0.0015838 75.917 0.092655 450.00 0.0022222 508.53 590.44 1.9271 2.1339 2.8515 752.96 -0.0015838 75.917 0.092655
141.38 5401.9 undefined 510.67 593.43 1.9323 450.00 0.0022222 510.67 593.43 1.9323 2.1381 2.8527 754.62 -0.0016130 75.937 0.092778 450.00 0.0022222 510.67 593.43 1.9323 2.1381 2.8527 754.62 -0.0016130 75.937 0.092778
142.38 5457.9 undefined 512.81 596.43 1.9374 450.00 0.0022222 512.81 596.43 1.9374 2.1422 2.8540 756.27 -0.0016417 75.957 0.092901 450.00 0.0022222 512.81 596.43 1.9374 2.1422 2.8540 756.27 -0.0016417 75.957 0.092901
143.38 5513.9 undefined 514.95 599.43 1.9426 450.00 0.0022222 514.95 599.43 1.9426 2.1463 2.8554 757.91 -0.0016701 75.978 0.093024 450.00 0.0022222 514.95 599.43 1.9426 2.1463 2.8554 757.91 -0.0016701 75.978 0.093024
144.38 5569.8 undefined 517.10 602.44 1.9477 450.00 0.0022222 517.10 602.44 1.9477 2.1504 2.8567 759.54 -0.0016981 75.998 0.093148 450.00 0.0022222 517.10 602.44 1.9477 2.1504 2.8567 759.54 -0.0016981 75.998 0.093148
145.38 5625.8 undefined 519.25 605.45 1.9529 450.00 0.0022222 519.25 605.45 1.9529 2.1545 2.8581 761.17 -0.0017257 76.018 0.093272 450.00 0.0022222 519.25 605.45 1.9529 2.1545 2.8581 761.17 -0.0017257 76.018 0.093272
146.38 5681.7 undefined 521.41 608.46 1.9580 450.00 0.0022222 521.41 608.46 1.9580 2.1586 2.8596 762.80 -0.0017529 76.038 0.093396 450.00 0.0022222 521.41 608.46 1.9580 2.1586 2.8596 762.80 -0.0017529 76.038 0.093396
147.38 5737.6 undefined 523.57 611.48 1.9632 450.00 0.0022222 523.57 611.48 1.9632 2.1627 2.8610 764.41 -0.0017797 76.058 0.093521 450.00 0.0022222 523.57 611.48 1.9632 2.1627 2.8610 764.41 -0.0017797 76.058 0.093521
148.38 5793.5 undefined 525.73 614.50 1.9683 450.00 0.0022222 525.73 614.50 1.9683 2.1668 2.8625 766.02 -0.0018061 76.079 0.093645 450.00 0.0022222 525.73 614.50 1.9683 2.1668 2.8625 766.02 -0.0018061 76.079 0.093645
149.38 5849.3 undefined 527.90 617.52 1.9734 450.00 0.0022222 527.90 617.52 1.9734 2.1709 2.8640 767.63 -0.0018322 76.099 0.093770 450.00 0.0022222 527.90 617.52 1.9734 2.1709 2.8640 767.63 -0.0018322 76.099 0.093770
150.38 5905.2 undefined 530.07 620.55 1.9786 450.00 0.0022222 530.07 620.55 1.9786 2.1749 2.8655 769.23 -0.0018579 76.119 0.093896 450.00 0.0022222 530.07 620.55 1.9786 2.1749 2.8655 769.23 -0.0018579 76.119 0.093896
151.38 5961.0 undefined 532.25 623.58 1.9837 450.00 0.0022222 532.25 623.58 1.9837 2.1790 2.8670 770.82 -0.0018832 76.139 0.094021 450.00 0.0022222 532.25 623.58 1.9837 2.1790 2.8670 770.82 -0.0018832 76.139 0.094021
152.38 6016.9 undefined 534.43 626.62 1.9888 450.00 0.0022222 534.43 626.62 1.9888 2.1831 2.8686 772.41 -0.0019082 76.159 0.094147 450.00 0.0022222 534.43 626.62 1.9888 2.1831 2.8686 772.41 -0.0019082 76.159 0.094147
153.38 6072.7 undefined 536.62 629.66 1.9940 450.00 0.0022222 536.62 629.66 1.9940 2.1872 2.8702 773.99 -0.0019329 76.180 0.094274 450.00 0.0022222 536.62 629.66 1.9940 2.1872 2.8702 773.99 -0.0019329 76.180 0.094274
154.38 6128.5 undefined 538.81 632.71 1.9991 450.00 0.0022222 538.81 632.71 1.9991 2.1913 2.8718 775.56 -0.0019572 76.200 0.094400 450.00 0.0022222 538.81 632.71 1.9991 2.1913 2.8718 775.56 -0.0019572 76.200 0.094400
155.38 6184.3 undefined 541.00 635.75 2.0042 450.00 0.0022222 541.00 635.75 2.0042 2.1953 2.8734 777.13 -0.0019811 76.220 0.094527 450.00 0.0022222 541.00 635.75 2.0042 2.1953 2.8734 777.13 -0.0019811 76.220 0.094527
156.38 6240.0 undefined 543.20 638.81 2.0093 450.00 0.0022222 543.20 638.81 2.0093 2.1994 2.8751 778.70 -0.0020048 76.240 0.094654 450.00 0.0022222 543.20 638.81 2.0093 2.1994 2.8751 778.70 -0.0020048 76.240 0.094654
157.38 6295.8 undefined 545.40 641.86 2.0145 450.00 0.0022222 545.40 641.86 2.0145 2.2035 2.8768 780.26 -0.0020281 76.261 0.094782 450.00 0.0022222 545.40 641.86 2.0145 2.2035 2.8768 780.26 -0.0020281 76.261 0.094782
158.38 6351.5 undefined 547.60 644.92 2.0196 450.00 0.0022222 547.60 644.92 2.0196 2.2075 2.8785 781.81 -0.0020511 76.281 0.094910 450.00 0.0022222 547.60 644.92 2.0196 2.2075 2.8785 781.81 -0.0020511 76.281 0.094910
159.38 6407.2 undefined 549.81 647.98 2.0247 450.00 0.0022222 549.81 647.98 2.0247 2.2116 2.8802 783.36 -0.0020738 76.301 0.095038 450.00 0.0022222 549.81 647.98 2.0247 2.2116 2.8802 783.36 -0.0020738 76.301 0.095038
160.38 6462.9 undefined 552.03 651.05 2.0298 450.00 0.0022222 552.03 651.05 2.0298 2.2156 2.8820 784.90 -0.0020962 76.321 0.095166 450.00 0.0022222 552.03 651.05 2.0298 2.2156 2.8820 784.90 -0.0020962 76.321 0.095166
161.38 6518.6 undefined 554.25 654.12 2.0349 450.00 0.0022222 554.25 654.12 2.0349 2.2197 2.8837 786.44 -0.0021183 76.342 0.095295 450.00 0.0022222 554.25 654.12 2.0349 2.2197 2.8837 786.44 -0.0021183 76.342 0.095295
162.38 6574.2 undefined 556.47 657.20 2.0400 450.00 0.0022222 556.47 657.20 2.0400 2.2237 2.8855 787.97 -0.0021401 76.362 0.095424 450.00 0.0022222 556.47 657.20 2.0400 2.2237 2.8855 787.97 -0.0021401 76.362 0.095424
163.38 6629.9 undefined 558.69 660.27 2.0451 450.00 0.0022222 558.69 660.27 2.0451 2.2278 2.8873 789.50 -0.0021616 76.382 0.095553 450.00 0.0022222 558.69 660.27 2.0451 2.2278 2.8873 789.50 -0.0021616 76.382 0.095553
164.38 6685.5 undefined 560.92 663.36 2.0502 450.00 0.0022222 560.92 663.36 2.0502 2.2318 2.8891 791.02 -0.0021828 76.403 0.095682 450.00 0.0022222 560.92 663.36 2.0502 2.2318 2.8891 791.02 -0.0021828 76.403 0.095682
165.38 6741.1 undefined 563.16 666.44 2.0553 450.00 0.0022222 563.16 666.44 2.0553 2.2359 2.8910 792.54 -0.0022037 76.423 0.095812 450.00 0.0022222 563.16 666.44 2.0553 2.2359 2.8910 792.54 -0.0022037 76.423 0.095812
166.38 6796.7 undefined 565.39 669.53 2.0604 450.00 0.0022222 565.39 669.53 2.0604 2.2399 2.8928 794.05 -0.0022244 76.443 0.095942 450.00 0.0022222 565.39 669.53 2.0604 2.2399 2.8928 794.05 -0.0022244 76.443 0.095942
167.38 6852.3 undefined 567.64 672.62 2.0655 450.00 0.0022222 567.64 672.62 2.0655 2.2439 2.8947 795.55 -0.0022448 76.463 0.096073 450.00 0.0022222 567.64 672.62 2.0655 2.2439 2.8947 795.55 -0.0022448 76.463 0.096073
168.38 6907.8 undefined 569.88 675.72 2.0706 450.00 0.0022222 569.88 675.72 2.0706 2.2480 2.8966 797.05 -0.0022649 76.484 0.096203 450.00 0.0022222 569.88 675.72 2.0706 2.2480 2.8966 797.05 -0.0022649 76.484 0.096203
169.38 6963.4 undefined 572.13 678.82 2.0757 450.00 0.0022222 572.13 678.82 2.0757 2.2520 2.8985 798.55 -0.0022847 76.504 0.096334 450.00 0.0022222 572.13 678.82 2.0757 2.2520 2.8985 798.55 -0.0022847 76.504 0.096334
170.38 7018.9 undefined 574.39 681.93 2.0808 450.00 0.0022222 574.39 681.93 2.0808 2.2560 2.9004 800.04 -0.0023043 76.524 0.096466 450.00 0.0022222 574.39 681.93 2.0808 2.2560 2.9004 800.04 -0.0023043 76.524 0.096466
171.38 7074.4 undefined 576.64 685.04 2.0859 450.00 0.0022222 576.64 685.04 2.0859 2.2600 2.9023 801.53 -0.0023236 76.545 0.096597 450.00 0.0022222 576.64 685.04 2.0859 2.2600 2.9023 801.53 -0.0023236 76.545 0.096597
172.38 7129.9 undefined 578.91 688.15 2.0910 450.00 0.0022222 578.91 688.15 2.0910 2.2640 2.9043 803.01 -0.0023427 76.565 0.096729 450.00 0.0022222 578.91 688.15 2.0910 2.2640 2.9043 803.01 -0.0023427 76.565 0.096729
173.38 7185.3 undefined 581.17 691.26 2.0960 450.00 0.0022222 581.17 691.26 2.0960 2.2681 2.9063 804.49 -0.0023615 76.585 0.096861 450.00 0.0022222 581.17 691.26 2.0960 2.2681 2.9063 804.49 -0.0023615 76.585 0.096861
174.38 7240.8 undefined 583.44 694.38 2.1011 450.00 0.0022222 583.44 694.38 2.1011 2.2721 2.9082 805.96 -0.0023801 76.606 0.096994 450.00 0.0022222 583.44 694.38 2.1011 2.2721 2.9082 805.96 -0.0023801 76.606 0.096994
175.38 7296.2 undefined 585.72 697.51 2.1062 450.00 0.0022222 585.72 697.51 2.1062 2.2761 2.9102 807.43 -0.0023984 76.626 0.097126 450.00 0.0022222 585.72 697.51 2.1062 2.2761 2.9102 807.43 -0.0023984 76.626 0.097126
176.38 7351.6 undefined 587.99 700.63 2.1113 450.00 0.0022222 587.99 700.63 2.1113 2.2801 2.9122 808.89 -0.0024165 76.646 0.097259 450.00 0.0022222 587.99 700.63 2.1113 2.2801 2.9122 808.89 -0.0024165 76.646 0.097259
177.38 7407.0 undefined 590.28 703.76 2.1163 450.00 0.0022222 590.28 703.76 2.1163 2.2840 2.9143 810.35 -0.0024344 76.667 0.097393 450.00 0.0022222 590.28 703.76 2.1163 2.2840 2.9143 810.35 -0.0024344 76.667 0.097393
178.38 7462.4 undefined 592.56 706.90 2.1214 450.00 0.0022222 592.56 706.90 2.1214 2.2880 2.9163 811.80 -0.0024520 76.687 0.097526 450.00 0.0022222 592.56 706.90 2.1214 2.2880 2.9163 811.80 -0.0024520 76.687 0.097526
179.38 7517.7 undefined 594.85 710.04 2.1265 450.00 0.0022222 594.85 710.04 2.1265 2.2920 2.9184 813.25 -0.0024694 76.707 0.097660 450.00 0.0022222 594.85 710.04 2.1265 2.2920 2.9184 813.25 -0.0024694 76.707 0.097660
180.38 7573.0 undefined 597.15 713.18 2.1315 450.00 0.0022222 597.15 713.18 2.1315 2.2960 2.9204 814.70 -0.0024866 76.728 0.097794 450.00 0.0022222 597.15 713.18 2.1315 2.2960 2.9204 814.70 -0.0024866 76.728 0.097794
181.38 7628.4 undefined 599.44 716.32 2.1366 450.00 0.0022222 599.44 716.32 2.1366 2.3000 2.9225 816.14 -0.0025036 76.748 0.097929 450.00 0.0022222 599.44 716.32 2.1366 2.3000 2.9225 816.14 -0.0025036 76.748 0.097929
182.38 7683.6 undefined 601.75 719.47 2.1417 450.00 0.0022222 601.75 719.47 2.1417 2.3040 2.9246 817.57 -0.0025203 76.768 0.098064 450.00 0.0022222 601.75 719.47 2.1417 2.3040 2.9246 817.57 -0.0025203 76.768 0.098064
183.38 7738.9 undefined 604.05 722.63 2.1467 450.00 0.0022222 604.05 722.63 2.1467 2.3079 2.9267 819.01 -0.0025368 76.789 0.098199 450.00 0.0022222 604.05 722.63 2.1467 2.3079 2.9267 819.01 -0.0025368 76.789 0.098199
184.38 7794.2 undefined 606.36 725.78 2.1518 450.00 0.0022222 606.36 725.78 2.1518 2.3119 2.9288 820.43 -0.0025532 76.809 0.098334 450.00 0.0022222 606.36 725.78 2.1518 2.3119 2.9288 820.43 -0.0025532 76.809 0.098334
185.38 7849.4 undefined 608.68 728.94 2.1568 450.00 0.0022222 608.68 728.94 2.1568 2.3158 2.9309 821.86 -0.0025693 76.829 0.098470 450.00 0.0022222 608.68 728.94 2.1568 2.3158 2.9309 821.86 -0.0025693 76.829 0.098470
186.38 7904.6 undefined 610.99 732.11 2.1619 450.00 0.0022222 610.99 732.11 2.1619 2.3198 2.9331 823.28 -0.0025852 76.850 0.098606 450.00 0.0022222 610.99 732.11 2.1619 2.3198 2.9331 823.28 -0.0025852 76.850 0.098606
187.38 7959.8 undefined 613.32 735.27 2.1669 450.00 0.0022222 613.32 735.27 2.1669 2.3238 2.9352 824.69 -0.0026009 76.870 0.098742 450.00 0.0022222 613.32 735.27 2.1669 2.3238 2.9352 824.69 -0.0026009 76.870 0.098742
188.38 8015.0 undefined 615.64 738.45 2.1720 450.00 0.0022222 615.64 738.45 2.1720 2.3277 2.9374 826.10 -0.0026164 76.891 0.098881 450.00 0.0022222 615.64 738.45 2.1720 2.3277 2.9374 826.10 -0.0026164 76.891 0.098881
189.38 8070.2 undefined 617.97 741.62 2.1770 450.00 0.0022222 617.97 741.62 2.1770 2.3317 2.9396 827.51 -0.0026317 76.911 0.099020 450.00 0.0022222 617.97 741.62 2.1770 2.3317 2.9396 827.51 -0.0026317 76.911 0.099020
190.38 8125.3 undefined 620.31 744.80 2.1820 450.00 0.0022222 620.31 744.80 2.1820 2.3356 2.9418 828.91 -0.0026468 76.931 0.099160 450.00 0.0022222 620.31 744.80 2.1820 2.3356 2.9418 828.91 -0.0026468 76.931 0.099160
191.38 8180.4 undefined 622.64 747.98 2.1871 450.00 0.0022222 622.64 747.98 2.1871 2.3395 2.9440 830.31 -0.0026617 76.952 0.099300 450.00 0.0022222 622.64 747.98 2.1871 2.3395 2.9440 830.31 -0.0026617 76.952 0.099300
192.38 8235.5 undefined 624.98 751.17 2.1921 450.00 0.0022222 624.98 751.17 2.1921 2.3435 2.9462 831.70 -0.0026765 76.972 0.099440 450.00 0.0022222 624.98 751.17 2.1921 2.3435 2.9462 831.70 -0.0026765 76.972 0.099440
193.38 8290.6 undefined 627.33 754.36 2.1971 450.00 0.0022222 627.33 754.36 2.1971 2.3474 2.9484 833.09 -0.0026910 76.992 0.099581 450.00 0.0022222 627.33 754.36 2.1971 2.3474 2.9484 833.09 -0.0026910 76.992 0.099581
194.38 8345.6 undefined 629.68 757.55 2.2022 450.00 0.0022222 629.68 757.55 2.2022 2.3513 2.9506 834.48 -0.0027054 77.013 0.099722 450.00 0.0022222 629.68 757.55 2.2022 2.3513 2.9506 834.48 -0.0027054 77.013 0.099722
195.38 8400.7 undefined 632.03 760.74 2.2072 450.00 0.0022222 632.03 760.74 2.2072 2.3552 2.9528 835.86 -0.0027196 77.033 0.099863 450.00 0.0022222 632.03 760.74 2.2072 2.3552 2.9528 835.86 -0.0027196 77.033 0.099863
196.38 8455.7 undefined 634.39 763.94 2.2122 450.00 0.0022222 634.39 763.94 2.2122 2.3592 2.9551 837.24 -0.0027336 77.053 0.10000 450.00 0.0022222 634.39 763.94 2.2122 2.3592 2.9551 837.24 -0.0027336 77.053 0.10000
197.38 8510.7 undefined 636.75 767.15 2.2173 450.00 0.0022222 636.75 767.15 2.2173 2.3631 2.9573 838.62 -0.0027474 77.074 0.10015 450.00 0.0022222 636.75 767.15 2.2173 2.3631 2.9573 838.62 -0.0027474 77.074 0.10015
198.38 8565.6 undefined 639.12 770.36 2.2223 450.00 0.0022222 639.12 770.36 2.2223 2.3670 2.9596 839.99 -0.0027611 77.094 0.10029 450.00 0.0022222 639.12 770.36 2.2223 2.3670 2.9596 839.99 -0.0027611 77.094 0.10029
199.38 8620.6 undefined 641.48 773.57 2.2273 450.00 0.0022222 641.48 773.57 2.2273 2.3709 2.9619 841.35 -0.0027746 77.115 0.10043 450.00 0.0022222 641.48 773.57 2.2273 2.3709 2.9619 841.35 -0.0027746 77.115 0.10043
200.38 8675.5 undefined 643.86 776.78 2.2323 450.00 0.0022222 643.86 776.78 2.2323 2.3748 2.9641 842.72 -0.0027880 77.135 0.10057 450.00 0.0022222 643.86 776.78 2.2323 2.3748 2.9641 842.72 -0.0027880 77.135 0.10057
201.38 8730.5 undefined 646.23 780.00 2.2373 450.00 0.0022222 646.23 780.00 2.2373 2.3787 2.9664 844.08 -0.0028011 77.155 0.10072 450.00 0.0022222 646.23 780.00 2.2373 2.3787 2.9664 844.08 -0.0028011 77.155 0.10072
202.38 8785.3 undefined 648.61 783.22 2.2423 450.00 0.0022222 648.61 783.22 2.2423 2.3826 2.9687 845.43 -0.0028141 77.176 0.10086 450.00 0.0022222 648.61 783.22 2.2423 2.3826 2.9687 845.43 -0.0028141 77.176 0.10086
203.38 8840.2 undefined 651.00 786.45 2.2473 450.00 0.0022222 651.00 786.45 2.2473 2.3864 2.9710 846.79 -0.0028270 77.196 0.10100 450.00 0.0022222 651.00 786.45 2.2473 2.3864 2.9710 846.79 -0.0028270 77.196 0.10100
204.38 8895.1 undefined 653.39 789.67 2.2524 450.00 0.0022222 653.39 789.67 2.2524 2.3903 2.9733 848.13 -0.0028397 77.216 0.10115 450.00 0.0022222 653.39 789.67 2.2524 2.3903 2.9733 848.13 -0.0028397 77.216 0.10115
205.38 8949.9 undefined 655.78 792.91 2.2574 450.00 0.0022222 655.78 792.91 2.2574 2.3942 2.9757 849.48 -0.0028522 77.237 0.10129 450.00 0.0022222 655.78 792.91 2.2574 2.3942 2.9757 849.48 -0.0028522 77.237 0.10129
206.38 9004.7 undefined 658.18 796.14 2.2624 450.00 0.0022222 658.18 796.14 2.2624 2.3981 2.9780 850.82 -0.0028646 77.257 0.10144 450.00 0.0022222 658.18 796.14 2.2624 2.3981 2.9780 850.82 -0.0028646 77.257 0.10144
207.38 9059.5 undefined 660.58 799.38 2.2674 450.00 0.0022222 660.58 799.38 2.2674 2.4019 2.9803 852.16 -0.0028768 77.277 0.10158 450.00 0.0022222 660.58 799.38 2.2674 2.4019 2.9803 852.16 -0.0028768 77.277 0.10158
208.38 9114.3 undefined 662.98 802.63 2.2724 450.00 0.0022222 662.98 802.63 2.2724 2.4058 2.9827 853.49 -0.0028889 77.298 0.10173 450.00 0.0022222 662.98 802.63 2.2724 2.4058 2.9827 853.49 -0.0028889 77.298 0.10173
209.38 9169.0 undefined 665.39 805.87 2.2774 450.00 0.0022222 665.39 805.87 2.2774 2.4097 2.9850 854.82 -0.0029008 77.318 0.10187 450.00 0.0022222 665.39 805.87 2.2774 2.4097 2.9850 854.82 -0.0029008 77.318 0.10187
210.38 9223.7 undefined 667.80 809.12 2.2823 450.00 0.0022222 667.80 809.12 2.2823 2.4135 2.9874 856.15 -0.0029126 77.339 0.10202 450.00 0.0022222 667.80 809.12 2.2823 2.4135 2.9874 856.15 -0.0029126 77.339 0.10202
211.38 9278.4 undefined 670.21 812.38 2.2873 450.00 0.0022222 670.21 812.38 2.2873 2.4174 2.9897 857.47 -0.0029242 77.359 0.10216 450.00 0.0022222 670.21 812.38 2.2873 2.4174 2.9897 857.47 -0.0029242 77.359 0.10216
212.38 9333.1 undefined 672.63 815.63 2.2923 450.00 0.0022222 672.63 815.63 2.2923 2.4212 2.9921 858.79 -0.0029357 77.379 0.10231 450.00 0.0022222 672.63 815.63 2.2923 2.4212 2.9921 858.79 -0.0029357 77.379 0.10231
213.38 9387.8 undefined 675.06 818.89 2.2973 450.00 0.0022222 675.06 818.89 2.2973 2.4250 2.9945 860.11 -0.0029471 77.400 0.10246 450.00 0.0022222 675.06 818.89 2.2973 2.4250 2.9945 860.11 -0.0029471 77.400 0.10246
214.38 9442.4 undefined 677.48 822.16 2.3023 450.00 0.0022222 677.48 822.16 2.3023 2.4289 2.9969 861.43 -0.0029583 77.420 0.10260 450.00 0.0022222 677.48 822.16 2.3023 2.4289 2.9969 861.43 -0.0029583 77.420 0.10260
215.38 9497.1 undefined 679.91 825.43 2.3073 450.00 0.0022222 679.91 825.43 2.3073 2.4327 2.9992 862.74 -0.0029694 77.440 0.10275 450.00 0.0022222 679.91 825.43 2.3073 2.4327 2.9992 862.74 -0.0029694 77.440 0.10275
216.38 9551.7 undefined 682.35 828.70 2.3122 450.00 0.0022222 682.35 828.70 2.3122 2.4365 3.0016 864.04 -0.0029803 77.461 0.10290 450.00 0.0022222 682.35 828.70 2.3122 2.4365 3.0016 864.04 -0.0029803 77.461 0.10290
217.38 9606.2 undefined 684.79 831.97 2.3172 450.00 0.0022222 684.79 831.97 2.3172 2.4404 3.0040 865.35 -0.0029912 77.481 0.10304 450.00 0.0022222 684.79 831.97 2.3172 2.4404 3.0040 865.35 -0.0029912 77.481 0.10304
218.38 9660.8 undefined 687.23 835.25 2.3222 450.00 0.0022222 687.23 835.25 2.3222 2.4442 3.0064 866.65 -0.0030018 77.501 0.10319 450.00 0.0022222 687.23 835.25 2.3222 2.4442 3.0064 866.65 -0.0030018 77.501 0.10319
219.38 9715.3 undefined 689.68 838.53 2.3272 450.00 0.0022222 689.68 838.53 2.3272 2.4480 3.0089 867.94 -0.0030124 77.522 0.10334 450.00 0.0022222 689.68 838.53 2.3272 2.4480 3.0089 867.94 -0.0030124 77.522 0.10334
220.38 9769.8 undefined 692.13 841.82 2.3321 450.00 0.0022222 692.13 841.82 2.3321 2.4518 3.0113 869.24 -0.0030228 77.542 0.10349 450.00 0.0022222 692.13 841.82 2.3321 2.4518 3.0113 869.24 -0.0030228 77.542 0.10349
221.38 9824.3 undefined 694.58 845.11 2.3371 450.00 0.0022222 694.58 845.11 2.3371 2.4556 3.0137 870.53 -0.0030331 77.562 0.10364 450.00 0.0022222 694.58 845.11 2.3371 2.4556 3.0137 870.53 -0.0030331 77.562 0.10364
222.38 9878.8 undefined 697.04 848.40 2.3421 450.00 0.0022222 697.04 848.40 2.3421 2.4594 3.0161 871.81 -0.0030433 77.583 0.10379 450.00 0.0022222 697.04 848.40 2.3421 2.4594 3.0161 871.81 -0.0030433 77.583 0.10379
223.38 9933.3 undefined 699.50 851.69 2.3470 450.00 0.0022222 699.50 851.69 2.3470 2.4632 3.0186 873.10 -0.0030534 77.603 0.10394 450.00 0.0022222 699.50 851.69 2.3470 2.4632 3.0186 873.10 -0.0030534 77.603 0.10394
224.38 9987.7 undefined 701.96 854.99 2.3520 450.00 0.0022222 701.96 854.99 2.3520 2.4670 3.0210 874.38 -0.0030633 77.623 0.10409 450.00 0.0022222 701.96 854.99 2.3520 2.4670 3.0210 874.38 -0.0030633 77.623 0.10409
225.38 10042. undefined 704.43 858.29 2.3570 450.00 0.0022222 704.43 858.29 2.3570 2.4708 3.0234 875.66 -0.0030731 77.644 0.10424 450.00 0.0022222 704.43 858.29 2.3570 2.4708 3.0234 875.66 -0.0030731 77.644 0.10424
226.38 10096. undefined 706.91 861.60 2.3619 450.00 0.0022222 706.91 861.60 2.3619 2.4746 3.0259 876.93 -0.0030829 77.664 0.10439 450.00 0.0022222 706.91 861.60 2.3619 2.4746 3.0259 876.93 -0.0030829 77.664 0.10439
227.38 10151. undefined 709.38 864.91 2.3669 450.00 0.0022222 709.38 864.91 2.3669 2.4783 3.0283 878.20 -0.0030924 77.684 0.10454 450.00 0.0022222 709.38 864.91 2.3669 2.4783 3.0283 878.20 -0.0030924 77.684 0.10454
228.38 10205. undefined 711.86 868.22 2.3718 450.00 0.0022222 711.86 868.22 2.3718 2.4821 3.0308 879.47 -0.0031019 77.705 0.10469 450.00 0.0022222 711.86 868.22 2.3718 2.4821 3.0308 879.47 -0.0031019 77.705 0.10469
229.38 10260. undefined 714.35 871.54 2.3768 450.00 0.0022222 714.35 871.54 2.3768 2.4859 3.0333 880.74 -0.0031113 77.725 0.10484 450.00 0.0022222 714.35 871.54 2.3768 2.4859 3.0333 880.74 -0.0031113 77.725 0.10484
230.38 10314. undefined 716.83 874.86 2.3817 450.00 0.0022222 716.83 874.86 2.3817 2.4896 3.0357 882.00 -0.0031205 77.745 0.10499 450.00 0.0022222 716.83 874.86 2.3817 2.4896 3.0357 882.00 -0.0031205 77.745 0.10499
231.38 10368. undefined 719.33 878.18 2.3866 450.00 0.0022222 719.33 878.18 2.3866 2.4934 3.0382 883.26 -0.0031297 77.766 0.10514 450.00 0.0022222 719.33 878.18 2.3866 2.4934 3.0382 883.26 -0.0031297 77.766 0.10514
232.38 10422. undefined 721.82 881.51 2.3916 450.00 0.0022222 721.82 881.51 2.3916 2.4972 3.0407 884.51 -0.0031387 77.786 0.10529 450.00 0.0022222 721.82 881.51 2.3916 2.4972 3.0407 884.51 -0.0031387 77.786 0.10529
233.38 10477. undefined 724.32 884.84 2.3965 450.00 0.0022222 724.32 884.84 2.3965 2.5009 3.0432 885.77 -0.0031476 77.806 0.10545 450.00 0.0022222 724.32 884.84 2.3965 2.5009 3.0432 885.77 -0.0031476 77.806 0.10545
234.38 10531. undefined 726.82 888.17 2.4015 450.00 0.0022222 726.82 888.17 2.4015 2.5046 3.0457 887.02 -0.0031564 77.826 0.10560 450.00 0.0022222 726.82 888.17 2.4015 2.5046 3.0457 887.02 -0.0031564 77.826 0.10560
235.38 10585. undefined 729.33 891.51 2.4064 450.00 0.0022222 729.33 891.51 2.4064 2.5084 3.0481 888.27 -0.0031651 77.847 0.10575 450.00 0.0022222 729.33 891.51 2.4064 2.5084 3.0481 888.27 -0.0031651 77.847 0.10575
236.38 10639. undefined 731.84 894.85 2.4113 450.00 0.0022222 731.84 894.85 2.4113 2.5121 3.0506 889.51 -0.0031737 77.867 0.10591 450.00 0.0022222 731.84 894.85 2.4113 2.5121 3.0506 889.51 -0.0031737 77.867 0.10591
237.38 10693. undefined 734.35 898.19 2.4163 450.00 0.0022222 734.35 898.19 2.4163 2.5159 3.0531 890.75 -0.0031822 77.887 0.10606 450.00 0.0022222 734.35 898.19 2.4163 2.5159 3.0531 890.75 -0.0031822 77.887 0.10606
238.38 10747. undefined 736.87 901.54 2.4212 450.00 0.0022222 736.87 901.54 2.4212 2.5196 3.0556 891.99 -0.0031906 77.908 0.10621 450.00 0.0022222 736.87 901.54 2.4212 2.5196 3.0556 891.99 -0.0031906 77.908 0.10621
239.38 10802. undefined 739.39 904.89 2.4261 450.00 0.0022222 739.39 904.89 2.4261 2.5233 3.0581 893.23 -0.0031989 77.928 0.10637 450.00 0.0022222 739.39 904.89 2.4261 2.5233 3.0581 893.23 -0.0031989 77.928 0.10637
240.38 10856. undefined 741.92 908.24 2.4310 450.00 0.0022222 741.92 908.24 2.4310 2.5270 3.0606 894.46 -0.0032072 77.948 0.10652 450.00 0.0022222 741.92 908.24 2.4310 2.5270 3.0606 894.46 -0.0032072 77.948 0.10652
241.38 10910. undefined 744.45 911.60 2.4359 450.00 0.0022222 744.45 911.60 2.4359 2.5307 3.0632 895.69 -0.0032153 77.968 0.10668 450.00 0.0022222 744.45 911.60 2.4359 2.5307 3.0632 895.69 -0.0032153 77.968 0.10668
242.38 10964. undefined 746.98 914.96 2.4409 450.00 0.0022222 746.98 914.96 2.4409 2.5344 3.0657 896.92 -0.0032233 77.989 0.10683 450.00 0.0022222 746.98 914.96 2.4409 2.5344 3.0657 896.92 -0.0032233 77.989 0.10683
243.38 11018. undefined 749.52 918.33 2.4458 450.00 0.0022222 749.52 918.33 2.4458 2.5381 3.0682 898.14 -0.0032312 78.009 0.10699 450.00 0.0022222 749.52 918.33 2.4458 2.5381 3.0682 898.14 -0.0032312 78.009 0.10699
244.38 11072. undefined 752.06 921.69 2.4507 450.00 0.0022222 752.06 921.69 2.4507 2.5418 3.0707 899.37 -0.0032390 78.029 0.10714 450.00 0.0022222 752.06 921.69 2.4507 2.5418 3.0707 899.37 -0.0032390 78.029 0.10714
245.38 11126. undefined 754.60 925.06 2.4556 450.00 0.0022222 754.60 925.06 2.4556 2.5455 3.0732 900.58 -0.0032467 78.049 0.10730 450.00 0.0022222 754.60 925.06 2.4556 2.5455 3.0732 900.58 -0.0032467 78.049 0.10730
246.38 11180. undefined 757.15 928.44 2.4605 450.00 0.0022222 757.15 928.44 2.4605 2.5492 3.0758 901.80 -0.0032544 78.070 0.10745 450.00 0.0022222 757.15 928.44 2.4605 2.5492 3.0758 901.80 -0.0032544 78.070 0.10745
247.38 11234. undefined 759.70 931.82 2.4654 450.00 0.0022222 759.70 931.82 2.4654 2.5529 3.0783 903.02 -0.0032619 78.090 0.10761 450.00 0.0022222 759.70 931.82 2.4654 2.5529 3.0783 903.02 -0.0032619 78.090 0.10761
248.38 11288. undefined 762.25 935.20 2.4703 450.00 0.0022222 762.25 935.20 2.4703 2.5566 3.0808 904.23 -0.0032694 78.110 0.10777 450.00 0.0022222 762.25 935.20 2.4703 2.5566 3.0808 904.23 -0.0032694 78.110 0.10777
249.38 11341. undefined 764.81 938.58 2.4752 450.00 0.0022222 764.81 938.58 2.4752 2.5603 3.0833 905.43 -0.0032768 78.130 0.10792 450.00 0.0022222 764.81 938.58 2.4752 2.5603 3.0833 905.43 -0.0032768 78.130 0.10792
250.38 11395. undefined 767.37 941.97 2.4801 450.00 0.0022222 767.37 941.97 2.4801 2.5639 3.0859 906.64 -0.0032841 78.150 0.10808 450.00 0.0022222 767.37 941.97 2.4801 2.5639 3.0859 906.64 -0.0032841 78.150 0.10808
251.38 11449. undefined 769.94 945.36 2.4850 450.00 0.0022222 769.94 945.36 2.4850 2.5676 3.0884 907.84 -0.0032913 78.171 0.10824 450.00 0.0022222 769.94 945.36 2.4850 2.5676 3.0884 907.84 -0.0032913 78.171 0.10824
252.38 11503. undefined 772.51 948.75 2.4899 450.00 0.0022222 772.51 948.75 2.4899 2.5713 3.0910 909.04 -0.0032984 78.191 0.10840 450.00 0.0022222 772.51 948.75 2.4899 2.5713 3.0910 909.04 -0.0032984 78.191 0.10840
253.38 11557. undefined 775.08 952.15 2.4948 450.00 0.0022222 775.08 952.15 2.4948 2.5749 3.0935 910.24 -0.0033054 78.211 0.10855 450.00 0.0022222 775.08 952.15 2.4948 2.5749 3.0935 910.24 -0.0033054 78.211 0.10855
254.38 11611. undefined 777.66 955.55 2.4997 450.00 0.0022222 777.66 955.55 2.4997 2.5786 3.0961 911.44 -0.0033124 78.231 0.10871 450.00 0.0022222 777.66 955.55 2.4997 2.5786 3.0961 911.44 -0.0033124 78.231 0.10871
255.38 11664. undefined 780.24 958.95 2.5046 450.00 0.0022222 780.24 958.95 2.5046 2.5822 3.0986 912.63 -0.0033192 78.251 0.10887 450.00 0.0022222 780.24 958.95 2.5046 2.5822 3.0986 912.63 -0.0033192 78.251 0.10887
256.38 11718. undefined 782.82 962.36 2.5095 450.00 0.0022222 782.82 962.36 2.5095 2.5858 3.1012 913.82 -0.0033260 78.272 0.10903 450.00 0.0022222 782.82 962.36 2.5095 2.5858 3.1012 913.82 -0.0033260 78.272 0.10903
257.38 11772. undefined 785.41 965.77 2.5143 450.00 0.0022222 785.41 965.77 2.5143 2.5895 3.1037 915.01 -0.0033327 78.292 0.10919 450.00 0.0022222 785.41 965.77 2.5143 2.5895 3.1037 915.01 -0.0033327 78.292 0.10919
258.38 11825. undefined 788.00 969.19 2.5192 450.00 0.0022222 788.00 969.19 2.5192 2.5931 3.1063 916.19 -0.0033393 78.312 0.10935 450.00 0.0022222 788.00 969.19 2.5192 2.5931 3.1063 916.19 -0.0033393 78.312 0.10935
259.38 11879. undefined 790.60 972.60 2.5241 450.00 0.0022222 790.60 972.60 2.5241 2.5967 3.1088 917.38 -0.0033459 78.332 0.10951 450.00 0.0022222 790.60 972.60 2.5241 2.5967 3.1088 917.38 -0.0033459 78.332 0.10951
260.38 11933. undefined 793.19 976.02 2.5290 450.00 0.0022222 793.19 976.02 2.5290 2.6004 3.1114 918.56 -0.0033524 78.352 0.10967 450.00 0.0022222 793.19 976.02 2.5290 2.6004 3.1114 918.56 -0.0033524 78.352 0.10967
261.38 11986. undefined 795.80 979.45 2.5339 450.00 0.0022222 795.80 979.45 2.5339 2.6040 3.1139 919.73 -0.0033588 78.372 0.10983 450.00 0.0022222 795.80 979.45 2.5339 2.6040 3.1139 919.73 -0.0033588 78.372 0.10983
262.38 12040. undefined 798.40 982.88 2.5387 450.00 0.0022222 798.40 982.88 2.5387 2.6076 3.1165 920.91 -0.0033651 78.393 0.10999 450.00 0.0022222 798.40 982.88 2.5387 2.6076 3.1165 920.91 -0.0033651 78.393 0.10999
263.38 12094. undefined 801.01 986.31 2.5436 450.00 0.0022222 801.01 986.31 2.5436 2.6112 3.1191 922.08 -0.0033713 78.413 0.11015 450.00 0.0022222 801.01 986.31 2.5436 2.6112 3.1191 922.08 -0.0033713 78.413 0.11015
264.38 12147. undefined 803.62 989.74 2.5485 450.00 0.0022222 803.62 989.74 2.5485 2.6148 3.1216 923.25 -0.0033775 78.433 0.11031 450.00 0.0022222 803.62 989.74 2.5485 2.6148 3.1216 923.25 -0.0033775 78.433 0.11031
265.38 12201. undefined 806.24 993.18 2.5533 450.00 0.0022222 806.24 993.18 2.5533 2.6184 3.1242 924.42 -0.0033836 78.453 0.11048 450.00 0.0022222 806.24 993.18 2.5533 2.6184 3.1242 924.42 -0.0033836 78.453 0.11048
266.38 12254. undefined 808.86 996.62 2.5582 450.00 0.0022222 808.86 996.62 2.5582 2.6220 3.1268 925.58 -0.0033896 78.473 0.11064 450.00 0.0022222 808.86 996.62 2.5582 2.6220 3.1268 925.58 -0.0033896 78.473 0.11064
267.38 12308. undefined 811.49 1000.1 2.5630 450.00 0.0022222 811.49 1000.1 2.5630 2.6256 3.1293 926.75 -0.0033956 78.493 0.11080 450.00 0.0022222 811.49 1000.1 2.5630 2.6256 3.1293 926.75 -0.0033956 78.493 0.11080
268.38 12361. undefined 814.11 1003.5 2.5679 450.00 0.0022222 814.11 1003.5 2.5679 2.6292 3.1319 927.91 -0.0034015 78.513 0.11096 450.00 0.0022222 814.11 1003.5 2.5679 2.6292 3.1319 927.91 -0.0034015 78.513 0.11096
269.38 12415. undefined 816.74 1007.0 2.5727 450.00 0.0022222 816.74 1007.0 2.5727 2.6328 3.1345 929.06 -0.0034073 78.533 0.11113 450.00 0.0022222 816.74 1007.0 2.5727 2.6328 3.1345 929.06 -0.0034073 78.533 0.11113
270.38 12468. undefined 819.38 1010.4 2.5776 450.00 0.0022222 819.38 1010.4 2.5776 2.6363 3.1371 930.22 -0.0034131 78.553 0.11129 450.00 0.0022222 819.38 1010.4 2.5776 2.6363 3.1371 930.22 -0.0034131 78.553 0.11129
271.38 12521. undefined 822.02 1013.9 2.5824 450.00 0.0022222 822.02 1013.9 2.5824 2.6399 3.1396 931.37 -0.0034187 78.574 0.11145 450.00 0.0022222 822.02 1013.9 2.5824 2.6399 3.1396 931.37 -0.0034187 78.574 0.11145
272.38 12575. undefined 824.66 1017.3 2.5873 450.00 0.0022222 824.66 1017.3 2.5873 2.6435 3.1422 932.52 -0.0034243 78.594 0.11162 450.00 0.0022222 824.66 1017.3 2.5873 2.6435 3.1422 932.52 -0.0034243 78.594 0.11162
273.38 12628. undefined 827.30 1020.8 2.5921 450.00 0.0022222 827.30 1020.8 2.5921 2.6470 3.1448 933.67 -0.0034299 78.614 0.11178 450.00 0.0022222 827.30 1020.8 2.5921 2.6470 3.1448 933.67 -0.0034299 78.614 0.11178
274.38 12682. undefined 829.95 1024.3 2.5970 450.00 0.0022222 829.95 1024.3 2.5970 2.6506 3.1474 934.82 -0.0034354 78.634 0.11194 450.00 0.0022222 829.95 1024.3 2.5970 2.6506 3.1474 934.82 -0.0034354 78.634 0.11194
275.38 12735. undefined 832.60 1027.7 2.6018 450.00 0.0022222 832.60 1027.7 2.6018 2.6541 3.1500 935.96 -0.0034408 78.654 0.11211 450.00 0.0022222 832.60 1027.7 2.6018 2.6541 3.1500 935.96 -0.0034408 78.654 0.11211
276.38 12788. undefined 835.26 1031.2 2.6067 450.00 0.0022222 835.26 1031.2 2.6067 2.6577 3.1526 937.11 -0.0034462 78.674 0.11227 450.00 0.0022222 835.26 1031.2 2.6067 2.6577 3.1526 937.11 -0.0034462 78.674 0.11227
277.38 12841. undefined 837.92 1034.7 2.6115 450.00 0.0022222 837.92 1034.7 2.6115 2.6612 3.1551 938.25 -0.0034515 78.694 0.11244 450.00 0.0022222 837.92 1034.7 2.6115 2.6612 3.1551 938.25 -0.0034515 78.694 0.11244
278.38 12895. undefined 840.58 1038.2 2.6163 450.00 0.0022222 840.58 1038.2 2.6163 2.6648 3.1577 939.38 -0.0034567 78.714 0.11260 450.00 0.0022222 840.58 1038.2 2.6163 2.6648 3.1577 939.38 -0.0034567 78.714 0.11260
279.38 12948. undefined 843.25 1041.6 2.6212 450.00 0.0022222 843.25 1041.6 2.6212 2.6683 3.1603 940.52 -0.0034618 78.734 0.11277 450.00 0.0022222 843.25 1041.6 2.6212 2.6683 3.1603 940.52 -0.0034618 78.734 0.11277
280.38 13001. undefined 845.92 1045.1 2.6260 450.00 0.0022222 845.92 1045.1 2.6260 2.6718 3.1629 941.65 -0.0034670 78.754 0.11294 450.00 0.0022222 845.92 1045.1 2.6260 2.6718 3.1629 941.65 -0.0034670 78.754 0.11294
281.38 13054. undefined 848.59 1048.6 2.6308 450.00 0.0022222 848.59 1048.6 2.6308 2.6754 3.1655 942.78 -0.0034720 78.774 0.11310 450.00 0.0022222 848.59 1048.6 2.6308 2.6754 3.1655 942.78 -0.0034720 78.774 0.11310
282.38 13108. undefined 851.27 1052.1 2.6356 450.00 0.0022222 851.27 1052.1 2.6356 2.6789 3.1681 943.91 -0.0034770 78.794 0.11289 450.00 0.0022222 851.27 1052.1 2.6356 2.6789 3.1681 943.91 -0.0034770 78.794 0.11289
283.38 13161. undefined 853.95 1055.6 2.6405 450.00 0.0022222 853.95 1055.6 2.6405 2.6824 3.1707 945.03 -0.0034819 78.814 0.11305 450.00 0.0022222 853.95 1055.6 2.6405 2.6824 3.1707 945.03 -0.0034819 78.814 0.11305
284.38 13214. undefined 856.63 1059.1 2.6453 450.00 0.0022222 856.63 1059.1 2.6453 2.6859 3.1732 946.16 -0.0034868 78.834 0.11322 450.00 0.0022222 856.63 1059.1 2.6453 2.6859 3.1732 946.16 -0.0034868 78.834 0.11322
285.38 13267. undefined 859.32 1062.6 2.6501 450.00 0.0022222 859.32 1062.6 2.6501 2.6894 3.1758 947.28 -0.0034916 78.854 0.11339 450.00 0.0022222 859.32 1062.6 2.6501 2.6894 3.1758 947.28 -0.0034916 78.854 0.11339
286.38 13320. undefined 862.01 1066.1 2.6549 450.00 0.0022222 862.01 1066.1 2.6549 2.6929 3.1784 948.40 -0.0034964 78.874 0.11355 450.00 0.0022222 862.01 1066.1 2.6549 2.6929 3.1784 948.40 -0.0034964 78.874 0.11355
287.38 13373. undefined 864.71 1069.6 2.6597 450.00 0.0022222 864.71 1069.6 2.6597 2.6964 3.1810 949.52 -0.0035011 78.894 0.11372 450.00 0.0022222 864.71 1069.6 2.6597 2.6964 3.1810 949.52 -0.0035011 78.894 0.11372
288.38 13426. undefined 867.41 1073.1 2.6645 450.00 0.0022222 867.41 1073.1 2.6645 2.6999 3.1836 950.63 -0.0035057 78.914 0.11389 450.00 0.0022222 867.41 1073.1 2.6645 2.6999 3.1836 950.63 -0.0035057 78.914 0.11389
289.38 13479. undefined 870.11 1076.6 2.6693 450.00 0.0022222 870.11 1076.6 2.6693 2.7034 3.1862 951.74 -0.0035103 78.934 0.11406 450.00 0.0022222 870.11 1076.6 2.6693 2.7034 3.1862 951.74 -0.0035103 78.934 0.11406
290.38 13532. undefined 872.81 1080.1 2.6741 450.00 0.0022222 872.81 1080.1 2.6741 2.7069 3.1888 952.86 -0.0035148 78.954 0.11422 450.00 0.0022222 872.81 1080.1 2.6741 2.7069 3.1888 952.86 -0.0035148 78.954 0.11422
291.38 13585. undefined 875.52 1083.7 2.6789 450.00 0.0022222 875.52 1083.7 2.6789 2.7103 3.1914 953.96 -0.0035193 78.974 0.11439 450.00 0.0022222 875.52 1083.7 2.6789 2.7103 3.1914 953.96 -0.0035193 78.974 0.11439
292.38 13638. undefined 878.23 1087.2 2.6837 450.00 0.0022222 878.23 1087.2 2.6837 2.7138 3.1940 955.07 -0.0035237 78.993 0.11456 450.00 0.0022222 878.23 1087.2 2.6837 2.7138 3.1940 955.07 -0.0035237 78.993 0.11456
293.38 13691. undefined 880.95 1090.7 2.6885 450.00 0.0022222 880.95 1090.7 2.6885 2.7173 3.1966 956.18 -0.0035281 79.013 0.11473 450.00 0.0022222 880.95 1090.7 2.6885 2.7173 3.1966 956.18 -0.0035281 79.013 0.11473
294.38 13744. undefined 883.67 1094.2 2.6933 450.00 0.0022222 883.67 1094.2 2.6933 2.7208 3.1992 957.28 -0.0035324 79.033 0.11490 450.00 0.0022222 883.67 1094.2 2.6933 2.7208 3.1992 957.28 -0.0035324 79.033 0.11490
295.38 13797. undefined 886.39 1097.8 2.6981 450.00 0.0022222 886.39 1097.8 2.6981 2.7242 3.2018 958.38 -0.0035367 79.053 0.11507 450.00 0.0022222 886.39 1097.8 2.6981 2.7242 3.2018 958.38 -0.0035367 79.053 0.11507
296.38 13850. undefined 889.12 1101.3 2.7029 450.00 0.0022222 889.12 1101.3 2.7029 2.7277 3.2043 959.48 -0.0035409 79.073 0.11524 450.00 0.0022222 889.12 1101.3 2.7029 2.7277 3.2043 959.48 -0.0035409 79.073 0.11524
297.38 13903. undefined 891.85 1104.9 2.7077 450.00 0.0022222 891.85 1104.9 2.7077 2.7311 3.2069 960.57 -0.0035451 79.093 0.11541 450.00 0.0022222 891.85 1104.9 2.7077 2.7311 3.2069 960.57 -0.0035451 79.093 0.11541
298.38 13955. undefined 894.58 1108.4 2.7125 450.00 0.0022222 894.58 1108.4 2.7125 2.7346 3.2095 961.67 -0.0035492 79.113 0.11558 450.00 0.0022222 894.58 1108.4 2.7125 2.7346 3.2095 961.67 -0.0035492 79.113 0.11558
299.38 14008. undefined 897.32 1111.9 2.7173 450.00 0.0022222 897.32 1111.9 2.7173 2.7380 3.2121 962.76 -0.0035533 79.133 0.11575 450.00 0.0022222 897.32 1111.9 2.7173 2.7380 3.2121 962.76 -0.0035533 79.133 0.11575
300.38 14061. undefined 900.06 1115.5 2.7221 450.00 0.0022222 900.06 1115.5 2.7221 2.7414 3.2147 963.85 -0.0035573 79.152 0.11592 450.00 0.0022222 900.06 1115.5 2.7221 2.7414 3.2147 963.85 -0.0035573 79.152 0.11592