Temperature (C) Pressure (psia) Quality (l+v) Internal Energy (l+v, kJ/kg) Enthalpy (l+v, kJ/kg) Entropy (l+v, J/g*K) Density (l, kg/m3) Volume (l, m3/kg) Internal Energy (l, kJ/kg) Enthalpy (l, kJ/kg) Entropy (l, J/g*K) Cv (l, J/g*K) Cp (l, J/g*K) Sound Spd. (l, m/s) Joule-Thomson (l, F/psia) Viscosity (l, uPa*s) Therm. Cond. (l, W/m*K) Density (v, kg/m3) Volume (v, m3/kg) Internal Energy (v, kJ/kg) Enthalpy (v, kJ/kg) Entropy (v, J/g*K) Cv (v, J/g*K) Cp (v, J/g*K) Sound Spd. (v, m/s) Joule-Thomson (v, F/psia) Viscosity (v, uPa*s) Therm. Cond. (v, W/m*K)
-187.62 2.4953e-08 8.6405e-12 -196.64 -196.64 -1.3959 733.13 0.0013640 -196.64 -196.64 -1.3959 1.3553 1.9158 2136.4 -0.0077592 10960. 0.20792 1.0669e-08 9.3732e+07 350.13 366.26 5.1858 0.69067 0.87923 143.28 6.1051 2.3259 0.0017061
-186.62 3.7339e-08 1.2749e-11 -194.73 -194.73 -1.3736 732.08 0.0013660 -194.73 -194.73 -1.3736 1.3539 1.9166 2129.6 -0.0077546 10073. 0.20765 1.5780e-08 6.3371e+07 350.82 367.14 5.1200 0.69462 0.88317 144.03 5.9178 2.3534 0.0017533
-185.62 5.5322e-08 1.8629e-11 -192.81 -192.81 -1.3516 731.04 0.0013679 -192.81 -192.81 -1.3516 1.3525 1.9174 2122.9 -0.0077498 9276.1 0.20737 2.3112e-08 4.3267e+07 351.52 368.02 5.0561 0.69857 0.88713 144.77 5.7383 2.3808 0.0018007
-184.62 8.1182e-08 2.6962e-11 -190.89 -190.89 -1.3298 730.00 0.0013699 -190.89 -190.89 -1.3298 1.3513 1.9182 2116.1 -0.0077448 8557.8 0.20708 3.3533e-08 2.9821e+07 352.22 368.91 4.9939 0.70253 0.89108 145.51 5.5662 2.4083 0.0018485
-183.62 1.1803e-07 3.8669e-11 -188.97 -188.97 -1.3083 728.96 0.0013718 -188.97 -188.97 -1.3083 1.3501 1.9191 2109.3 -0.0077395 7909.8 0.20678 4.8211e-08 2.0742e+07 352.92 369.81 4.9333 0.70648 0.89504 146.24 5.4011 2.4357 0.0018965
-182.62 1.7009e-07 5.4973e-11 -187.05 -187.05 -1.2869 727.92 0.0013738 -187.05 -187.05 -1.2869 1.3490 1.9201 2102.5 -0.0077340 7324.3 0.20647 6.8704e-08 1.4555e+07 353.63 370.70 4.8744 0.71043 0.89899 146.97 5.2426 2.4632 0.0019448
-181.62 2.4299e-07 7.7486e-11 -185.13 -185.13 -1.2658 726.88 0.0013757 -185.13 -185.13 -1.2658 1.3480 1.9210 2095.7 -0.0077283 6794.5 0.20616 9.7079e-08 1.0301e+07 354.35 371.60 4.8170 0.71438 0.90294 147.69 5.0904 2.4906 0.0019934
-180.62 3.4425e-07 1.0832e-10 -183.21 -183.21 -1.2450 725.85 0.0013777 -183.21 -183.21 -1.2450 1.3470 1.9220 2088.9 -0.0077225 6314.4 0.20584 1.3605e-07 7.3504e+06 355.06 372.51 4.7612 0.71833 0.90688 148.41 4.9442 2.5181 0.0020423
-179.62 4.8378e-07 1.5023e-10 -181.29 -181.29 -1.2243 724.81 0.0013797 -181.29 -181.29 -1.2243 1.3461 1.9231 2082.0 -0.0077164 5878.8 0.20551 1.8915e-07 5.2868e+06 355.78 373.42 4.7068 0.72227 0.91082 149.13 4.8038 2.5456 0.0020915
-178.62 6.7459e-07 2.0675e-10 -179.37 -179.37 -1.2038 723.78 0.0013816 -179.37 -179.37 -1.2038 1.3453 1.9241 2075.2 -0.0077102 5482.9 0.20517 2.6096e-07 3.8320e+06 356.51 374.33 4.6538 0.72620 0.91475 149.84 4.6688 2.5731 0.0021410
-177.62 9.3358e-07 2.8243e-10 -177.44 -177.44 -1.1836 722.75 0.0013836 -177.44 -177.44 -1.1836 1.3445 1.9252 2068.4 -0.0077039 5122.6 0.20483 3.5737e-07 2.7982e+06 357.23 375.25 4.6022 0.73012 0.91867 150.54 4.5390 2.6005 0.0021907
-176.62 1.2826e-06 3.8303e-10 -175.52 -175.52 -1.1635 721.72 0.0013856 -175.52 -175.52 -1.1635 1.3437 1.9263 2061.5 -0.0076973 4794.1 0.20447 4.8588e-07 2.0581e+06 357.97 376.17 4.5519 0.73403 0.92258 151.25 4.4142 2.6280 0.0022408
-175.62 1.7496e-06 5.1586e-10 -173.59 -173.59 -1.1437 720.69 0.0013876 -173.59 -173.59 -1.1437 1.3430 1.9274 2054.7 -0.0076907 4494.3 0.20411 6.5601e-07 1.5244e+06 358.70 377.09 4.5029 0.73792 0.92648 151.95 4.2941 2.6555 0.0022912
-174.62 2.3705e-06 6.9006e-10 -171.66 -171.66 -1.1240 719.66 0.0013895 -171.66 -171.66 -1.1240 1.3423 1.9286 2047.9 -0.0076838 4220.2 0.20375 8.7976e-07 1.1367e+06 359.44 378.02 4.4551 0.74181 0.93036 152.64 4.1784 2.6830 0.0023418
-173.62 3.1903e-06 9.1706e-10 -169.73 -169.73 -1.1045 718.64 0.0013915 -169.73 -169.73 -1.1045 1.3417 1.9298 2041.0 -0.0076769 3969.3 0.20338 1.1721e-06 8.5314e+05 360.19 378.95 4.4085 0.74568 0.93423 153.33 4.0671 2.7105 0.0023928
-172.62 4.2661e-06 1.2110e-09 -167.80 -167.80 -1.0852 717.61 0.0013935 -167.80 -167.80 -1.0852 1.3411 1.9310 2034.2 -0.0076698 3739.3 0.20300 1.5518e-06 6.4441e+05 360.93 379.89 4.3631 0.74953 0.93809 154.02 3.9599 2.7379 0.0024440
-171.62 5.6692e-06 1.5894e-09 -165.87 -165.87 -1.0661 716.58 0.0013955 -165.87 -165.87 -1.0661 1.3405 1.9322 2027.3 -0.0076625 3528.0 0.20261 2.0419e-06 4.8974e+05 361.69 380.83 4.3188 0.75337 0.94193 154.71 3.8566 2.7654 0.0024955
-170.62 7.4884e-06 2.0736e-09 -163.94 -163.94 -1.0472 715.56 0.0013975 -163.94 -163.94 -1.0472 1.3400 1.9334 2020.5 -0.0076552 3333.8 0.20222 2.6708e-06 3.7442e+05 362.44 381.77 4.2755 0.75720 0.94575 155.39 3.7570 2.7929 0.0025473
-169.62 9.8334e-06 2.6897e-09 -162.00 -162.00 -1.0284 714.54 0.0013995 -162.00 -162.00 -1.0284 1.3395 1.9347 2013.6 -0.0076477 3154.9 0.20182 3.4733e-06 2.8791e+05 363.20 382.72 4.2334 0.76100 0.94956 156.07 3.6609 2.8204 0.0025994
-168.62 1.2839e-05 3.4694e-09 -160.07 -160.07 -1.0098 713.52 0.0014015 -160.07 -160.07 -1.0098 1.3390 1.9359 2006.8 -0.0076401 2989.9 0.20141 4.4917e-06 2.2263e+05 363.96 383.67 4.1922 0.76479 0.95335 156.74 3.5683 2.8479 0.0026518
-167.62 1.6672e-05 4.4507e-09 -158.13 -158.13 -0.99134 712.49 0.0014035 -158.13 -158.13 -0.99134 1.3386 1.9372 2000.0 -0.0076323 2837.5 0.20100 5.7771e-06 1.7310e+05 364.73 384.63 4.1521 0.76856 0.95712 157.41 3.4790 2.8754 0.0027045
-166.62 2.1533e-05 5.6794e-09 -156.19 -156.19 -0.97306 711.47 0.0014055 -156.19 -156.19 -0.97306 1.3382 1.9385 1993.1 -0.0076245 2696.5 0.20058 7.3914e-06 1.3529e+05 365.50 385.59 4.1129 0.77232 0.96087 158.08 3.3927 2.9029 0.0027575
-165.62 2.7666e-05 7.2103e-09 -154.25 -154.25 -0.95494 710.45 0.0014075 -154.25 -154.25 -0.95494 1.3378 1.9398 1986.3 -0.0076165 2566.0 0.20016 9.4084e-06 1.0629e+05 366.27 386.55 4.0746 0.77605 0.96460 158.75 3.3095 2.9304 0.0028108
-164.62 3.5367e-05 9.1082e-09 -152.31 -152.31 -0.93698 709.44 0.0014096 -152.31 -152.31 -0.93698 1.3375 1.9411 1979.4 -0.0076084 2444.9 0.19973 1.1916e-05 83918. 367.05 387.52 4.0372 0.77976 0.96832 159.41 3.2291 2.9579 0.0028643
-163.62 4.4989e-05 1.1450e-08 -150.37 -150.37 -0.91917 708.42 0.0014116 -150.37 -150.37 -0.91917 1.3371 1.9424 1972.6 -0.0076002 2332.3 0.19930 1.5020e-05 66577. 367.83 388.49 4.0008 0.78346 0.97201 160.07 3.1514 2.9854 0.0029182
-162.62 5.6956e-05 1.4327e-08 -148.43 -148.43 -0.90151 707.40 0.0014136 -148.43 -148.43 -0.90151 1.3368 1.9437 1965.8 -0.0075919 2227.7 0.19886 1.8844e-05 53068. 368.62 389.46 3.9651 0.78713 0.97569 160.72 3.0764 3.0129 0.0029723
-161.62 7.1773e-05 1.7844e-08 -146.48 -146.48 -0.88400 706.38 0.0014157 -146.48 -146.48 -0.88400 1.3365 1.9451 1959.0 -0.0075834 2130.2 0.19841 2.3533e-05 42494. 369.41 390.44 3.9304 0.79079 0.97935 161.38 3.0038 3.0404 0.0030268
-160.62 9.0036e-05 2.2126e-08 -144.54 -144.54 -0.86663 705.37 0.0014177 -144.54 -144.54 -0.86663 1.3363 1.9465 1952.1 -0.0075748 2039.2 0.19796 2.9258e-05 34178. 370.20 391.42 3.8964 0.79443 0.98298 162.03 2.9337 3.0679 0.0030815
-159.62 0.00011245 2.7317e-08 -142.59 -142.59 -0.84940 704.35 0.0014197 -142.59 -142.59 -0.84940 1.3360 1.9478 1945.3 -0.0075661 1954.2 0.19751 3.6221e-05 27609. 371.00 392.40 3.8632 0.79805 0.98660 162.68 2.8658 3.0955 0.0031365
-158.62 0.00013985 3.3584e-08 -140.64 -140.64 -0.83231 703.34 0.0014218 -140.64 -140.64 -0.83231 1.3358 1.9492 1938.5 -0.0075573 1874.8 0.19705 4.4652e-05 22395. 371.80 393.39 3.8307 0.80164 0.99020 163.32 2.8002 3.1230 0.0031918
-157.62 0.00017320 4.1120e-08 -138.69 -138.69 -0.81536 702.32 0.0014238 -138.69 -138.69 -0.81536 1.3356 1.9506 1931.7 -0.0075484 1800.3 0.19658 5.4822e-05 18241. 372.60 394.38 3.7990 0.80522 0.99378 163.96 2.7367 3.1505 0.0032474
-156.62 0.00021364 5.0147e-08 -136.74 -136.74 -0.79854 701.31 0.0014259 -136.74 -136.74 -0.79854 1.3354 1.9520 1924.9 -0.0075393 1730.5 0.19611 6.7040e-05 14916. 373.41 395.38 3.7680 0.80878 0.99734 164.60 2.6752 3.1780 0.0033033
-155.62 0.00026248 6.0919e-08 -134.79 -134.79 -0.78185 700.30 0.0014280 -134.79 -134.79 -0.78185 1.3352 1.9534 1918.1 -0.0075302 1664.9 0.19564 8.1666e-05 12245. 374.22 396.38 3.7377 0.81232 1.0009 165.24 2.6157 3.2055 0.0033595
-154.62 0.00032125 7.3726e-08 -132.83 -132.83 -0.76530 699.29 0.0014300 -132.83 -132.83 -0.76530 1.3350 1.9548 1911.3 -0.0075209 1603.3 0.19516 9.9109e-05 10090. 375.03 397.38 3.7081 0.81585 1.0044 165.87 2.5580 3.2330 0.0034160
-153.62 0.00039171 8.8897e-08 -130.88 -130.88 -0.74887 698.27 0.0014321 -130.88 -130.88 -0.74887 1.3349 1.9563 1904.5 -0.0075114 1545.3 0.19468 0.00011984 8344.6 375.85 398.39 3.6792 0.81935 1.0079 166.50 2.5022 3.2606 0.0034727
-152.62 0.00047590 1.0681e-07 -128.92 -128.92 -0.73256 697.26 0.0014342 -128.92 -128.92 -0.73256 1.3348 1.9577 1897.8 -0.0075019 1490.6 0.19419 0.00014439 6925.9 376.67 399.40 3.6509 0.82284 1.0114 167.13 2.4481 3.2881 0.0035298
-151.62 0.00057613 1.2788e-07 -126.96 -126.96 -0.71638 696.25 0.0014363 -126.96 -126.96 -0.71638 1.3346 1.9592 1891.0 -0.0074922 1438.9 0.19370 0.00017336 5768.4 377.49 400.41 3.6232 0.82631 1.0149 167.76 2.3957 3.3156 0.0035872
-150.62 0.00069507 1.5258e-07 -125.00 -125.00 -0.70032 695.24 0.0014384 -125.00 -125.00 -0.70032 1.3345 1.9606 1884.2 -0.0074824 1390.2 0.19320 0.00020744 4820.7 378.32 401.42 3.5962 0.82976 1.0183 168.38 2.3448 3.3431 0.0036448
-149.62 0.00083574 1.8146e-07 -123.04 -123.04 -0.68438 694.23 0.0014404 -123.04 -123.04 -0.68438 1.3345 1.9621 1877.4 -0.0074724 1344.0 0.19270 0.00024740 4042.0 379.15 402.44 3.5697 0.83319 1.0218 169.00 2.2956 3.3706 0.0037027
-148.62 0.0010016 2.1511e-07 -121.08 -121.08 -0.66855 693.22 0.0014425 -121.08 -121.08 -0.66855 1.3344 1.9636 1870.7 -0.0074623 1300.3 0.19220 0.00029412 3400.0 379.99 403.47 3.5438 0.83661 1.0252 169.62 2.2478 3.3982 0.0037610
-147.62 0.0011965 2.5419e-07 -119.11 -119.11 -0.65284 692.21 0.0014447 -119.11 -119.11 -0.65284 1.3343 1.9651 1863.9 -0.0074521 1258.9 0.19169 0.00034856 2869.0 380.83 404.49 3.5185 0.84001 1.0286 170.24 2.2014 3.4257 0.0038195
-146.62 0.0014249 2.9945e-07 -117.15 -117.15 -0.63724 691.20 0.0014468 -117.15 -117.15 -0.63724 1.3343 1.9666 1857.2 -0.0074417 1219.6 0.19117 0.00041181 2428.3 381.67 405.52 3.4938 0.84340 1.0320 170.85 2.1565 3.4532 0.0038783
-145.62 0.0016917 3.5171e-07 -115.18 -115.18 -0.62175 690.19 0.0014489 -115.18 -115.18 -0.62175 1.3343 1.9682 1850.4 -0.0074312 1182.3 0.19066 0.00048510 2061.4 382.51 406.56 3.4695 0.84677 1.0353 171.46 2.1128 3.4807 0.0039374
-144.62 0.0020026 4.1189e-07 -113.21 -113.21 -0.60637 689.18 0.0014510 -113.21 -113.21 -0.60637 1.3343 1.9697 1843.7 -0.0074206 1146.8 0.19014 0.00056976 1755.1 383.36 407.59 3.4458 0.85012 1.0387 172.07 2.0705 3.5082 0.0039967
-143.62 0.0023637 4.8098e-07 -111.24 -111.24 -0.59110 688.17 0.0014531 -111.24 -111.24 -0.59110 1.3343 1.9713 1836.9 -0.0074098 1113.0 0.18962 0.00066731 1498.6 384.21 408.63 3.4226 0.85346 1.0420 172.68 2.0294 3.5358 0.0040564
-142.62 0.0027820 5.6010e-07 -109.27 -109.27 -0.57593 687.16 0.0014553 -109.27 -109.27 -0.57593 1.3343 1.9728 1830.2 -0.0073988 1080.8 0.18909 0.00077939 1283.1 385.07 409.68 3.3999 0.85679 1.0454 173.28 1.9896 3.5633 0.0041164
-141.62 0.0032653 6.5047e-07 -107.30 -107.30 -0.56087 686.15 0.0014574 -107.30 -107.30 -0.56087 1.3343 1.9744 1823.5 -0.0073878 1050.1 0.18856 0.00090784 1101.5 385.93 410.72 3.3777 0.86011 1.0487 173.88 1.9508 3.5908 0.0041766
-140.62 0.0038222 7.5341e-07 -105.32 -105.32 -0.54590 685.14 0.0014596 -105.32 -105.32 -0.54591 1.3344 1.9760 1816.7 -0.0073765 1020.7 0.18803 0.0010547 948.16 386.79 411.77 3.3560 0.86341 1.0520 174.48 1.9133 3.6183 0.0042372
-139.62 0.0044623 8.7038e-07 -103.34 -103.34 -0.53104 684.13 0.0014617 -103.34 -103.34 -0.53105 1.3344 1.9776 1810.0 -0.0073651 992.74 0.18749 0.0012221 818.26 387.65 412.83 3.3347 0.86670 1.0553 175.08 1.8768 3.6459 0.0042980
-138.62 0.0051963 1.0030e-06 -101.37 -101.37 -0.51628 683.12 0.0014639 -101.37 -101.37 -0.51629 1.3345 1.9792 1803.3 -0.0073536 965.97 0.18695 0.0014125 707.94 388.52 413.88 3.3139 0.86998 1.0586 175.67 1.8413 3.6734 0.0043592
-137.62 0.0060358 1.1529e-06 -99.386 -99.385 -0.50162 682.11 0.0014660 -99.386 -99.386 -0.50162 1.3346 1.9808 1796.6 -0.0073419 940.35 0.18641 0.0016287 614.00 389.39 414.94 3.2935 0.87325 1.0619 176.26 1.8069 3.7009 0.0044206
-136.62 0.0069938 1.3220e-06 -97.404 -97.404 -0.48705 681.10 0.0014682 -97.404 -97.404 -0.48705 1.3347 1.9825 1789.9 -0.0073301 915.81 0.18586 0.0018733 533.80 390.26 416.00 3.2735 0.87650 1.0651 176.85 1.7734 3.7284 0.0044823
-135.62 0.0080843 1.5124e-06 -95.420 -95.420 -0.47257 680.09 0.0014704 -95.421 -95.421 -0.47258 1.3348 1.9841 1783.2 -0.0073180 892.30 0.18531 0.0021497 465.17 391.14 417.07 3.2540 0.87975 1.0684 177.44 1.7409 3.7559 0.0045443
-134.62 0.0093230 1.7262e-06 -93.435 -93.435 -0.45819 679.08 0.0014726 -93.436 -93.436 -0.45820 1.3350 1.9858 1776.5 -0.0073059 869.75 0.18476 0.0024613 406.30 392.02 418.14 3.2348 0.88299 1.0716 178.02 1.7093 3.7834 0.0046066
-133.62 0.010727 1.9657e-06 -91.449 -91.448 -0.44390 678.07 0.0014748 -91.450 -91.449 -0.44391 1.3351 1.9875 1769.8 -0.0072935 848.11 0.18421 0.0028116 355.67 392.91 419.21 3.2161 0.88622 1.0749 178.61 1.6786 3.8109 0.0046691
-132.62 0.012315 2.2336e-06 -89.460 -89.460 -0.42970 677.06 0.0014770 -89.461 -89.461 -0.42971 1.3353 1.9892 1763.1 -0.0072810 827.32 0.18365 0.0032049 312.03 393.79 420.29 3.1977 0.88944 1.0781 179.19 1.6488 3.8385 0.0047320
-131.62 0.014106 2.5324e-06 -87.470 -87.470 -0.41559 676.04 0.0014792 -87.471 -87.471 -0.41560 1.3354 1.9909 1756.4 -0.0072684 807.34 0.18309 0.0036453 274.33 394.68 421.36 3.1798 0.89266 1.0813 179.76 1.6197 3.8660 0.0047951
-130.62 0.016124 2.8653e-06 -85.478 -85.478 -0.40156 675.03 0.0014814 -85.479 -85.479 -0.40157 1.3356 1.9926 1749.7 -0.0072555 788.12 0.18253 0.0041375 241.69 395.58 422.44 3.1622 0.89586 1.0846 180.34 1.5915 3.8935 0.0048586
-129.62 0.018392 3.2351e-06 -83.484 -83.484 -0.38762 674.02 0.0014836 -83.486 -83.486 -0.38763 1.3358 1.9944 1743.0 -0.0072425 769.63 0.18196 0.0046867 213.37 396.47 423.53 3.1450 0.89906 1.0878 180.91 1.5641 3.9210 0.0049223
-128.62 0.020935 3.6454e-06 -81.489 -81.489 -0.37377 673.01 0.0014859 -81.491 -81.490 -0.37378 1.3360 1.9961 1736.3 -0.0072294 751.83 0.18140 0.0052981 188.75 397.37 424.62 3.1281 0.90226 1.0910 181.48 1.5374 3.9485 0.0049863
-127.62 0.023783 4.0995e-06 -79.492 -79.491 -0.36000 672.00 0.0014881 -79.494 -79.493 -0.36001 1.3363 1.9979 1729.6 -0.0072160 734.67 0.18083 0.0059776 167.29 398.27 425.71 3.1116 0.90545 1.0942 182.05 1.5114 3.9760 0.0050506
-126.62 0.026966 4.6013e-06 -77.493 -77.492 -0.34631 670.98 0.0014904 -77.495 -77.495 -0.34632 1.3365 1.9997 1722.9 -0.0072025 718.14 0.18025 0.0067313 148.56 399.18 426.80 3.0954 0.90863 1.0974 182.62 1.4861 4.0035 0.0051152
-125.62 0.030515 5.1548e-06 -75.492 -75.491 -0.33270 669.97 0.0014926 -75.494 -75.494 -0.33272 1.3368 2.0015 1716.2 -0.0071888 702.18 0.17968 0.0075660 132.17 400.09 427.89 3.0795 0.91181 1.1006 183.18 1.4615 4.0310 0.0051800
-124.62 0.034467 5.7641e-06 -73.489 -73.489 -0.31917 668.95 0.0014949 -73.492 -73.492 -0.31919 1.3371 2.0033 1709.5 -0.0071749 686.79 0.17910 0.0084885 117.81 401.00 428.99 3.0640 0.91499 1.1038 183.74 1.4375 4.0584 0.0052452
-123.62 0.038859 6.4338e-06 -71.485 -71.484 -0.30572 667.94 0.0014971 -71.488 -71.487 -0.30574 1.3374 2.0051 1702.8 -0.0071609 671.93 0.17852 0.0095065 105.19 401.91 430.10 3.0488 0.91816 1.1070 184.30 1.4141 4.0859 0.0053106
-122.62 0.043731 7.1685e-06 -69.478 -69.478 -0.29234 666.92 0.0014994 -69.482 -69.481 -0.29237 1.3377 2.0070 1696.2 -0.0071466 657.57 0.17794 0.010628 94.092 402.83 431.20 3.0339 0.92134 1.1102 184.86 1.3913 4.1134 0.0053764
-121.62 0.049128 7.9733e-06 -67.470 -67.469 -0.27905 665.91 0.0015017 -67.474 -67.473 -0.27907 1.3380 2.0089 1689.5 -0.0071322 643.70 0.17736 0.011861 84.309 403.75 432.31 3.0193 0.92451 1.1134 185.41 1.3691 4.1409 0.0054424
-120.62 0.055096 8.8533e-06 -65.460 -65.459 -0.26582 664.89 0.0015040 -65.464 -65.463 -0.26585 1.3384 2.0107 1682.8 -0.0071176 630.28 0.17678 0.013215 75.669 404.67 433.42 3.0050 0.92767 1.1166 185.96 1.3475 4.1683 0.0055087
-119.62 0.061684 9.8140e-06 -63.448 -63.447 -0.25267 663.87 0.0015063 -63.452 -63.452 -0.25271 1.3387 2.0126 1676.1 -0.0071028 617.30 0.17619 0.014700 68.027 405.60 434.53 2.9909 0.93084 1.1198 186.51 1.3264 4.1958 0.0055752
-118.62 0.068946 1.0861e-05 -61.434 -61.433 -0.23960 662.86 0.0015086 -61.439 -61.438 -0.23963 1.3391 2.0146 1669.4 -0.0070878 604.74 0.17560 0.016325 61.255 406.53 435.64 2.9772 0.93401 1.1231 187.06 1.3058 4.2233 0.0056421
-117.62 0.076937 1.2001e-05 -59.418 -59.416 -0.22659 661.84 0.0015109 -59.423 -59.422 -0.22663 1.3395 2.0165 1662.8 -0.0070726 592.58 0.17501 0.018101 55.245 407.46 436.76 2.9638 0.93718 1.1263 187.60 1.2857 4.2507 0.0057092
-116.62 0.085718 1.3239e-05 -57.400 -57.398 -0.21366 660.82 0.0015133 -57.406 -57.405 -0.21370 1.3400 2.0184 1656.1 -0.0070573 580.80 0.17442 0.020040 49.901 408.39 437.88 2.9506 0.94035 1.1295 188.14 1.2660 4.2782 0.0057767
-115.62 0.095353 1.4583e-05 -55.380 -55.378 -0.20080 659.80 0.0015156 -55.386 -55.385 -0.20084 1.3404 2.0204 1649.4 -0.0070417 569.38 0.17383 0.022152 45.142 409.33 439.01 2.9377 0.94352 1.1327 188.68 1.2468 4.3056 0.0058444
-114.62 0.10591 1.6039e-05 -53.357 -53.356 -0.18800 658.78 0.0015180 -53.365 -53.364 -0.18805 1.3409 2.0224 1642.7 -0.0070260 558.32 0.17323 0.024451 40.898 410.27 440.13 2.9250 0.94669 1.1360 189.22 1.2281 4.3330 0.0059123
-113.62 0.11746 1.7615e-05 -51.333 -51.332 -0.17527 657.76 0.0015203 -51.342 -51.340 -0.17533 1.3413 2.0244 1636.0 -0.0070100 547.59 0.17264 0.026949 37.107 411.21 441.26 2.9126 0.94987 1.1392 189.75 1.2097 4.3604 0.0059806
-112.62 0.13008 1.9317e-05 -49.307 -49.305 -0.16261 656.73 0.0015227 -49.316 -49.315 -0.16267 1.3418 2.0264 1629.3 -0.0069938 537.18 0.17204 0.029661 33.715 412.16 442.39 2.9005 0.95305 1.1424 190.28 1.1918 4.3879 0.0060491
-111.62 0.14384 2.1153e-05 -47.279 -47.277 -0.15001 655.71 0.0015251 -47.289 -47.287 -0.15008 1.3424 2.0285 1622.7 -0.0069774 527.08 0.17144 0.032600 30.675 413.10 443.53 2.8885 0.95623 1.1457 190.81 1.1742 4.4153 0.0061180
-110.62 0.15884 2.3132e-05 -45.249 -45.246 -0.13748 654.69 0.0015274 -45.259 -45.258 -0.13755 1.3429 2.0305 1616.0 -0.0069609 517.28 0.17084 0.035781 27.948 414.06 444.66 2.8769 0.95942 1.1490 191.34 1.1570 4.4427 0.0061871
-109.62 0.17516 2.5262e-05 -43.216 -43.214 -0.12502 653.66 0.0015298 -43.228 -43.226 -0.12509 1.3435 2.0326 1609.3 -0.0069441 507.76 0.17024 0.039220 25.497 415.01 445.80 2.8654 0.96261 1.1522 191.86 1.1402 4.4701 0.0062564
-108.62 0.19290 2.7550e-05 -41.182 -41.179 -0.11261 652.64 0.0015322 -41.194 -41.192 -0.11269 1.3441 2.0347 1602.6 -0.0069271 498.51 0.16964 0.042933 23.292 415.96 446.94 2.8542 0.96581 1.1555 192.38 1.1236 4.4974 0.0063261
-107.62 0.21215 3.0007e-05 -39.145 -39.141 -0.10027 651.61 0.0015347 -39.158 -39.156 -0.10036 1.3447 2.0369 1595.9 -0.0069098 489.52 0.16903 0.046937 21.305 416.92 448.09 2.8433 0.96901 1.1588 192.90 1.1075 4.5248 0.0063960
-106.62 0.23301 3.2640e-05 -37.106 -37.102 -0.087987 650.58 0.0015371 -37.120 -37.118 -0.088082 1.3453 2.0390 1589.2 -0.0068924 480.79 0.16843 0.051250 19.512 417.88 449.23 2.8325 0.97222 1.1621 193.41 1.0916 4.5522 0.0064662
-105.62 0.25561 3.5460e-05 -35.064 -35.061 -0.075766 649.55 0.0015395 -35.080 -35.078 -0.075868 1.3460 2.0412 1582.6 -0.0068747 472.30 0.16782 0.055891 17.892 418.85 450.38 2.8220 0.97544 1.1655 193.93 1.0760 4.5795 0.0065367
-104.62 0.28004 3.8475e-05 -33.021 -33.017 -0.063604 648.52 0.0015420 -33.038 -33.035 -0.063714 1.3467 2.0434 1575.9 -0.0068569 464.04 0.16721 0.060878 16.426 419.81 451.53 2.8116 0.97867 1.1688 194.44 1.0608 4.6069 0.0066074
-103.62 0.30643 4.1696e-05 -30.975 -30.970 -0.051500 647.49 0.0015444 -30.994 -30.991 -0.051619 1.3474 2.0456 1569.2 -0.0068387 456.00 0.16660 0.066231 15.099 420.78 452.68 2.8015 0.98191 1.1722 194.94 1.0458 4.6342 0.0066785
-102.62 0.33490 4.5133e-05 -28.927 -28.922 -0.039454 646.46 0.0015469 -28.947 -28.944 -0.039582 1.3481 2.0478 1562.5 -0.0068204 448.18 0.16600 0.071971 13.894 421.75 453.84 2.7916 0.98516 1.1755 195.44 1.0310 4.6615 0.0067498
-101.62 0.36558 4.8795e-05 -26.876 -26.871 -0.027465 645.43 0.0015494 -26.898 -26.894 -0.027602 1.3489 2.0501 1555.8 -0.0068018 440.57 0.16539 0.078120 12.801 422.73 454.99 2.7818 0.98841 1.1789 195.95 1.0166 4.6888 0.0068213
-100.62 0.39862 5.2695e-05 -24.824 -24.818 -0.015531 644.39 0.0015519 -24.847 -24.843 -0.015678 1.3497 2.0524 1549.1 -0.0067830 433.16 0.16478 0.084699 11.807 423.70 456.15 2.7723 0.99168 1.1823 196.44 1.0024 4.7161 0.0068932
-99.625 0.43414 5.6841e-05 -22.768 -22.762 -0.0036530 643.36 0.0015544 -22.794 -22.789 -0.0038103 1.3505 2.0547 1542.4 -0.0067639 425.95 0.16416 0.091731 10.901 424.68 457.31 2.7630 0.99496 1.1858 196.94 0.98838 4.7434 0.0069653
-98.625 0.47230 6.1246e-05 -20.711 -20.704 0.0081709 642.32 0.0015569 -20.738 -20.733 0.0080027 1.3514 2.0570 1535.7 -0.0067447 418.92 0.16355 0.099240 10.077 425.66 458.48 2.7538 0.99825 1.1892 197.43 0.97464 4.7707 0.0070377
-97.625 0.51325 6.5920e-05 -18.651 -18.643 0.019941 641.28 0.0015594 -18.680 -18.674 0.019762 1.3522 2.0594 1529.0 -0.0067251 412.07 0.16294 0.10725 9.3239 426.65 459.64 2.7448 1.0016 1.1927 197.92 0.96112 4.7979 0.0071103
-96.625 0.55714 7.0875e-05 -16.588 -16.580 0.031659 640.24 0.0015619 -16.620 -16.614 0.031467 1.3531 2.0618 1522.3 -0.0067053 405.39 0.16233 0.11579 8.6365 427.63 460.81 2.7360 1.0049 1.1962 198.40 0.94783 4.8251 0.0071832
-95.625 0.60416 7.6123e-05 -14.523 -14.514 0.043324 639.20 0.0015645 -14.557 -14.550 0.043120 1.3540 2.0642 1515.7 -0.0066853 398.88 0.16171 0.12488 8.0078 428.62 461.98 2.7274 1.0082 1.1997 198.88 0.93475 4.8524 0.0072564
-94.625 0.65446 8.1674e-05 -12.455 -12.445 0.054939 638.16 0.0015670 -12.491 -12.484 0.054721 1.3550 2.0667 1509.0 -0.0066650 392.53 0.16110 0.13455 7.4323 429.61 463.15 2.7189 1.0116 1.2032 199.36 0.92188 4.8796 0.0073299
-93.625 0.70822 8.7542e-05 -10.385 -10.374 0.066503 637.12 0.0015696 -10.424 -10.416 0.066271 1.3560 2.0691 1502.3 -0.0066444 386.34 0.16048 0.14482 6.9050 430.60 464.32 2.7107 1.0149 1.2068 199.83 0.90921 4.9068 0.0074036
-92.625 0.76564 9.3738e-05 -8.3123 -8.3008 0.078017 636.07 0.0015722 -8.3535 -8.3452 0.077771 1.3570 2.0716 1495.6 -0.0066236 380.31 0.15987 0.15573 6.4212 431.60 465.49 2.7025 1.0183 1.2104 200.30 0.89673 4.9340 0.0074776
-91.625 0.82689 0.00010027 -6.2368 -6.2244 0.089482 635.02 0.0015747 -6.2808 -6.2719 0.089220 1.3580 2.0742 1488.9 -0.0066025 374.41 0.15925 0.16731 5.9769 432.59 466.67 2.6946 1.0217 1.2140 200.77 0.88445 4.9611 0.0075518
-90.625 0.89218 0.00010716 -4.1587 -4.1453 0.10090 633.98 0.0015773 -4.2056 -4.1959 0.10062 1.3591 2.0767 1482.2 -0.0065811 368.66 0.15864 0.17958 5.5685 433.59 467.84 2.6868 1.0251 1.2177 201.24 0.87236 4.9883 0.0076263
-89.625 0.96172 0.00011442 -2.0779 -2.0635 0.11227 632.93 0.0015800 -2.1279 -2.1174 0.11197 1.3602 2.0793 1475.5 -0.0065595 363.05 0.15802 0.19258 5.1928 434.59 469.02 2.6791 1.0285 1.2213 201.70 0.86045 5.0154 0.0077011
-88.625 1.0357 0.00012205 0.0056527 0.021176 0.12359 631.88 0.0015826 -0.047516 -0.036215 0.12328 1.3613 2.0819 1468.8 -0.0065375 357.56 0.15740 0.20633 4.8466 435.59 470.20 2.6717 1.0320 1.2250 202.15 0.84873 5.0425 0.0077761
-87.625 1.1144 0.00013007 2.0920 2.1087 0.13487 630.83 0.0015852 2.0355 2.0476 0.13454 1.3625 2.0846 1462.1 -0.0065153 352.21 0.15679 0.22087 4.5276 436.60 471.39 2.6643 1.0354 1.2288 202.61 0.83718 5.0696 0.0078514
-86.625 1.1979 0.00013849 4.1811 4.1991 0.14610 629.77 0.0015879 4.1211 4.1342 0.14575 1.3637 2.0873 1455.4 -0.0064928 346.98 0.15617 0.23623 4.2331 437.61 472.57 2.6571 1.0389 1.2325 203.06 0.82580 5.0967 0.0079270
-85.625 1.2866 0.00014733 6.2731 6.2923 0.15728 628.72 0.0015905 6.2094 6.2235 0.15691 1.3649 2.0900 1448.8 -0.0064701 341.87 0.15555 0.25245 3.9612 438.61 473.75 2.6501 1.0424 1.2363 203.50 0.81460 5.1237 0.0080028
-84.625 1.3806 0.00015660 8.3679 8.3886 0.16842 627.66 0.0015932 8.3004 8.3155 0.16803 1.3661 2.0927 1442.1 -0.0064470 336.87 0.15494 0.26956 3.7097 439.63 474.94 2.6432 1.0460 1.2402 203.95 0.80356 5.1508 0.0080789
-83.625 1.4803 0.00016631 10.466 10.488 0.17952 626.60 0.0015959 10.394 10.410 0.17911 1.3674 2.0955 1435.4 -0.0064236 331.99 0.15432 0.28760 3.4771 440.64 476.13 2.6364 1.0495 1.2440 204.38 0.79269 5.1778 0.0081553
-82.625 1.5858 0.00017647 12.566 12.590 0.19058 625.54 0.0015986 12.491 12.508 0.19014 1.3687 2.0983 1428.7 -0.0063999 327.22 0.15370 0.30659 3.2616 441.65 477.31 2.6298 1.0531 1.2479 204.82 0.78199 5.2048 0.0082319
-81.625 1.6975 0.00018710 14.670 14.695 0.20159 624.48 0.0016013 14.590 14.609 0.20113 1.3700 2.1012 1422.0 -0.0063759 322.55 0.15309 0.32659 3.0619 442.67 478.50 2.6233 1.0567 1.2519 205.25 0.77144 5.2318 0.0083088
-80.625 1.8155 0.00019821 16.777 16.804 0.21256 623.42 0.0016041 16.692 16.712 0.21208 1.3714 2.1041 1415.4 -0.0063516 317.99 0.15247 0.34763 2.8766 443.69 479.70 2.6169 1.0603 1.2558 205.67 0.76106 5.2587 0.0083860
-79.625 1.9402 0.00020981 18.886 18.916 0.22349 622.36 0.0016068 18.797 18.819 0.22299 1.3728 2.1070 1408.7 -0.0063270 313.52 0.15186 0.36974 2.7046 444.71 480.89 2.6106 1.0639 1.2598 206.10 0.75083 5.2857 0.0084634
-78.625 2.0718 0.00022191 20.999 21.030 0.23438 621.29 0.0016096 20.905 20.928 0.23385 1.3742 2.1099 1402.0 -0.0063021 309.15 0.15124 0.39296 2.5448 445.73 482.08 2.6045 1.0676 1.2639 206.51 0.74076 5.3126 0.0085411
-77.625 2.2107 0.00023453 23.115 23.148 0.24523 620.22 0.0016123 23.016 23.040 0.24468 1.3757 2.1129 1395.3 -0.0062768 304.88 0.15062 0.41735 2.3961 446.75 483.27 2.5985 1.0712 1.2680 206.93 0.73084 5.3395 0.0086190
-76.625 2.3571 0.00024768 25.234 25.270 0.25604 619.15 0.0016151 25.130 25.156 0.25546 1.3772 2.1159 1388.7 -0.0062512 300.69 0.15001 0.44292 2.2577 447.78 484.47 2.5926 1.0749 1.2721 207.34 0.72107 5.3664 0.0086972
-75.625 2.5113 0.00026137 27.357 27.394 0.26681 618.08 0.0016179 27.247 27.275 0.26620 1.3787 2.1190 1382.0 -0.0062253 296.59 0.14939 0.46974 2.1288 448.81 485.67 2.5869 1.0787 1.2762 207.74 0.71146 5.3933 0.0087757
-74.625 2.6736 0.00027562 29.482 29.522 0.27754 617.01 0.0016207 29.366 29.396 0.27691 1.3802 2.1221 1375.4 -0.0061990 292.58 0.14878 0.49783 2.0087 449.83 486.86 2.5812 1.0824 1.2804 208.14 0.70200 5.4201 0.0088544
-73.625 2.8444 0.00029043 31.611 31.654 0.28824 615.93 0.0016236 31.489 31.521 0.28758 1.3818 2.1252 1368.7 -0.0061724 288.65 0.14816 0.52725 1.8966 450.86 488.06 2.5757 1.0862 1.2847 208.54 0.69268 5.4469 0.0089334
-72.625 3.0240 0.00030581 33.743 33.789 0.29890 614.85 0.0016264 33.615 33.649 0.29821 1.3834 2.1284 1362.0 -0.0061454 284.81 0.14755 0.55804 1.7920 451.90 489.26 2.5703 1.0900 1.2889 208.93 0.68351 5.4737 0.0090126
-71.625 3.2127 0.00032179 35.879 35.927 0.30952 613.78 0.0016293 35.745 35.781 0.30880 1.3851 2.1316 1355.4 -0.0061181 281.03 0.14694 0.59024 1.6942 452.93 490.46 2.5650 1.0938 1.2932 209.32 0.67448 5.5005 0.0090922
-70.625 3.4108 0.00033836 38.018 38.069 0.32011 612.69 0.0016321 37.877 37.915 0.31935 1.3867 2.1349 1348.7 -0.0060904 277.34 0.14632 0.62390 1.6028 453.96 491.66 2.5598 1.0976 1.2976 209.70 0.66560 5.5273 0.0091720
-69.625 3.6187 0.00035554 40.160 40.214 0.33066 611.61 0.0016350 40.013 40.053 0.32987 1.3884 2.1382 1342.1 -0.0060624 273.72 0.14571 0.65906 1.5173 455.00 492.86 2.5547 1.1015 1.3020 210.08 0.65687 5.5540 0.0092520
-68.625 3.8367 0.00037335 42.306 42.364 0.34118 610.53 0.0016379 42.152 42.195 0.34036 1.3902 2.1415 1335.5 -0.0060339 270.17 0.14510 0.69577 1.4372 456.04 494.06 2.5497 1.1054 1.3064 210.45 0.64827 5.5807 0.0093324
-67.625 4.0652 0.00039178 44.455 44.516 0.35166 609.44 0.0016409 44.294 44.340 0.35080 1.3919 2.1449 1328.8 -0.0060051 266.69 0.14449 0.73408 1.3622 457.08 495.26 2.5448 1.1093 1.3109 210.82 0.63981 5.6074 0.0094130
-66.625 4.3046 0.00041086 46.608 46.673 0.36211 608.35 0.0016438 46.439 46.488 0.36122 1.3937 2.1483 1322.2 -0.0059760 263.28 0.14388 0.77404 1.2919 458.12 496.46 2.5400 1.1133 1.3154 211.18 0.63150 5.6341 0.0094939
-65.625 4.5551 0.00043059 48.765 48.833 0.37253 607.26 0.0016467 48.588 48.640 0.37160 1.3955 2.1518 1315.6 -0.0059464 259.93 0.14327 0.81570 1.2259 459.16 497.67 2.5353 1.1172 1.3200 211.54 0.62332 5.6608 0.0095750
-64.625 4.8173 0.00045097 50.925 50.997 0.38292 606.16 0.0016497 50.740 50.795 0.38195 1.3974 2.1553 1308.9 -0.0059164 256.65 0.14266 0.85910 1.1640 460.21 498.87 2.5307 1.1212 1.3246 211.89 0.61527 5.6874 0.0096564
-63.625 5.0915 0.00047203 53.089 53.165 0.39327 605.07 0.0016527 52.896 52.954 0.39226 1.3993 2.1588 1302.3 -0.0058861 253.42 0.14205 0.90429 1.1058 461.25 500.07 2.5262 1.1252 1.3293 212.24 0.60736 5.7140 0.0097382
-62.625 5.3781 0.00049376 55.256 55.337 0.40359 603.97 0.0016557 55.055 55.117 0.40254 1.4012 2.1624 1295.7 -0.0058553 250.26 0.14144 0.95134 1.0511 462.30 501.28 2.5218 1.1293 1.3340 212.58 0.59958 5.7406 0.0098201
-61.625 5.6774 0.00051618 57.428 57.513 0.41388 602.87 0.0016587 57.218 57.283 0.41279 1.4031 2.1660 1289.1 -0.0058241 247.16 0.14084 1.0003 0.99972 463.35 502.48 2.5175 1.1333 1.3387 212.92 0.59194 5.7672 0.0099024
-60.625 5.9899 0.00053930 59.603 59.693 0.42414 601.77 0.0016618 59.385 59.453 0.42301 1.4051 2.1697 1282.5 -0.0057925 244.12 0.14023 1.0512 0.95131 464.40 503.68 2.5133 1.1374 1.3435 213.26 0.58442 5.7938 0.0099850
-59.625 6.3160 0.00056311 61.782 61.877 0.43436 600.66 0.0016648 61.554 61.627 0.43320 1.4071 2.1734 1275.9 -0.0057605 241.13 0.13962 1.1041 0.90573 465.45 504.89 2.5091 1.1415 1.3483 213.58 0.57704 5.8203 0.010068
-58.625 6.6561 0.00058763 63.965 64.065 0.44456 599.55 0.0016679 63.728 63.805 0.44335 1.4091 2.1772 1269.3 -0.0057280 238.19 0.13902 1.1591 0.86277 466.50 506.09 2.5051 1.1457 1.3532 213.90 0.56978 5.8468 0.010151
-57.625 7.0107 0.00061286 66.152 66.257 0.45473 598.44 0.0016710 65.905 65.986 0.45348 1.4111 2.1810 1262.7 -0.0056951 235.31 0.13842 1.2161 0.82228 467.55 507.30 2.5011 1.1498 1.3581 214.22 0.56265 5.8733 0.010234
-56.625 7.3801 0.00063881 68.342 68.453 0.46488 597.33 0.0016741 68.086 68.172 0.46358 1.4132 2.1848 1256.1 -0.0056617 232.48 0.13781 1.2754 0.78408 468.60 508.50 2.4972 1.1540 1.3631 214.53 0.55564 5.8998 0.010318
-55.625 7.7648 0.00066548 70.537 70.653 0.47499 596.22 0.0016772 70.271 70.361 0.47364 1.4153 2.1887 1249.5 -0.0056279 229.69 0.13721 1.3369 0.74802 469.66 509.71 2.4934 1.1582 1.3681 214.84 0.54875 5.9263 0.010402
-54.625 8.1652 0.00069287 72.736 72.858 0.48507 595.10 0.0016804 72.460 72.554 0.48368 1.4174 2.1927 1242.9 -0.0055937 226.96 0.13661 1.4006 0.71396 470.72 510.91 2.4897 1.1624 1.3731 215.14 0.54199 5.9527 0.010486
-53.625 8.5819 0.00072100 74.939 75.067 0.49513 593.98 0.0016836 74.652 74.752 0.49369 1.4196 2.1967 1236.3 -0.0055589 224.27 0.13601 1.4667 0.68178 471.77 512.11 2.4860 1.1667 1.3782 215.43 0.53535 5.9792 0.010571
-52.625 9.0151 0.00074986 77.146 77.281 0.50516 592.86 0.0016867 76.849 76.954 0.50368 1.4218 2.2007 1229.8 -0.0055237 221.63 0.13541 1.5353 0.65136 472.83 513.32 2.4824 1.1710 1.3834 215.72 0.52882 6.0056 0.010656
-51.625 9.4655 0.00077946 79.357 79.499 0.51517 591.73 0.0016900 79.049 79.159 0.51363 1.4240 2.2048 1223.2 -0.0054880 219.04 0.13482 1.6062 0.62258 473.89 514.52 2.4789 1.1752 1.3886 216.00 0.52241 6.0320 0.010741
-50.625 9.9335 0.00080979 81.572 81.721 0.52514 590.60 0.0016932 81.253 81.369 0.52356 1.4262 2.2089 1216.6 -0.0054519 216.48 0.13422 1.6797 0.59534 474.95 515.73 2.4755 1.1796 1.3938 216.28 0.51612 6.0584 0.010827
-49.625 10.419 0.00084086 83.792 83.948 0.53510 589.47 0.0016964 83.462 83.584 0.53347 1.4285 2.2131 1210.1 -0.0054152 213.98 0.13363 1.7558 0.56954 476.01 516.93 2.4722 1.1839 1.3991 216.55 0.50994 6.0848 0.010913
-48.625 10.924 0.00087267 86.016 86.179 0.54502 588.34 0.0016997 85.674 85.802 0.54334 1.4308 2.2173 1203.5 -0.0053780 211.51 0.13303 1.8345 0.54510 477.07 518.13 2.4689 1.1883 1.4044 216.82 0.50387 6.1112 0.010999
-47.625 11.448 0.00090521 88.244 88.415 0.55492 587.20 0.0017030 87.891 88.025 0.55319 1.4331 2.2216 1196.9 -0.0053403 209.08 0.13244 1.9159 0.52194 478.14 519.33 2.4657 1.1927 1.4098 217.08 0.49792 6.1375 0.011085
-46.625 11.991 0.00093848 90.476 90.656 0.56480 586.06 0.0017063 90.111 90.252 0.56302 1.4354 2.2259 1190.4 -0.0053020 206.69 0.13185 2.0001 0.49997 479.20 520.53 2.4625 1.1971 1.4153 217.33 0.49207 6.1639 0.011172
-45.625 12.554 0.00097249 92.713 92.902 0.57466 584.92 0.0017096 92.336 92.484 0.57282 1.4378 2.2303 1183.8 -0.0052633 204.34 0.13126 2.0872 0.47912 480.27 521.74 2.4594 1.2015 1.4207 217.58 0.48633 6.1902 0.011259
-44.625 13.137 0.0010072 94.955 95.152 0.58449 583.77 0.0017130 94.565 94.720 0.58260 1.4402 2.2347 1177.3 -0.0052240 202.03 0.13067 2.1771 0.45933 481.33 522.94 2.4564 1.2060 1.4263 217.82 0.48069 6.2165 0.011347
-43.625 13.741 0.0010427 97.201 97.407 0.59429 582.62 0.0017164 96.799 96.961 0.59235 1.4426 2.2392 1170.7 -0.0051841 199.75 0.13008 2.2700 0.44053 482.40 524.14 2.4535 1.2104 1.4319 218.05 0.47516 6.2429 0.011435
-42.625 14.367 0.0010788 99.451 99.666 0.60407 581.47 0.0017198 99.036 99.207 0.60208 1.4450 2.2437 1164.2 -0.0051437 197.51 0.12949 2.3659 0.42267 483.46 525.33 2.4506 1.2149 1.4375 218.28 0.46973 6.2692 0.011523
-41.625 15.015 0.0011157 101.71 101.93 0.61384 580.32 0.0017232 101.28 101.46 0.61179 1.4475 2.2483 1157.7 -0.0051027 195.30 0.12891 2.4649 0.40569 484.53 526.53 2.4478 1.2195 1.4432 218.50 0.46440 6.2955 0.011612
-40.625 15.686 0.0011533 103.97 104.20 0.62357 579.16 0.0017266 103.52 103.71 0.62147 1.4500 2.2529 1151.1 -0.0050611 193.13 0.12832 2.5671 0.38954 485.60 527.73 2.4450 1.2240 1.4489 218.72 0.45917 6.3218 0.011701
-39.625 16.380 0.0011916 106.23 106.48 0.63329 578.00 0.0017301 105.78 105.97 0.63113 1.4525 2.2576 1144.6 -0.0050189 190.99 0.12774 2.6725 0.37418 486.67 528.93 2.4423 1.2286 1.4547 218.93 0.45403 6.3481 0.011790
-38.625 17.097 0.0012306 108.50 108.75 0.64299 576.83 0.0017336 108.03 108.24 0.64077 1.4550 2.2623 1138.0 -0.0049761 188.88 0.12716 2.7813 0.35955 487.74 530.12 2.4397 1.2332 1.4606 219.13 0.44900 6.3744 0.011880
-37.625 17.838 0.0012702 110.77 111.04 0.65266 575.66 0.0017371 110.29 110.51 0.65039 1.4576 2.2671 1131.5 -0.0049327 186.81 0.12658 2.8934 0.34562 488.81 531.32 2.4371 1.2378 1.4665 219.33 0.44405 6.4007 0.011970
-36.625 18.604 0.0013105 113.05 113.33 0.66231 574.49 0.0017407 112.56 112.78 0.65999 1.4602 2.2719 1125.0 -0.0048887 184.76 0.12600 3.0089 0.33235 489.88 532.51 2.4346 1.2424 1.4724 219.52 0.43920 6.4270 0.012060
-35.625 19.395 0.0013514 115.33 115.62 0.67194 573.32 0.0017442 114.83 115.06 0.66956 1.4628 2.2768 1118.5 -0.0048440 182.75 0.12542 3.1280 0.31969 490.95 533.70 2.4321 1.2471 1.4784 219.70 0.43444 6.4533 0.012151
-34.625 20.212 0.0013930 117.62 117.92 0.68156 572.14 0.0017478 117.10 117.34 0.67912 1.4654 2.2818 1111.9 -0.0047987 180.76 0.12485 3.2506 0.30763 492.02 534.89 2.4297 1.2517 1.4845 219.88 0.42977 6.4797 0.012243
-33.625 21.056 0.0014352 119.91 120.23 0.69115 570.96 0.0017514 119.38 119.63 0.68865 1.4681 2.2868 1105.4 -0.0047527 178.80 0.12427 3.3770 0.29612 493.09 536.08 2.4273 1.2564 1.4906 220.05 0.42519 6.5060 0.012334
-32.625 21.926 0.0014779 122.21 122.54 0.70072 569.77 0.0017551 121.66 121.93 0.69817 1.4708 2.2918 1098.9 -0.0047061 176.87 0.12370 3.5071 0.28514 494.17 537.27 2.4250 1.2611 1.4968 220.21 0.42070 6.5323 0.012426
-31.625 22.823 0.0015213 124.51 124.86 0.71027 568.58 0.0017588 123.95 124.23 0.70767 1.4735 2.2970 1092.3 -0.0046587 174.97 0.12313 3.6410 0.27465 495.24 538.46 2.4227 1.2659 1.5031 220.36 0.41629 6.5587 0.012519
-30.625 23.749 0.0015652 126.82 127.18 0.71981 567.39 0.0017625 126.24 126.53 0.71714 1.4762 2.3021 1085.8 -0.0046107 173.09 0.12256 3.7787 0.26464 496.31 539.64 2.4205 1.2706 1.5094 220.51 0.41196 6.5850 0.012612
-29.625 24.703 0.0016096 129.13 129.51 0.72933 566.19 0.0017662 128.54 128.84 0.72660 1.4790 2.3074 1079.3 -0.0045619 171.24 0.12200 3.9205 0.25507 497.38 540.83 2.4184 1.2754 1.5157 220.65 0.40772 6.6114 0.012706
-28.625 25.687 0.0016546 131.45 131.84 0.73882 564.99 0.0017699 130.84 131.16 0.73604 1.4818 2.3126 1072.8 -0.0045124 169.42 0.12143 4.0663 0.24592 498.46 542.01 2.4162 1.2802 1.5222 220.79 0.40356 6.6378 0.012800
-27.625 26.700 0.0017000 133.78 134.18 0.74830 563.78 0.0017737 133.15 133.48 0.74547 1.4846 2.3180 1066.2 -0.0044621 167.62 0.12087 4.2163 0.23717 499.53 543.19 2.4142 1.2850 1.5286 220.91 0.39947 6.6642 0.012894
-26.625 27.743 0.0017459 136.10 136.52 0.75776 562.57 0.0017775 135.47 135.81 0.75487 1.4874 2.3234 1059.7 -0.0044111 165.84 0.12031 4.3705 0.22881 500.60 544.37 2.4122 1.2899 1.5352 221.03 0.39547 6.6906 0.012989
-25.625 28.817 0.0017922 138.44 138.87 0.76721 561.36 0.0017814 137.78 138.14 0.76426 1.4902 2.3289 1053.2 -0.0043593 164.09 0.11975 4.5290 0.22080 501.68 545.55 2.4102 1.2947 1.5418 221.14 0.39154 6.7171 0.013084
-24.625 29.923 0.0018389 140.77 141.22 0.77664 560.14 0.0017853 140.11 140.48 0.77363 1.4931 2.3344 1046.7 -0.0043067 162.36 0.11919 4.6918 0.21314 502.75 546.72 2.4083 1.2996 1.5485 221.25 0.38768 6.7436 0.013180
-23.625 31.061 0.0018859 143.12 143.58 0.78605 558.92 0.0017892 142.44 142.82 0.78298 1.4960 2.3400 1040.1 -0.0042533 160.65 0.11863 4.8592 0.20580 503.82 547.90 2.4064 1.3045 1.5552 221.35 0.38391 6.7701 0.013277
-22.625 32.232 0.0019333 145.47 145.95 0.79544 557.69 0.0017931 144.77 145.17 0.79232 1.4990 2.3457 1033.6 -0.0041990 158.97 0.11807 5.0311 0.19877 504.90 549.07 2.4045 1.3095 1.5621 221.44 0.38020 6.7967 0.013374
-21.625 33.435 0.0019810 147.82 148.32 0.80482 556.46 0.0017971 147.11 147.52 0.80164 1.5019 2.3514 1027.1 -0.0041439 157.30 0.11752 5.2076 0.19203 505.97 550.24 2.4027 1.3144 1.5690 221.52 0.37656 6.8232 0.013471
-20.625 34.673 0.0020289 150.18 150.70 0.81418 555.23 0.0018011 149.45 149.88 0.81095 1.5049 2.3572 1020.6 -0.0040879 155.66 0.11697 5.3889 0.18557 507.04 551.40 2.4010 1.3194 1.5759 221.59 0.37300 6.8499 0.013569
-19.625 35.946 0.0020770 152.54 153.08 0.82352 553.99 0.0018051 151.80 152.25 0.82024 1.5079 2.3630 1014.0 -0.0040311 154.04 0.11642 5.5750 0.17937 508.11 552.57 2.3992 1.3244 1.5829 221.66 0.36950 6.8765 0.013668
-18.625 37.253 0.0021253 154.91 155.47 0.83285 552.74 0.0018092 154.16 154.62 0.82952 1.5109 2.3689 1007.5 -0.0039733 152.44 0.11587 5.7660 0.17343 509.19 553.73 2.3976 1.3294 1.5901 221.72 0.36608 6.9032 0.013767
-17.625 38.596 0.0021737 157.29 157.87 0.84217 551.49 0.0018133 156.52 157.00 0.83878 1.5140 2.3749 1001.0 -0.0039145 150.86 0.11532 5.9621 0.16773 510.26 554.89 2.3959 1.3345 1.5972 221.77 0.36272 6.9300 0.013867
-16.625 39.976 0.0022222 159.67 160.27 0.85147 550.24 0.0018174 158.89 159.39 0.84803 1.5171 2.3810 994.44 -0.0038549 149.29 0.11478 6.1632 0.16225 511.33 556.05 2.3943 1.3395 1.6045 221.81 0.35942 6.9568 0.013968
-15.625 41.392 0.0022706 162.06 162.68 0.86075 548.98 0.0018216 161.26 161.78 0.85726 1.5202 2.3871 987.91 -0.0037942 147.75 0.11423 6.3696 0.15700 512.40 557.20 2.3927 1.3446 1.6119 221.85 0.35619 6.9836 0.014069
-14.625 42.846 0.0023190 164.45 165.09 0.87002 547.71 0.0018258 163.64 164.18 0.86649 1.5233 2.3933 981.37 -0.0037325 146.22 0.11369 6.5812 0.15195 513.47 558.36 2.3912 1.3497 1.6193 221.87 0.35302 7.0105 0.014170
-13.625 44.338 0.0023674 166.85 167.51 0.87928 546.44 0.0018300 166.02 166.58 0.87569 1.5264 2.3996 974.83 -0.0036698 144.72 0.11315 6.7983 0.14710 514.54 559.51 2.3897 1.3549 1.6268 221.89 0.34992 7.0375 0.014273
-12.625 45.870 0.0024155 169.25 169.94 0.88852 545.17 0.0018343 168.41 168.99 0.88489 1.5296 2.4059 968.29 -0.0036061 143.23 0.11261 7.0208 0.14243 515.61 560.65 2.3883 1.3600 1.6344 221.90 0.34688 7.0646 0.014376
-11.625 47.440 0.0024635 171.66 172.37 0.89775 543.89 0.0018386 170.81 171.41 0.89407 1.5328 2.4124 961.75 -0.0035413 141.76 0.11208 7.2490 0.13795 516.68 561.80 2.3868 1.3652 1.6421 221.91 0.34389 7.0917 0.014479
-10.625 49.051 0.0025111 174.07 174.81 0.90696 542.60 0.0018430 173.21 173.83 0.90324 1.5360 2.4189 955.20 -0.0034753 140.30 0.11154 7.4829 0.13364 517.75 562.94 2.3854 1.3704 1.6498 221.90 0.34097 7.1188 0.014584
-9.6250 50.703 0.0025584 176.49 177.25 0.91616 541.31 0.0018474 175.61 176.26 0.91240 1.5393 2.4255 948.65 -0.0034082 138.86 0.11101 7.7226 0.12949 518.81 564.08 2.3841 1.3757 1.6577 221.88 0.33810 7.1461 0.014689
-8.6250 52.396 0.0026052 178.92 179.70 0.92535 540.02 0.0018518 178.03 178.70 0.92154 1.5426 2.4321 942.10 -0.0033400 137.44 0.11048 7.9683 0.12550 519.88 565.21 2.3827 1.3809 1.6657 221.86 0.33529 7.1734 0.014795
-7.6250 54.131 0.0026515 181.35 182.16 0.93453 538.72 0.0018563 180.45 181.14 0.93068 1.5459 2.4389 935.55 -0.0032705 136.03 0.10995 8.2200 0.12165 520.94 566.35 2.3814 1.3862 1.6737 221.83 0.33254 7.2008 0.014902
-6.6250 55.909 0.0026972 183.79 184.63 0.94369 537.41 0.0018608 182.87 183.59 0.93980 1.5492 2.4457 928.99 -0.0031998 134.64 0.10942 8.4779 0.11795 522.01 567.48 2.3801 1.3915 1.6819 221.79 0.32984 7.2284 0.015009
-5.6250 57.730 0.0027423 186.23 187.10 0.95284 536.10 0.0018653 185.30 186.05 0.94892 1.5525 2.4526 922.43 -0.0031279 133.27 0.10889 8.7420 0.11439 523.07 568.60 2.3789 1.3969 1.6902 221.74 0.32720 7.2560 0.015117
-4.6250 59.595 0.0027865 188.68 189.57 0.96198 534.78 0.0018699 187.74 188.51 0.95802 1.5559 2.4596 915.87 -0.0030546 131.91 0.10837 9.0126 0.11096 524.13 569.72 2.3777 1.4022 1.6985 221.68 0.32461 7.2837 0.015226
-3.6250 61.505 0.0028299 191.14 192.06 0.97110 533.45 0.0018746 190.19 190.98 0.96711 1.5593 2.4667 909.30 -0.0029800 130.56 0.10785 9.2896 0.10765 525.19 570.84 2.3765 1.4076 1.7070 221.62 0.32207 7.3115 0.015336
-2.6250 63.461 0.0028723 193.60 194.55 0.98022 532.12 0.0018793 192.64 193.46 0.97620 1.5627 2.4739 902.73 -0.0029041 129.23 0.10733 9.5733 0.10446 526.25 571.96 2.3753 1.4131 1.7156 221.54 0.31958 7.3394 0.015447
-1.6250 65.462 0.0029136 196.06 197.04 0.98932 530.78 0.0018840 195.10 195.95 0.98527 1.5662 2.4811 896.16 -0.0028267 127.91 0.10681 9.8638 0.10138 527.31 573.07 2.3742 1.4185 1.7243 221.45 0.31715 7.3674 0.015559
-0.62500 67.510 0.0029538 198.54 199.55 0.99841 529.44 0.0018888 197.56 198.44 0.99434 1.5696 2.4885 889.58 -0.0027478 126.61 0.10629 10.161 0.098414 528.37 574.18 2.3731 1.4240 1.7331 221.36 0.31476 7.3956 0.015671
0.37500 69.606 0.0029926 201.02 202.06 1.0075 528.09 0.0018936 200.03 200.94 1.0034 1.5731 2.4960 883.00 -0.0026675 125.32 0.10578 10.466 0.095552 529.42 575.28 2.3720 1.4295 1.7421 221.26 0.31242 7.4239 0.015785
1.3750 71.749 0.0030300 203.50 204.58 1.0166 526.73 0.0018985 202.51 203.45 1.0124 1.5767 2.5035 876.42 -0.0025856 124.04 0.10527 10.777 0.092790 530.48 576.38 2.3709 1.4350 1.7512 221.14 0.31013 7.4523 0.015899
2.3750 73.941 0.0030659 205.99 207.10 1.0256 525.37 0.0019034 204.99 205.96 1.0215 1.5802 2.5112 869.83 -0.0025022 122.78 0.10476 11.096 0.090123 531.53 577.47 2.3699 1.4406 1.7604 221.02 0.30789 7.4808 0.016015
3.3750 76.183 0.0031001 208.49 209.63 1.0347 523.99 0.0019084 207.48 208.48 1.0305 1.5838 2.5190 863.24 -0.0024171 121.53 0.10425 11.422 0.087549 532.58 578.56 2.3688 1.4462 1.7697 220.89 0.30569 7.5095 0.016131
4.3750 78.475 0.0031325 210.99 212.17 1.0437 522.62 0.0019134 209.98 211.01 1.0395 1.5874 2.5268 856.64 -0.0023303 120.29 0.10374 11.756 0.085062 533.63 579.65 2.3678 1.4518 1.7792 220.75 0.30354 7.5384 0.016249
5.3750 80.817 0.0031629 213.50 214.71 1.0527 521.23 0.0019185 212.48 213.55 1.0486 1.5910 2.5348 850.04 -0.0022417 119.06 0.10324 12.098 0.082660 534.67 580.73 2.3669 1.4575 1.7888 220.60 0.30144 7.5674 0.016368
6.3750 83.211 0.0031912 216.02 217.27 1.0617 519.84 0.0019237 215.00 216.10 1.0576 1.5946 2.5429 843.43 -0.0021514 117.85 0.10273 12.447 0.080340 535.72 581.81 2.3659 1.4632 1.7986 220.44 0.29938 7.5966 0.016487
7.3750 85.657 0.0032172 218.54 219.83 1.0708 518.44 0.0019289 217.51 218.65 1.0666 1.5983 2.5511 836.82 -0.0020593 116.65 0.10223 12.805 0.078096 536.76 582.88 2.3650 1.4689 1.8085 220.27 0.29736 7.6259 0.016608
8.3750 88.156 0.0032407 221.07 222.39 1.0798 517.03 0.0019341 220.04 221.22 1.0756 1.6020 2.5595 830.20 -0.0019652 115.46 0.10173 13.170 0.075928 537.80 583.95 2.3640 1.4746 1.8186 220.08 0.29538 7.6555 0.016730
9.3750 90.708 0.0032617 223.60 224.96 1.0887 515.62 0.0019394 222.57 223.79 1.0846 1.6057 2.5679 823.58 -0.0018691 114.28 0.10124 13.545 0.073830 538.84 585.01 2.3631 1.4804 1.8288 219.89 0.29345 7.6852 0.016853
10.375 93.315 0.0032798 226.15 227.55 1.0977 514.19 0.0019448 225.11 226.37 1.0936 1.6095 2.5765 816.96 -0.0017710 113.11 0.10074 13.927 0.071802 539.87 586.07 2.3622 1.4863 1.8392 219.69 0.29156 7.7151 0.016978
11.375 95.977 0.0032949 228.69 230.13 1.1067 512.76 0.0019502 227.66 228.95 1.1025 1.6132 2.5852 810.32 -0.0016708 111.95 0.10025 14.319 0.069840 540.90 587.12 2.3614 1.4921 1.8498 219.48 0.28971 7.7452 0.017103
12.375 98.694 0.0033068 231.25 232.73 1.1157 511.32 0.0019557 230.22 231.55 1.1115 1.6170 2.5940 803.68 -0.0015685 110.80 0.099756 14.719 0.067941 541.93 588.17 2.3605 1.4980 1.8605 219.26 0.28790 7.7756 0.017230
13.375 101.47 0.0033153 233.81 235.33 1.1246 509.87 0.0019613 232.78 234.15 1.1205 1.6208 2.6030 797.04 -0.0014639 109.67 0.099267 15.128 0.066103 542.96 589.21 2.3597 1.5040 1.8715 219.03 0.28612 7.8061 0.017359
14.375 104.30 0.0033201 236.38 237.94 1.1336 508.42 0.0019669 235.35 236.77 1.1295 1.6247 2.6121 790.39 -0.0013569 108.54 0.098779 15.547 0.064323 543.99 590.24 2.3588 1.5099 1.8826 218.79 0.28439 7.8369 0.017488
15.375 107.19 0.0033210 238.95 240.56 1.1425 506.95 0.0019726 237.93 239.39 1.1384 1.6286 2.6214 783.73 -0.0012476 107.43 0.098294 15.974 0.062600 545.01 591.27 2.3580 1.5159 1.8940 218.53 0.28270 7.8680 0.017619
16.375 110.13 0.0033178 241.53 243.18 1.1514 505.48 0.0019783 240.52 242.02 1.1474 1.6324 2.6308 777.07 -0.0011357 106.32 0.097810 16.412 0.060931 546.03 592.29 2.3572 1.5220 1.9055 218.27 0.28104 7.8993 0.017752
17.375 113.14 0.0033101 244.12 245.81 1.1603 504.00 0.0019841 243.11 244.66 1.1564 1.6364 2.6403 770.40 -0.0010213 105.22 0.097328 16.859 0.059314 547.04 593.31 2.3564 1.5281 1.9172 217.99 0.27942 7.9308 0.017886
18.375 116.21 0.0032978 246.71 248.45 1.1693 502.50 0.0019900 245.72 247.31 1.1653 1.6403 2.6501 763.72 -0.00090422 104.14 0.096848 17.317 0.057747 548.05 594.32 2.3557 1.5342 1.9292 217.71 0.27783 7.9626 0.018021
19.375 119.33 0.0032805 249.31 251.10 1.1782 501.00 0.0019960 248.33 249.97 1.1743 1.6443 2.6599 757.04 -0.00078435 103.06 0.096371 17.785 0.056228 549.06 595.33 2.3549 1.5404 1.9414 217.41 0.27628 7.9947 0.018159
20.375 122.52 0.0032579 251.92 253.76 1.1871 499.49 0.0020020 250.95 252.64 1.1832 1.6483 2.6700 750.35 -0.00066161 101.99 0.095895 18.263 0.054756 550.07 596.32 2.3541 1.5466 1.9538 217.10 0.27477 8.0272 0.018297
21.375 125.77 0.0032297 254.53 256.42 1.1959 497.97 0.0020082 253.57 255.32 1.1922 1.6523 2.6802 743.64 -0.00053589 100.93 0.095420 18.752 0.053328 551.07 597.31 2.3534 1.5528 1.9665 216.78 0.27329 8.0599 0.018438
22.375 129.08 0.0031955 257.16 259.09 1.2048 496.43 0.0020144 256.21 258.00 1.2012 1.6563 2.6906 736.94 -0.00040708 99.877 0.094948 19.252 0.051943 552.07 598.30 2.3526 1.5591 1.9795 216.45 0.27184 8.0929 0.018580
23.375 132.46 0.0031551 259.78 261.77 1.2137 494.89 0.0020206 258.86 260.70 1.2101 1.6604 2.7012 730.22 -0.00027505 98.834 0.094478 19.763 0.050600 553.06 599.27 2.3519 1.5655 1.9927 216.11 0.27043 8.1263 0.018724
24.375 135.90 0.0031079 262.42 264.46 1.2226 493.34 0.0020270 261.51 263.41 1.2191 1.6645 2.7120 723.49 -0.00013968 97.800 0.094009 20.285 0.049297 554.05 600.24 2.3512 1.5718 2.0061 215.75 0.26906 8.1600 0.018870
25.375 139.41 0.0030537 265.06 267.15 1.2314 491.77 0.0020335 264.17 266.13 1.2280 1.6686 2.7230 716.76 -8.3775e-07 96.773 0.093543 20.820 0.048032 555.03 601.20 2.3504 1.5783 2.0199 215.39 0.26771 8.1941 0.019017
26.375 142.98 0.0029919 267.71 269.85 1.2403 490.20 0.0020400 266.84 268.85 1.2370 1.6728 2.7342 710.01 0.00014161 95.755 0.093078 21.366 0.046804 556.01 602.15 2.3497 1.5847 2.0340 215.01 0.26640 8.2286 0.019167
27.375 146.62 0.0029221 270.36 272.56 1.2492 488.61 0.0020466 269.52 271.59 1.2459 1.6770 2.7456 703.26 0.00028782 94.745 0.092615 21.924 0.045612 556.99 603.10 2.3490 1.5913 2.0484 214.62 0.26512 8.2634 0.019319
28.375 150.33 0.0028440 273.03 275.28 1.2580 487.01 0.0020533 272.21 274.34 1.2549 1.6812 2.7573 696.49 0.00043793 93.742 0.092154 22.495 0.044454 557.96 604.03 2.3483 1.5978 2.0631 214.21 0.26387 8.2987 0.019472
29.375 154.10 0.0027568 275.70 278.01 1.2668 485.40 0.0020601 274.91 277.10 1.2638 1.6854 2.7691 689.72 0.00059212 92.747 0.091695 23.079 0.043329 558.92 604.96 2.3476 1.6044 2.0781 213.80 0.26265 8.3344 0.019628
30.375 157.94 0.0026603 278.37 280.74 1.2757 483.78 0.0020671 277.62 279.87 1.2728 1.6897 2.7813 682.93 0.00075055 91.760 0.091238 23.676 0.042237 559.88 605.88 2.3469 1.6111 2.0935 213.37 0.26147 8.3705 0.019786
31.375 161.86 0.0025536 281.06 283.48 1.2845 482.15 0.0020741 280.34 282.66 1.2818 1.6939 2.7936 676.13 0.00091340 90.779 0.090782 24.287 0.041175 560.84 606.79 2.3462 1.6178 2.1092 212.93 0.26031 8.4071 0.019947
32.375 165.84 0.0024364 283.75 286.23 1.2933 480.50 0.0020812 283.07 285.45 1.2908 1.6983 2.8063 669.32 0.0010809 89.806 0.090328 24.911 0.040143 561.79 607.69 2.3455 1.6246 2.1254 212.48 0.25919 8.4442 0.020110
33.375 169.90 0.0023079 286.45 288.99 1.3021 478.83 0.0020884 285.81 288.26 1.2997 1.7026 2.8192 662.50 0.0012532 88.840 0.089876 25.549 0.039140 562.73 608.58 2.3448 1.6314 2.1419 212.01 0.25809 8.4818 0.020275
34.375 174.02 0.0021674 289.15 291.76 1.3110 477.16 0.0020957 288.56 291.07 1.3087 1.7070 2.8324 655.67 0.0014305 87.880 0.089426 26.202 0.038164 563.67 609.46 2.3440 1.6383 2.1589 211.53 0.25702 8.5199 0.020443
35.375 178.22 0.0020143 291.87 294.54 1.3198 475.47 0.0021032 291.32 293.90 1.3177 1.7114 2.8459 648.82 0.0016131 86.927 0.088977 26.870 0.037216 564.60 610.33 2.3433 1.6452 2.1763 211.04 0.25599 8.5586 0.020613
36.375 182.50 0.0018479 294.59 297.32 1.3286 473.77 0.0021107 294.09 296.74 1.3267 1.7158 2.8597 641.96 0.0018012 85.980 0.088531 27.553 0.036293 565.52 611.19 2.3426 1.6522 2.1942 210.53 0.25498 8.5978 0.020786
37.375 186.84 0.0016672 297.32 300.12 1.3374 472.05 0.0021184 296.87 299.60 1.3357 1.7203 2.8739 635.08 0.0019950 85.040 0.088085 28.252 0.035395 566.44 612.04 2.3419 1.6592 2.2125 210.01 0.25400 8.6376 0.020962
38.375 191.27 0.0014714 300.05 302.92 1.3462 470.31 0.0021262 299.66 302.46 1.3447 1.7248 2.8884 628.19 0.0021949 84.105 0.087642 28.967 0.034522 567.35 612.88 2.3411 1.6663 2.2314 209.47 0.25305 8.6780 0.021141
39.375 195.77 0.0012597 302.80 305.73 1.3550 468.56 0.0021342 302.46 305.34 1.3537 1.7293 2.9033 621.29 0.0024011 83.177 0.087200 29.699 0.033671 568.26 613.70 2.3404 1.6734 2.2508 208.92 0.25213 8.7190 0.021323
40.375 200.34 0.0010310 305.55 308.55 1.3637 466.80 0.0021423 305.27 308.23 1.3627 1.7339 2.9185 614.37 0.0026140 82.254 0.086760 30.447 0.032844 569.15 614.52 2.3396 1.6806 2.2708 208.36 0.25123 8.7608 0.021508
41.375 205.00 0.00078431 308.31 311.38 1.3725 465.01 0.0021505 308.10 311.14 1.3718 1.7385 2.9342 607.43 0.0028338 81.338 0.086322 31.214 0.032037 570.04 615.32 2.3389 1.6879 2.2913 207.78 0.25037 8.8032 0.021696
42.375 209.73 0.00051852 311.07 314.22 1.3813 463.21 0.0021588 310.94 314.06 1.3808 1.7432 2.9502 600.47 0.0030609 80.426 0.085885 31.998 0.031252 570.92 616.11 2.3381 1.6952 2.3125 207.19 0.24953 8.8463 0.021888
43.375 214.54 0.00023242 313.85 317.06 1.3901 461.40 0.0021673 313.79 316.99 1.3899 1.7478 2.9667 593.50 0.0032957 79.520 0.085449 32.800 0.030488 571.79 616.88 2.3373 1.7027 2.3344 206.58 0.24871 8.8902 0.022084
44.375 232.35 undefined 316.38 319.87 1.3981 460.00 0.0021739 316.38 319.87 1.3981 1.7522 2.9772 588.97 0.0034466 78.837 0.085140 460.00 0.0021739 316.38 319.87 1.3981 1.7522 2.9772 588.97 0.0034466 78.837 0.085140
45.375 291.60 undefined 318.14 322.51 1.4036 460.00 0.0021739 318.14 322.51 1.4036 1.7554 2.9675 592.31 0.0033087 78.854 0.085233 460.00 0.0021739 318.14 322.51 1.4036 1.7554 2.9675 592.31 0.0033087 78.854 0.085233
46.375 350.93 undefined 319.89 325.15 1.4091 460.00 0.0021739 319.89 325.15 1.4091 1.7587 2.9582 595.59 0.0031747 78.871 0.085326 460.00 0.0021739 319.89 325.15 1.4091 1.7587 2.9582 595.59 0.0031747 78.871 0.085326
47.375 410.33 undefined 321.65 327.80 1.4146 460.00 0.0021739 321.65 327.80 1.4146 1.7620 2.9493 598.82 0.0030445 78.888 0.085419 460.00 0.0021739 321.65 327.80 1.4146 1.7620 2.9493 598.82 0.0030445 78.888 0.085419
48.375 469.79 undefined 323.42 330.46 1.4201 460.00 0.0021739 323.42 330.46 1.4201 1.7653 2.9408 602.00 0.0029179 78.906 0.085513 460.00 0.0021739 323.42 330.46 1.4201 1.7653 2.9408 602.00 0.0029179 78.906 0.085513
49.375 529.33 undefined 325.18 333.12 1.4256 460.00 0.0021739 325.18 333.12 1.4256 1.7687 2.9326 605.13 0.0027947 78.923 0.085607 460.00 0.0021739 325.18 333.12 1.4256 1.7687 2.9326 605.13 0.0027947 78.923 0.085607
50.375 588.92 undefined 326.95 335.78 1.4311 460.00 0.0021739 326.95 335.78 1.4311 1.7721 2.9249 608.22 0.0026748 78.940 0.085701 460.00 0.0021739 326.95 335.78 1.4311 1.7721 2.9249 608.22 0.0026748 78.940 0.085701
51.375 648.57 undefined 328.73 338.45 1.4366 460.00 0.0021739 328.73 338.45 1.4366 1.7755 2.9175 611.26 0.0025580 78.957 0.085796 460.00 0.0021739 328.73 338.45 1.4366 1.7755 2.9175 611.26 0.0025580 78.957 0.085796
52.375 708.28 undefined 330.51 341.12 1.4420 460.00 0.0021739 330.51 341.12 1.4420 1.7790 2.9104 614.25 0.0024442 78.975 0.085892 460.00 0.0021739 330.51 341.12 1.4420 1.7790 2.9104 614.25 0.0024442 78.975 0.085892
53.375 768.03 undefined 332.29 343.80 1.4475 460.00 0.0021739 332.29 343.80 1.4475 1.7825 2.9036 617.21 0.0023332 78.992 0.085988 460.00 0.0021739 332.29 343.80 1.4475 1.7825 2.9036 617.21 0.0023332 78.992 0.085988
54.375 827.84 undefined 334.07 346.48 1.4529 460.00 0.0021739 334.07 346.48 1.4529 1.7861 2.8971 620.12 0.0022250 79.010 0.086084 460.00 0.0021739 334.07 346.48 1.4529 1.7861 2.8971 620.12 0.0022250 79.010 0.086084
55.375 887.69 undefined 335.86 349.16 1.4584 460.00 0.0021739 335.86 349.16 1.4584 1.7897 2.8909 623.00 0.0021194 79.027 0.086181 460.00 0.0021739 335.86 349.16 1.4584 1.7897 2.8909 623.00 0.0021194 79.027 0.086181
56.375 947.59 undefined 337.65 351.85 1.4638 460.00 0.0021739 337.65 351.85 1.4638 1.7933 2.8850 625.83 0.0020164 79.044 0.086278 460.00 0.0021739 337.65 351.85 1.4638 1.7933 2.8850 625.83 0.0020164 79.044 0.086278
57.375 1007.5 undefined 339.45 354.55 1.4693 460.00 0.0021739 339.45 354.55 1.4693 1.7969 2.8793 628.63 0.0019157 79.062 0.086376 460.00 0.0021739 339.45 354.55 1.4693 1.7969 2.8793 628.63 0.0019157 79.062 0.086376
58.375 1067.5 undefined 341.24 357.24 1.4747 460.00 0.0021739 341.24 357.24 1.4747 1.8006 2.8739 631.40 0.0018174 79.080 0.086474 460.00 0.0021739 341.24 357.24 1.4747 1.8006 2.8739 631.40 0.0018174 79.080 0.086474
59.375 1127.5 undefined 343.05 359.95 1.4801 460.00 0.0021739 343.05 359.95 1.4801 1.8043 2.8687 634.13 0.0017214 79.097 0.086572 460.00 0.0021739 343.05 359.95 1.4801 1.8043 2.8687 634.13 0.0017214 79.097 0.086572
60.375 1187.6 undefined 344.85 362.65 1.4856 460.00 0.0021739 344.85 362.65 1.4856 1.8080 2.8638 636.83 0.0016275 79.115 0.086671 460.00 0.0021739 344.85 362.65 1.4856 1.8080 2.8638 636.83 0.0016275 79.115 0.086671
61.375 1247.6 undefined 346.66 365.36 1.4910 460.00 0.0021739 346.66 365.36 1.4910 1.8117 2.8590 639.50 0.0015357 79.132 0.086770 460.00 0.0021739 346.66 365.36 1.4910 1.8117 2.8590 639.50 0.0015357 79.132 0.086770
62.375 1307.8 undefined 348.48 368.08 1.4964 460.00 0.0021739 348.48 368.08 1.4964 1.8155 2.8545 642.14 0.0014459 79.150 0.086869 460.00 0.0021739 348.48 368.08 1.4964 1.8155 2.8545 642.14 0.0014459 79.150 0.086869
63.375 1367.9 undefined 350.29 370.80 1.5018 460.00 0.0021739 350.29 370.80 1.5018 1.8193 2.8502 644.75 0.0013581 79.168 0.086969 460.00 0.0021739 350.29 370.80 1.5018 1.8193 2.8502 644.75 0.0013581 79.168 0.086969
64.375 1428.1 undefined 352.11 373.52 1.5072 460.00 0.0021739 352.11 373.52 1.5072 1.8231 2.8461 647.33 0.0012721 79.185 0.087069 460.00 0.0021739 352.11 373.52 1.5072 1.8231 2.8461 647.33 0.0012721 79.185 0.087069
65.375 1488.3 undefined 353.94 376.25 1.5126 460.00 0.0021739 353.94 376.25 1.5126 1.8269 2.8422 649.88 0.0011880 79.203 0.087170 460.00 0.0021739 353.94 376.25 1.5126 1.8269 2.8422 649.88 0.0011880 79.203 0.087170
66.375 1548.5 undefined 355.77 378.98 1.5180 460.00 0.0021739 355.77 378.98 1.5180 1.8308 2.8384 652.41 0.0011056 79.221 0.087271 460.00 0.0021739 355.77 378.98 1.5180 1.8308 2.8384 652.41 0.0011056 79.221 0.087271
67.375 1608.7 undefined 357.60 381.71 1.5234 460.00 0.0021739 357.60 381.71 1.5234 1.8347 2.8348 654.91 0.0010250 79.239 0.087372 460.00 0.0021739 357.60 381.71 1.5234 1.8347 2.8348 654.91 0.0010250 79.239 0.087372
68.375 1668.9 undefined 359.44 384.45 1.5288 460.00 0.0021739 359.44 384.45 1.5288 1.8385 2.8314 657.39 0.00094599 79.257 0.087474 460.00 0.0021739 359.44 384.45 1.5288 1.8385 2.8314 657.39 0.00094599 79.257 0.087474
69.375 1729.2 undefined 361.28 387.20 1.5342 460.00 0.0021739 361.28 387.20 1.5342 1.8425 2.8282 659.84 0.00086860 79.275 0.087576 460.00 0.0021739 361.28 387.20 1.5342 1.8425 2.8282 659.84 0.00086860 79.275 0.087576
70.375 1789.5 undefined 363.12 389.94 1.5395 460.00 0.0021739 363.12 389.94 1.5395 1.8464 2.8251 662.27 0.00079278 79.292 0.087678 460.00 0.0021739 363.12 389.94 1.5395 1.8464 2.8251 662.27 0.00079278 79.292 0.087678
71.375 1849.8 undefined 364.97 392.70 1.5449 460.00 0.0021739 364.97 392.70 1.5449 1.8503 2.8222 664.67 0.00071847 79.310 0.087781 460.00 0.0021739 364.97 392.70 1.5449 1.8503 2.8222 664.67 0.00071847 79.310 0.087781
72.375 1910.1 undefined 366.82 395.45 1.5503 460.00 0.0021739 366.82 395.45 1.5503 1.8543 2.8194 667.06 0.00064563 79.328 0.087884 460.00 0.0021739 366.82 395.45 1.5503 1.8543 2.8194 667.06 0.00064563 79.328 0.087884
73.375 1970.4 undefined 368.68 398.21 1.5556 460.00 0.0021739 368.68 398.21 1.5556 1.8583 2.8168 669.42 0.00057422 79.346 0.087988 460.00 0.0021739 368.68 398.21 1.5556 1.8583 2.8168 669.42 0.00057422 79.346 0.087988
74.375 2030.8 undefined 370.54 400.98 1.5610 460.00 0.0021739 370.54 400.98 1.5610 1.8623 2.8143 671.76 0.00050420 79.364 0.088091 460.00 0.0021739 370.54 400.98 1.5610 1.8623 2.8143 671.76 0.00050420 79.364 0.088091
75.375 2091.1 undefined 372.40 403.75 1.5664 460.00 0.0021739 372.40 403.75 1.5664 1.8663 2.8119 674.09 0.00043553 79.382 0.088196 460.00 0.0021739 372.40 403.75 1.5664 1.8663 2.8119 674.09 0.00043553 79.382 0.088196
76.375 2151.5 undefined 374.27 406.52 1.5717 460.00 0.0021739 374.27 406.52 1.5717 1.8703 2.8097 676.39 0.00036818 79.401 0.088300 460.00 0.0021739 374.27 406.52 1.5717 1.8703 2.8097 676.39 0.00036818 79.401 0.088300
77.375 2211.8 undefined 376.14 409.30 1.5771 460.00 0.0021739 376.14 409.30 1.5771 1.8743 2.8076 678.68 0.00030210 79.419 0.088405 460.00 0.0021739 376.14 409.30 1.5771 1.8743 2.8076 678.68 0.00030210 79.419 0.088405
78.375 2272.2 undefined 378.02 412.08 1.5824 460.00 0.0021739 378.02 412.08 1.5824 1.8783 2.8056 680.94 0.00023727 79.437 0.088510 460.00 0.0021739 378.02 412.08 1.5824 1.8783 2.8056 680.94 0.00023727 79.437 0.088510
79.375 2332.6 undefined 379.90 414.86 1.5877 460.00 0.0021739 379.90 414.86 1.5877 1.8824 2.8037 683.19 0.00017366 79.455 0.088615 460.00 0.0021739 379.90 414.86 1.5877 1.8824 2.8037 683.19 0.00017366 79.455 0.088615
80.375 2393.0 undefined 381.79 417.65 1.5931 460.00 0.0021739 381.79 417.65 1.5931 1.8865 2.8020 685.42 0.00011122 79.473 0.088721 460.00 0.0021739 381.79 417.65 1.5931 1.8865 2.8020 685.42 0.00011122 79.473 0.088721
81.375 2453.4 undefined 383.67 420.45 1.5984 460.00 0.0021739 383.67 420.45 1.5984 1.8905 2.8003 687.64 4.9943e-05 79.491 0.088827 460.00 0.0021739 383.67 420.45 1.5984 1.8905 2.8003 687.64 4.9943e-05 79.491 0.088827
82.375 2513.7 undefined 385.57 423.24 1.6037 460.00 0.0021739 385.57 423.24 1.6037 1.8946 2.7988 689.83 -1.0212e-05 79.510 0.088934 460.00 0.0021739 385.57 423.24 1.6037 1.8946 2.7988 689.83 -1.0212e-05 79.510 0.088934
83.375 2574.1 undefined 387.46 426.05 1.6091 460.00 0.0021739 387.46 426.05 1.6091 1.8987 2.7974 692.02 -6.9271e-05 79.528 0.089041 460.00 0.0021739 387.46 426.05 1.6091 1.8987 2.7974 692.02 -6.9271e-05 79.528 0.089041
84.375 2634.5 undefined 389.36 428.85 1.6144 460.00 0.0021739 389.36 428.85 1.6144 1.9028 2.7960 694.18 -0.00012726 79.546 0.089148 460.00 0.0021739 389.36 428.85 1.6144 1.9028 2.7960 694.18 -0.00012726 79.546 0.089148
85.375 2694.9 undefined 391.27 431.66 1.6197 460.00 0.0021739 391.27 431.66 1.6197 1.9069 2.7948 696.33 -0.00018420 79.565 0.089255 460.00 0.0021739 391.27 431.66 1.6197 1.9069 2.7948 696.33 -0.00018420 79.565 0.089255
86.375 2755.3 undefined 393.18 434.48 1.6250 460.00 0.0021739 393.18 434.48 1.6250 1.9110 2.7937 698.47 -0.00024013 79.583 0.089363 460.00 0.0021739 393.18 434.48 1.6250 1.9110 2.7937 698.47 -0.00024013 79.583 0.089363
87.375 2815.7 undefined 395.09 437.29 1.6303 460.00 0.0021739 395.09 437.29 1.6303 1.9151 2.7926 700.59 -0.00029506 79.601 0.089471 460.00 0.0021739 395.09 437.29 1.6303 1.9151 2.7926 700.59 -0.00029506 79.601 0.089471
88.375 2876.1 undefined 397.01 440.12 1.6357 460.00 0.0021739 397.01 440.12 1.6357 1.9193 2.7917 702.70 -0.00034902 79.620 0.089580 460.00 0.0021739 397.01 440.12 1.6357 1.9193 2.7917 702.70 -0.00034902 79.620 0.089580
89.375 2936.5 undefined 398.93 442.94 1.6410 460.00 0.0021739 398.93 442.94 1.6410 1.9234 2.7908 704.79 -0.00040203 79.638 0.089688 460.00 0.0021739 398.93 442.94 1.6410 1.9234 2.7908 704.79 -0.00040203 79.638 0.089688
90.375 2996.8 undefined 400.86 445.77 1.6463 460.00 0.0021739 400.86 445.77 1.6463 1.9275 2.7900 706.87 -0.00045411 79.657 0.089797 460.00 0.0021739 400.86 445.77 1.6463 1.9275 2.7900 706.87 -0.00045411 79.657 0.089797
91.375 3057.2 undefined 402.78 448.61 1.6516 460.00 0.0021739 402.78 448.61 1.6516 1.9317 2.7894 708.94 -0.00050529 79.675 0.089907 460.00 0.0021739 402.78 448.61 1.6516 1.9317 2.7894 708.94 -0.00050529 79.675 0.089907
92.375 3117.6 undefined 404.72 451.45 1.6569 460.00 0.0021739 404.72 451.45 1.6569 1.9358 2.7887 710.99 -0.00055558 79.693 0.090017 460.00 0.0021739 404.72 451.45 1.6569 1.9358 2.7887 710.99 -0.00055558 79.693 0.090017
93.375 3178.0 undefined 406.66 454.29 1.6622 460.00 0.0021739 406.66 454.29 1.6622 1.9400 2.7882 713.03 -0.00060500 79.712 0.090127 460.00 0.0021739 406.66 454.29 1.6622 1.9400 2.7882 713.03 -0.00060500 79.712 0.090127
94.375 3238.3 undefined 408.60 457.14 1.6675 460.00 0.0021739 408.60 457.14 1.6675 1.9441 2.7878 715.06 -0.00065358 79.731 0.090237 460.00 0.0021739 408.60 457.14 1.6675 1.9441 2.7878 715.06 -0.00065358 79.731 0.090237
95.375 3298.7 undefined 410.54 459.99 1.6727 460.00 0.0021739 410.54 459.99 1.6727 1.9483 2.7874 717.08 -0.00070133 79.749 0.090348 460.00 0.0021739 410.54 459.99 1.6727 1.9483 2.7874 717.08 -0.00070133 79.749 0.090348
96.375 3359.0 undefined 412.50 462.84 1.6780 460.00 0.0021739 412.50 462.84 1.6780 1.9525 2.7871 719.08 -0.00074826 79.768 0.090459 460.00 0.0021739 412.50 462.84 1.6780 1.9525 2.7871 719.08 -0.00074826 79.768 0.090459
97.375 3419.4 undefined 414.45 465.70 1.6833 460.00 0.0021739 414.45 465.70 1.6833 1.9566 2.7868 721.08 -0.00079441 79.786 0.090570 460.00 0.0021739 414.45 465.70 1.6833 1.9566 2.7868 721.08 -0.00079441 79.786 0.090570
98.375 3479.7 undefined 416.41 468.56 1.6886 460.00 0.0021739 416.41 468.56 1.6886 1.9608 2.7867 723.06 -0.00083978 79.805 0.090682 460.00 0.0021739 416.41 468.56 1.6886 1.9608 2.7867 723.06 -0.00083978 79.805 0.090682
99.375 3540.0 undefined 418.37 471.43 1.6939 460.00 0.0021739 418.37 471.43 1.6939 1.9650 2.7866 725.03 -0.00088439 79.824 0.090794 460.00 0.0021739 418.37 471.43 1.6939 1.9650 2.7866 725.03 -0.00088439 79.824 0.090794
100.38 3600.3 undefined 420.34 474.30 1.6991 460.00 0.0021739 420.34 474.30 1.6991 1.9692 2.7865 726.99 -0.00092826 79.842 0.090906 460.00 0.0021739 420.34 474.30 1.6991 1.9692 2.7865 726.99 -0.00092826 79.842 0.090906
101.38 3660.7 undefined 422.31 477.18 1.7044 460.00 0.0021739 422.31 477.18 1.7044 1.9733 2.7866 728.94 -0.00097140 79.861 0.091018 460.00 0.0021739 422.31 477.18 1.7044 1.9733 2.7866 728.94 -0.00097140 79.861 0.091018
102.38 3721.0 undefined 424.29 480.06 1.7097 460.00 0.0021739 424.29 480.06 1.7097 1.9775 2.7866 730.88 -0.0010138 79.880 0.091131 460.00 0.0021739 424.29 480.06 1.7097 1.9775 2.7866 730.88 -0.0010138 79.880 0.091131
103.38 3781.3 undefined 426.26 482.94 1.7149 460.00 0.0021739 426.26 482.94 1.7149 1.9817 2.7868 732.80 -0.0010556 79.898 0.091244 460.00 0.0021739 426.26 482.94 1.7149 1.9817 2.7868 732.80 -0.0010556 79.898 0.091244
104.38 3841.5 undefined 428.25 485.83 1.7202 460.00 0.0021739 428.25 485.83 1.7202 1.9859 2.7870 734.72 -0.0010966 79.917 0.091358 460.00 0.0021739 428.25 485.83 1.7202 1.9859 2.7870 734.72 -0.0010966 79.917 0.091358
105.38 3901.8 undefined 430.24 488.72 1.7255 460.00 0.0021739 430.24 488.72 1.7255 1.9901 2.7873 736.63 -0.0011370 79.936 0.091472 460.00 0.0021739 430.24 488.72 1.7255 1.9901 2.7873 736.63 -0.0011370 79.936 0.091472
106.38 3962.1 undefined 432.23 491.61 1.7307 460.00 0.0021739 432.23 491.61 1.7307 1.9943 2.7876 738.53 -0.0011767 79.955 0.091586 460.00 0.0021739 432.23 491.61 1.7307 1.9943 2.7876 738.53 -0.0011767 79.955 0.091586
107.38 4022.3 undefined 434.22 494.51 1.7360 460.00 0.0021739 434.22 494.51 1.7360 1.9985 2.7880 740.41 -0.0012158 79.974 0.091700 460.00 0.0021739 434.22 494.51 1.7360 1.9985 2.7880 740.41 -0.0012158 79.974 0.091700
108.38 4082.5 undefined 436.23 497.42 1.7412 460.00 0.0021739 436.23 497.42 1.7412 2.0026 2.7884 742.29 -0.0012542 79.992 0.091815 460.00 0.0021739 436.23 497.42 1.7412 2.0026 2.7884 742.29 -0.0012542 79.992 0.091815
109.38 4142.8 undefined 438.23 500.32 1.7465 460.00 0.0021739 438.23 500.32 1.7465 2.0068 2.7889 744.16 -0.0012921 80.011 0.091930 460.00 0.0021739 438.23 500.32 1.7465 2.0068 2.7889 744.16 -0.0012921 80.011 0.091930
110.38 4203.0 undefined 440.24 503.24 1.7517 460.00 0.0021739 440.24 503.24 1.7517 2.0110 2.7894 746.02 -0.0013293 80.030 0.092045 460.00 0.0021739 440.24 503.24 1.7517 2.0110 2.7894 746.02 -0.0013293 80.030 0.092045
111.38 4263.2 undefined 442.25 506.15 1.7570 460.00 0.0021739 442.25 506.15 1.7570 2.0152 2.7900 747.87 -0.0013659 80.049 0.092161 460.00 0.0021739 442.25 506.15 1.7570 2.0152 2.7900 747.87 -0.0013659 80.049 0.092161
112.38 4323.4 undefined 444.27 509.07 1.7622 460.00 0.0021739 444.27 509.07 1.7622 2.0194 2.7906 749.71 -0.0014020 80.068 0.092277 460.00 0.0021739 444.27 509.07 1.7622 2.0194 2.7906 749.71 -0.0014020 80.068 0.092277
113.38 4383.5 undefined 446.29 511.99 1.7674 460.00 0.0021739 446.29 511.99 1.7674 2.0236 2.7913 751.55 -0.0014375 80.087 0.092393 460.00 0.0021739 446.29 511.99 1.7674 2.0236 2.7913 751.55 -0.0014375 80.087 0.092393
114.38 4443.7 undefined 448.32 514.92 1.7727 460.00 0.0021739 448.32 514.92 1.7727 2.0278 2.7920 753.37 -0.0014724 80.106 0.092510 460.00 0.0021739 448.32 514.92 1.7727 2.0278 2.7920 753.37 -0.0014724 80.106 0.092510
115.38 4503.9 undefined 450.35 517.85 1.7779 460.00 0.0021739 450.35 517.85 1.7779 2.0320 2.7928 755.19 -0.0015068 80.125 0.092627 460.00 0.0021739 450.35 517.85 1.7779 2.0320 2.7928 755.19 -0.0015068 80.125 0.092627
116.38 4564.0 undefined 452.38 520.79 1.7831 460.00 0.0021739 452.38 520.79 1.7831 2.0362 2.7936 756.99 -0.0015406 80.144 0.092744 460.00 0.0021739 452.38 520.79 1.7831 2.0362 2.7936 756.99 -0.0015406 80.144 0.092744
117.38 4624.1 undefined 454.42 523.73 1.7883 460.00 0.0021739 454.42 523.73 1.7883 2.0403 2.7944 758.79 -0.0015740 80.163 0.092861 460.00 0.0021739 454.42 523.73 1.7883 2.0403 2.7944 758.79 -0.0015740 80.163 0.092861
118.38 4684.2 undefined 456.46 526.67 1.7936 460.00 0.0021739 456.46 526.67 1.7936 2.0445 2.7953 760.58 -0.0016068 80.182 0.092979 460.00 0.0021739 456.46 526.67 1.7936 2.0445 2.7953 760.58 -0.0016068 80.182 0.092979
119.38 4744.3 undefined 458.51 529.62 1.7988 460.00 0.0021739 458.51 529.62 1.7988 2.0487 2.7963 762.37 -0.0016391 80.201 0.093097 460.00 0.0021739 458.51 529.62 1.7988 2.0487 2.7963 762.37 -0.0016391 80.201 0.093097
120.38 4804.4 undefined 460.56 532.57 1.8040 460.00 0.0021739 460.56 532.57 1.8040 2.0529 2.7972 764.14 -0.0016709 80.220 0.093216 460.00 0.0021739 460.56 532.57 1.8040 2.0529 2.7972 764.14 -0.0016709 80.220 0.093216
121.38 4864.4 undefined 462.61 535.52 1.8092 460.00 0.0021739 462.61 535.52 1.8092 2.0571 2.7983 765.91 -0.0017022 80.239 0.093334 460.00 0.0021739 462.61 535.52 1.8092 2.0571 2.7983 765.91 -0.0017022 80.239 0.093334
122.38 4924.5 undefined 464.67 538.48 1.8144 460.00 0.0021739 464.67 538.48 1.8144 2.0613 2.7993 767.67 -0.0017330 80.258 0.093453 460.00 0.0021739 464.67 538.48 1.8144 2.0613 2.7993 767.67 -0.0017330 80.258 0.093453
123.38 4984.5 undefined 466.74 541.45 1.8196 460.00 0.0021739 466.74 541.45 1.8196 2.0654 2.8004 769.42 -0.0017634 80.277 0.093573 460.00 0.0021739 466.74 541.45 1.8196 2.0654 2.8004 769.42 -0.0017634 80.277 0.093573
124.38 5044.5 undefined 468.80 544.41 1.8249 460.00 0.0021739 468.80 544.41 1.8249 2.0696 2.8015 771.16 -0.0017933 80.296 0.093692 460.00 0.0021739 468.80 544.41 1.8249 2.0696 2.8015 771.16 -0.0017933 80.296 0.093692
125.38 5104.5 undefined 470.88 547.39 1.8301 460.00 0.0021739 470.88 547.39 1.8301 2.0738 2.8027 772.90 -0.0018227 80.315 0.093812 460.00 0.0021739 470.88 547.39 1.8301 2.0738 2.8027 772.90 -0.0018227 80.315 0.093812
126.38 5164.5 undefined 472.95 550.36 1.8353 460.00 0.0021739 472.95 550.36 1.8353 2.0780 2.8039 774.63 -0.0018517 80.335 0.093932 460.00 0.0021739 472.95 550.36 1.8353 2.0780 2.8039 774.63 -0.0018517 80.335 0.093932
127.38 5224.5 undefined 475.03 553.34 1.8405 460.00 0.0021739 475.03 553.34 1.8405 2.0822 2.8051 776.35 -0.0018803 80.354 0.094053 460.00 0.0021739 475.03 553.34 1.8405 2.0822 2.8051 776.35 -0.0018803 80.354 0.094053
128.38 5284.4 undefined 477.12 556.32 1.8457 460.00 0.0021739 477.12 556.32 1.8457 2.0863 2.8064 778.07 -0.0019084 80.373 0.094174 460.00 0.0021739 477.12 556.32 1.8457 2.0863 2.8064 778.07 -0.0019084 80.373 0.094174
129.38 5344.3 undefined 479.20 559.31 1.8509 460.00 0.0021739 479.20 559.31 1.8509 2.0905 2.8077 779.77 -0.0019361 80.392 0.094295 460.00 0.0021739 479.20 559.31 1.8509 2.0905 2.8077 779.77 -0.0019361 80.392 0.094295
130.38 5404.2 undefined 481.30 562.30 1.8560 460.00 0.0021739 481.30 562.30 1.8560 2.0947 2.8090 781.47 -0.0019635 80.411 0.094416 460.00 0.0021739 481.30 562.30 1.8560 2.0947 2.8090 781.47 -0.0019635 80.411 0.094416
131.38 5464.1 undefined 483.39 565.29 1.8612 460.00 0.0021739 483.39 565.29 1.8612 2.0988 2.8103 783.17 -0.0019904 80.431 0.094538 460.00 0.0021739 483.39 565.29 1.8612 2.0988 2.8103 783.17 -0.0019904 80.431 0.094538
132.38 5524.0 undefined 485.49 568.29 1.8664 460.00 0.0021739 485.49 568.29 1.8664 2.1030 2.8117 784.86 -0.0020169 80.450 0.094660 460.00 0.0021739 485.49 568.29 1.8664 2.1030 2.8117 784.86 -0.0020169 80.450 0.094660
133.38 5583.9 undefined 487.60 571.29 1.8716 460.00 0.0021739 487.60 571.29 1.8716 2.1072 2.8131 786.54 -0.0020430 80.469 0.094782 460.00 0.0021739 487.60 571.29 1.8716 2.1072 2.8131 786.54 -0.0020430 80.469 0.094782
134.38 5643.7 undefined 489.71 574.30 1.8768 460.00 0.0021739 489.71 574.30 1.8768 2.1113 2.8146 788.21 -0.0020687 80.488 0.094905 460.00 0.0021739 489.71 574.30 1.8768 2.1113 2.8146 788.21 -0.0020687 80.488 0.094905
135.38 5703.5 undefined 491.82 577.31 1.8820 460.00 0.0021739 491.82 577.31 1.8820 2.1155 2.8160 789.88 -0.0020941 80.508 0.095028 460.00 0.0021739 491.82 577.31 1.8820 2.1155 2.8160 789.88 -0.0020941 80.508 0.095028
136.38 5763.3 undefined 493.94 580.32 1.8871 460.00 0.0021739 493.94 580.32 1.8871 2.1196 2.8175 791.54 -0.0021190 80.527 0.095151 460.00 0.0021739 493.94 580.32 1.8871 2.1196 2.8175 791.54 -0.0021190 80.527 0.095151
137.38 5823.1 undefined 496.06 583.34 1.8923 460.00 0.0021739 496.06 583.34 1.8923 2.1238 2.8191 793.19 -0.0021437 80.546 0.095275 460.00 0.0021739 496.06 583.34 1.8923 2.1238 2.8191 793.19 -0.0021437 80.546 0.095275
138.38 5882.9 undefined 498.19 586.36 1.8975 460.00 0.0021739 498.19 586.36 1.8975 2.1279 2.8206 794.84 -0.0021679 80.566 0.095398 460.00 0.0021739 498.19 586.36 1.8975 2.1279 2.8206 794.84 -0.0021679 80.566 0.095398
139.38 5942.6 undefined 500.32 589.39 1.9027 460.00 0.0021739 500.32 589.39 1.9027 2.1321 2.8222 796.48 -0.0021918 80.585 0.095523 460.00 0.0021739 500.32 589.39 1.9027 2.1321 2.8222 796.48 -0.0021918 80.585 0.095523
140.38 6002.4 undefined 502.45 592.42 1.9078 460.00 0.0021739 502.45 592.42 1.9078 2.1362 2.8238 798.12 -0.0022154 80.604 0.095647 460.00 0.0021739 502.45 592.42 1.9078 2.1362 2.8238 798.12 -0.0022154 80.604 0.095647
141.38 6062.1 undefined 504.59 595.45 1.9130 460.00 0.0021739 504.59 595.45 1.9130 2.1404 2.8254 799.75 -0.0022386 80.624 0.095772 460.00 0.0021739 504.59 595.45 1.9130 2.1404 2.8254 799.75 -0.0022386 80.624 0.095772
142.38 6121.8 undefined 506.73 598.49 1.9182 460.00 0.0021739 506.73 598.49 1.9182 2.1445 2.8271 801.37 -0.0022615 80.643 0.095897 460.00 0.0021739 506.73 598.49 1.9182 2.1445 2.8271 801.37 -0.0022615 80.643 0.095897
143.38 6181.4 undefined 508.88 601.53 1.9233 460.00 0.0021739 508.88 601.53 1.9233 2.1486 2.8287 802.99 -0.0022841 80.662 0.096022 460.00 0.0021739 508.88 601.53 1.9233 2.1486 2.8287 802.99 -0.0022841 80.662 0.096022
144.38 6241.1 undefined 511.03 604.57 1.9285 460.00 0.0021739 511.03 604.57 1.9285 2.1528 2.8304 804.60 -0.0023063 80.682 0.096147 460.00 0.0021739 511.03 604.57 1.9285 2.1528 2.8304 804.60 -0.0023063 80.682 0.096147
145.38 6300.7 undefined 513.18 607.62 1.9336 460.00 0.0021739 513.18 607.62 1.9336 2.1569 2.8321 806.20 -0.0023282 80.701 0.096273 460.00 0.0021739 513.18 607.62 1.9336 2.1569 2.8321 806.20 -0.0023282 80.701 0.096273
146.38 6360.3 undefined 515.34 610.68 1.9388 460.00 0.0021739 515.34 610.68 1.9388 2.1610 2.8339 807.80 -0.0023498 80.721 0.096400 460.00 0.0021739 515.34 610.68 1.9388 2.1610 2.8339 807.80 -0.0023498 80.721 0.096400
147.38 6419.9 undefined 517.51 613.73 1.9439 460.00 0.0021739 517.51 613.73 1.9439 2.1651 2.8356 809.40 -0.0023711 80.740 0.096526 460.00 0.0021739 517.51 613.73 1.9439 2.1651 2.8356 809.40 -0.0023711 80.740 0.096526
148.38 6479.5 undefined 519.67 616.79 1.9491 460.00 0.0021739 519.67 616.79 1.9491 2.1693 2.8374 810.99 -0.0023921 80.759 0.096653 460.00 0.0021739 519.67 616.79 1.9491 2.1693 2.8374 810.99 -0.0023921 80.759 0.096653
149.38 6539.1 undefined 521.84 619.86 1.9542 460.00 0.0021739 521.84 619.86 1.9542 2.1734 2.8392 812.57 -0.0024128 80.779 0.096780 460.00 0.0021739 521.84 619.86 1.9542 2.1734 2.8392 812.57 -0.0024128 80.779 0.096780
150.38 6598.6 undefined 524.02 622.92 1.9594 460.00 0.0021739 524.02 622.92 1.9594 2.1775 2.8410 814.14 -0.0024333 80.798 0.096907 460.00 0.0021739 524.02 622.92 1.9594 2.1775 2.8410 814.14 -0.0024333 80.798 0.096907
151.38 6658.1 undefined 526.20 626.00 1.9645 460.00 0.0021739 526.20 626.00 1.9645 2.1816 2.8429 815.72 -0.0024534 80.818 0.097035 460.00 0.0021739 526.20 626.00 1.9645 2.1816 2.8429 815.72 -0.0024534 80.818 0.097035
152.38 6717.6 undefined 528.38 629.07 1.9696 460.00 0.0021739 528.38 629.07 1.9696 2.1857 2.8447 817.28 -0.0024732 80.837 0.097163 460.00 0.0021739 528.38 629.07 1.9696 2.1857 2.8447 817.28 -0.0024732 80.837 0.097163
153.38 6777.1 undefined 530.57 632.15 1.9748 460.00 0.0021739 530.57 632.15 1.9748 2.1898 2.8466 818.84 -0.0024928 80.857 0.097291 460.00 0.0021739 530.57 632.15 1.9748 2.1898 2.8466 818.84 -0.0024928 80.857 0.097291
154.38 6836.5 undefined 532.76 635.23 1.9799 460.00 0.0021739 532.76 635.23 1.9799 2.1939 2.8485 820.40 -0.0025121 80.876 0.097420 460.00 0.0021739 532.76 635.23 1.9799 2.1939 2.8485 820.40 -0.0025121 80.876 0.097420
155.38 6895.9 undefined 534.96 638.32 1.9850 460.00 0.0021739 534.96 638.32 1.9850 2.1980 2.8504 821.95 -0.0025311 80.896 0.097548 460.00 0.0021739 534.96 638.32 1.9850 2.1980 2.8504 821.95 -0.0025311 80.896 0.097548
156.38 6955.3 undefined 537.16 641.41 1.9902 460.00 0.0021739 537.16 641.41 1.9902 2.2021 2.8524 823.49 -0.0025499 80.915 0.097678 460.00 0.0021739 537.16 641.41 1.9902 2.2021 2.8524 823.49 -0.0025499 80.915 0.097678
157.38 7014.7 undefined 539.36 644.50 1.9953 460.00 0.0021739 539.36 644.50 1.9953 2.2062 2.8543 825.03 -0.0025684 80.935 0.097807 460.00 0.0021739 539.36 644.50 1.9953 2.2062 2.8543 825.03 -0.0025684 80.935 0.097807
158.38 7074.1 undefined 541.57 647.60 2.0004 460.00 0.0021739 541.57 647.60 2.0004 2.2103 2.8563 826.57 -0.0025866 80.954 0.097937 460.00 0.0021739 541.57 647.60 2.0004 2.2103 2.8563 826.57 -0.0025866 80.954 0.097937
159.38 7133.4 undefined 543.78 650.70 2.0055 460.00 0.0021739 543.78 650.70 2.0055 2.2144 2.8583 828.09 -0.0026046 80.974 0.098067 460.00 0.0021739 543.78 650.70 2.0055 2.2144 2.8583 828.09 -0.0026046 80.974 0.098067
160.38 7192.8 undefined 546.00 653.81 2.0107 460.00 0.0021739 546.00 653.81 2.0107 2.2184 2.8603 829.62 -0.0026224 80.994 0.098197 460.00 0.0021739 546.00 653.81 2.0107 2.2184 2.8603 829.62 -0.0026224 80.994 0.098197
161.38 7252.1 undefined 548.22 656.92 2.0158 460.00 0.0021739 548.22 656.92 2.0158 2.2225 2.8623 831.14 -0.0026399 81.013 0.098328 460.00 0.0021739 548.22 656.92 2.0158 2.2225 2.8623 831.14 -0.0026399 81.013 0.098328
162.38 7311.3 undefined 550.45 660.03 2.0209 460.00 0.0021739 550.45 660.03 2.0209 2.2266 2.8643 832.65 -0.0026572 81.033 0.098459 460.00 0.0021739 550.45 660.03 2.0209 2.2266 2.8643 832.65 -0.0026572 81.033 0.098459
163.38 7370.6 undefined 552.67 663.15 2.0260 460.00 0.0021739 552.67 663.15 2.0260 2.2306 2.8664 834.16 -0.0026742 81.052 0.098590 460.00 0.0021739 552.67 663.15 2.0260 2.2306 2.8664 834.16 -0.0026742 81.052 0.098590
164.38 7429.8 undefined 554.91 666.27 2.0311 460.00 0.0021739 554.91 666.27 2.0311 2.2347 2.8684 835.66 -0.0026910 81.072 0.098721 460.00 0.0021739 554.91 666.27 2.0311 2.2347 2.8684 835.66 -0.0026910 81.072 0.098721
165.38 7489.1 undefined 557.14 669.39 2.0362 460.00 0.0021739 557.14 669.39 2.0362 2.2388 2.8705 837.16 -0.0027076 81.091 0.098853 460.00 0.0021739 557.14 669.39 2.0362 2.2388 2.8705 837.16 -0.0027076 81.091 0.098853
166.38 7548.2 undefined 559.38 672.52 2.0413 460.00 0.0021739 559.38 672.52 2.0413 2.2428 2.8726 838.66 -0.0027239 81.111 0.098985 460.00 0.0021739 559.38 672.52 2.0413 2.2428 2.8726 838.66 -0.0027239 81.111 0.098985
167.38 7607.4 undefined 561.63 675.65 2.0464 460.00 0.0021739 561.63 675.65 2.0464 2.2469 2.8747 840.15 -0.0027400 81.131 0.099117 460.00 0.0021739 561.63 675.65 2.0464 2.2469 2.8747 840.15 -0.0027400 81.131 0.099117
168.38 7666.6 undefined 563.88 678.79 2.0515 460.00 0.0021739 563.88 678.79 2.0515 2.2509 2.8768 841.63 -0.0027559 81.150 0.099250 460.00 0.0021739 563.88 678.79 2.0515 2.2509 2.8768 841.63 -0.0027559 81.150 0.099250
169.38 7725.7 undefined 566.13 681.93 2.0566 460.00 0.0021739 566.13 681.93 2.0566 2.2550 2.8790 843.11 -0.0027716 81.170 0.099383 460.00 0.0021739 566.13 681.93 2.0566 2.2550 2.8790 843.11 -0.0027716 81.170 0.099383
170.38 7784.8 undefined 568.39 685.07 2.0617 460.00 0.0021739 568.39 685.07 2.0617 2.2590 2.8811 844.59 -0.0027871 81.189 0.099516 460.00 0.0021739 568.39 685.07 2.0617 2.2590 2.8811 844.59 -0.0027871 81.189 0.099516
171.38 7843.9 undefined 570.65 688.22 2.0668 460.00 0.0021739 570.65 688.22 2.0668 2.2630 2.8833 846.06 -0.0028024 81.209 0.099650 460.00 0.0021739 570.65 688.22 2.0668 2.2630 2.8833 846.06 -0.0028024 81.209 0.099650
172.38 7902.9 undefined 572.91 691.37 2.0719 460.00 0.0021739 572.91 691.37 2.0719 2.2671 2.8854 847.53 -0.0028174 81.229 0.099783 460.00 0.0021739 572.91 691.37 2.0719 2.2671 2.8854 847.53 -0.0028174 81.229 0.099783
173.38 7962.0 undefined 575.18 694.52 2.0770 460.00 0.0021739 575.18 694.52 2.0770 2.2711 2.8876 848.99 -0.0028323 81.248 0.099918 460.00 0.0021739 575.18 694.52 2.0770 2.2711 2.8876 848.99 -0.0028323 81.248 0.099918
174.38 8021.0 undefined 577.46 697.68 2.0821 460.00 0.0021739 577.46 697.68 2.0821 2.2751 2.8898 850.45 -0.0028470 81.268 0.10005 460.00 0.0021739 577.46 697.68 2.0821 2.2751 2.8898 850.45 -0.0028470 81.268 0.10005
175.38 8080.0 undefined 579.73 700.84 2.0871 460.00 0.0021739 579.73 700.84 2.0871 2.2791 2.8920 851.90 -0.0028614 81.288 0.10019 460.00 0.0021739 579.73 700.84 2.0871 2.2791 2.8920 851.90 -0.0028614 81.288 0.10019
176.38 8139.0 undefined 582.01 704.01 2.0922 460.00 0.0021739 582.01 704.01 2.0922 2.2832 2.8942 853.35 -0.0028757 81.307 0.10032 460.00 0.0021739 582.01 704.01 2.0922 2.2832 2.8942 853.35 -0.0028757 81.307 0.10032
177.38 8197.9 undefined 584.30 707.17 2.0973 460.00 0.0021739 584.30 707.17 2.0973 2.2872 2.8965 854.80 -0.0028898 81.327 0.10046 460.00 0.0021739 584.30 707.17 2.0973 2.2872 2.8965 854.80 -0.0028898 81.327 0.10046
178.38 8256.8 undefined 586.59 710.35 2.1024 460.00 0.0021739 586.59 710.35 2.1024 2.2912 2.8987 856.24 -0.0029037 81.347 0.10060 460.00 0.0021739 586.59 710.35 2.1024 2.2912 2.8987 856.24 -0.0029037 81.347 0.10060
179.38 8315.7 undefined 588.88 713.52 2.1075 460.00 0.0021739 588.88 713.52 2.1075 2.2952 2.9010 857.67 -0.0029174 81.366 0.10074 460.00 0.0021739 588.88 713.52 2.1075 2.2952 2.9010 857.67 -0.0029174 81.366 0.10074
180.38 8374.6 undefined 591.18 716.70 2.1125 460.00 0.0021739 591.18 716.70 2.1125 2.2992 2.9032 859.10 -0.0029310 81.386 0.10087 460.00 0.0021739 591.18 716.70 2.1125 2.2992 2.9032 859.10 -0.0029310 81.386 0.10087
181.38 8433.5 undefined 593.48 719.89 2.1176 460.00 0.0021739 593.48 719.89 2.1176 2.3032 2.9055 860.53 -0.0029443 81.406 0.10101 460.00 0.0021739 593.48 719.89 2.1176 2.3032 2.9055 860.53 -0.0029443 81.406 0.10101
182.38 8492.3 undefined 595.79 723.07 2.1227 460.00 0.0021739 595.79 723.07 2.1227 2.3072 2.9078 861.95 -0.0029575 81.426 0.10115 460.00 0.0021739 595.79 723.07 2.1227 2.3072 2.9078 861.95 -0.0029575 81.426 0.10115
183.38 8551.1 undefined 598.09 726.26 2.1277 460.00 0.0021739 598.09 726.26 2.1277 2.3112 2.9101 863.37 -0.0029705 81.445 0.10129 460.00 0.0021739 598.09 726.26 2.1277 2.3112 2.9101 863.37 -0.0029705 81.445 0.10129
184.38 8609.9 undefined 600.41 729.46 2.1328 460.00 0.0021739 600.41 729.46 2.1328 2.3151 2.9124 864.79 -0.0029833 81.465 0.10143 460.00 0.0021739 600.41 729.46 2.1328 2.3151 2.9124 864.79 -0.0029833 81.465 0.10143
185.38 8668.6 undefined 602.72 732.66 2.1378 460.00 0.0021739 602.72 732.66 2.1378 2.3191 2.9147 866.20 -0.0029960 81.485 0.10157 460.00 0.0021739 602.72 732.66 2.1378 2.3191 2.9147 866.20 -0.0029960 81.485 0.10157
186.38 8727.4 undefined 605.05 735.86 2.1429 460.00 0.0021739 605.05 735.86 2.1429 2.3231 2.9170 867.61 -0.0030085 81.504 0.10171 460.00 0.0021739 605.05 735.86 2.1429 2.3231 2.9170 867.61 -0.0030085 81.504 0.10171
187.38 8786.1 undefined 607.37 739.06 2.1480 460.00 0.0021739 607.37 739.06 2.1480 2.3271 2.9193 869.01 -0.0030208 81.524 0.10185 460.00 0.0021739 607.37 739.06 2.1480 2.3271 2.9193 869.01 -0.0030208 81.524 0.10185
188.38 8844.8 undefined 609.70 742.27 2.1530 460.00 0.0021739 609.70 742.27 2.1530 2.3310 2.9217 870.41 -0.0030330 81.544 0.10199 460.00 0.0021739 609.70 742.27 2.1530 2.3310 2.9217 870.41 -0.0030330 81.544 0.10199
189.38 8903.4 undefined 612.03 745.48 2.1581 460.00 0.0021739 612.03 745.48 2.1581 2.3350 2.9240 871.81 -0.0030450 81.564 0.10213 460.00 0.0021739 612.03 745.48 2.1581 2.3350 2.9240 871.81 -0.0030450 81.564 0.10213
190.38 8962.1 undefined 614.37 748.70 2.1631 460.00 0.0021739 614.37 748.70 2.1631 2.3389 2.9264 873.20 -0.0030569 81.583 0.10228 460.00 0.0021739 614.37 748.70 2.1631 2.3389 2.9264 873.20 -0.0030569 81.583 0.10228
191.38 9020.7 undefined 616.71 751.92 2.1681 460.00 0.0021739 616.71 751.92 2.1681 2.3429 2.9287 874.58 -0.0030686 81.603 0.10242 460.00 0.0021739 616.71 751.92 2.1681 2.3429 2.9287 874.58 -0.0030686 81.603 0.10242
192.38 9079.3 undefined 619.06 755.14 2.1732 460.00 0.0021739 619.06 755.14 2.1732 2.3468 2.9311 875.97 -0.0030801 81.623 0.10256 460.00 0.0021739 619.06 755.14 2.1732 2.3468 2.9311 875.97 -0.0030801 81.623 0.10256
193.38 9137.9 undefined 621.40 758.37 2.1782 460.00 0.0021739 621.40 758.37 2.1782 2.3508 2.9335 877.35 -0.0030915 81.643 0.10270 460.00 0.0021739 621.40 758.37 2.1782 2.3508 2.9335 877.35 -0.0030915 81.643 0.10270
194.38 9196.4 undefined 623.76 761.60 2.1833 460.00 0.0021739 623.76 761.60 2.1833 2.3547 2.9359 878.72 -0.0031028 81.662 0.10284 460.00 0.0021739 623.76 761.60 2.1833 2.3547 2.9359 878.72 -0.0031028 81.662 0.10284
195.38 9255.0 undefined 626.11 764.83 2.1883 460.00 0.0021739 626.11 764.83 2.1883 2.3587 2.9383 880.10 -0.0031139 81.682 0.10299 460.00 0.0021739 626.11 764.83 2.1883 2.3587 2.9383 880.10 -0.0031139 81.682 0.10299
196.38 9313.5 undefined 628.47 768.07 2.1933 460.00 0.0021739 628.47 768.07 2.1933 2.3626 2.9407 881.47 -0.0031249 81.702 0.10313 460.00 0.0021739 628.47 768.07 2.1933 2.3626 2.9407 881.47 -0.0031249 81.702 0.10313
197.38 9371.9 undefined 630.84 771.31 2.1984 460.00 0.0021739 630.84 771.31 2.1984 2.3665 2.9431 882.83 -0.0031357 81.722 0.10327 460.00 0.0021739 630.84 771.31 2.1984 2.3665 2.9431 882.83 -0.0031357 81.722 0.10327
198.38 9430.4 undefined 633.21 774.56 2.2034 460.00 0.0021739 633.21 774.56 2.2034 2.3704 2.9455 884.19 -0.0031464 81.741 0.10342 460.00 0.0021739 633.21 774.56 2.2034 2.3704 2.9455 884.19 -0.0031464 81.741 0.10342
199.38 9488.8 undefined 635.58 777.80 2.2084 460.00 0.0021739 635.58 777.80 2.2084 2.3744 2.9479 885.55 -0.0031569 81.761 0.10356 460.00 0.0021739 635.58 777.80 2.2084 2.3744 2.9479 885.55 -0.0031569 81.761 0.10356
200.38 9547.2 undefined 637.96 781.06 2.2134 460.00 0.0021739 637.96 781.06 2.2134 2.3783 2.9504 886.90 -0.0031673 81.781 0.10371 460.00 0.0021739 637.96 781.06 2.2134 2.3783 2.9504 886.90 -0.0031673 81.781 0.10371
201.38 9605.6 undefined 640.34 784.31 2.2185 460.00 0.0021739 640.34 784.31 2.2185 2.3822 2.9528 888.25 -0.0031776 81.801 0.10385 460.00 0.0021739 640.34 784.31 2.2185 2.3822 2.9528 888.25 -0.0031776 81.801 0.10385
202.38 9664.0 undefined 642.72 787.57 2.2235 460.00 0.0021739 642.72 787.57 2.2235 2.3861 2.9552 889.60 -0.0031877 81.820 0.10400 460.00 0.0021739 642.72 787.57 2.2235 2.3861 2.9552 889.60 -0.0031877 81.820 0.10400
203.38 9722.3 undefined 645.11 790.83 2.2285 460.00 0.0021739 645.11 790.83 2.2285 2.3900 2.9577 890.94 -0.0031977 81.840 0.10414 460.00 0.0021739 645.11 790.83 2.2285 2.3900 2.9577 890.94 -0.0031977 81.840 0.10414
204.38 9780.6 undefined 647.50 794.10 2.2335 460.00 0.0021739 647.50 794.10 2.2335 2.3939 2.9602 892.28 -0.0032076 81.860 0.10429 460.00 0.0021739 647.50 794.10 2.2335 2.3939 2.9602 892.28 -0.0032076 81.860 0.10429
205.38 9838.9 undefined 649.90 797.37 2.2385 460.00 0.0021739 649.90 797.37 2.2385 2.3978 2.9626 893.62 -0.0032174 81.880 0.10443 460.00 0.0021739 649.90 797.37 2.2385 2.3978 2.9626 893.62 -0.0032174 81.880 0.10443
206.38 9897.2 undefined 652.30 800.64 2.2435 460.00 0.0021739 652.30 800.64 2.2435 2.4017 2.9651 894.95 -0.0032270 81.899 0.10458 460.00 0.0021739 652.30 800.64 2.2435 2.4017 2.9651 894.95 -0.0032270 81.899 0.10458
207.38 9955.4 undefined 654.70 803.92 2.2485 460.00 0.0021739 654.70 803.92 2.2485 2.4055 2.9676 896.28 -0.0032365 81.919 0.10472 460.00 0.0021739 654.70 803.92 2.2485 2.4055 2.9676 896.28 -0.0032365 81.919 0.10472
208.38 10014. undefined 657.11 807.20 2.2536 460.00 0.0021739 657.11 807.20 2.2536 2.4094 2.9700 897.61 -0.0032459 81.939 0.10487 460.00 0.0021739 657.11 807.20 2.2536 2.4094 2.9700 897.61 -0.0032459 81.939 0.10487
209.38 10072. undefined 659.52 810.48 2.2586 460.00 0.0021739 659.52 810.48 2.2586 2.4133 2.9725 898.93 -0.0032552 81.959 0.10502 460.00 0.0021739 659.52 810.48 2.2586 2.4133 2.9725 898.93 -0.0032552 81.959 0.10502
210.38 10130. undefined 661.93 813.77 2.2636 460.00 0.0021739 661.93 813.77 2.2636 2.4171 2.9750 900.25 -0.0032643 81.979 0.10517 460.00 0.0021739 661.93 813.77 2.2636 2.4171 2.9750 900.25 -0.0032643 81.979 0.10517
211.38 10188. undefined 664.35 817.06 2.2686 460.00 0.0021739 664.35 817.06 2.2686 2.4210 2.9775 901.57 -0.0032733 81.998 0.10531 460.00 0.0021739 664.35 817.06 2.2686 2.4210 2.9775 901.57 -0.0032733 81.998 0.10531
212.38 10246. undefined 666.78 820.35 2.2735 460.00 0.0021739 666.78 820.35 2.2735 2.4249 2.9800 902.88 -0.0032823 82.018 0.10546 460.00 0.0021739 666.78 820.35 2.2735 2.4249 2.9800 902.88 -0.0032823 82.018 0.10546
213.38 10304. undefined 669.20 823.65 2.2785 460.00 0.0021739 669.20 823.65 2.2785 2.4287 2.9825 904.19 -0.0032911 82.038 0.10561 460.00 0.0021739 669.20 823.65 2.2785 2.4287 2.9825 904.19 -0.0032911 82.038 0.10561
214.38 10362. undefined 671.63 826.95 2.2835 460.00 0.0021739 671.63 826.95 2.2835 2.4326 2.9850 905.50 -0.0032998 82.058 0.10576 460.00 0.0021739 671.63 826.95 2.2835 2.4326 2.9850 905.50 -0.0032998 82.058 0.10576
215.38 10420. undefined 674.07 830.26 2.2885 460.00 0.0021739 674.07 830.26 2.2885 2.4364 2.9876 906.80 -0.0033083 82.077 0.10591 460.00 0.0021739 674.07 830.26 2.2885 2.4364 2.9876 906.80 -0.0033083 82.077 0.10591
216.38 10478. undefined 676.51 833.56 2.2935 460.00 0.0021739 676.51 833.56 2.2935 2.4403 2.9901 908.10 -0.0033168 82.097 0.10606 460.00 0.0021739 676.51 833.56 2.2935 2.4403 2.9901 908.10 -0.0033168 82.097 0.10606
217.38 10536. undefined 678.95 836.87 2.2985 460.00 0.0021739 678.95 836.87 2.2985 2.4441 2.9926 909.40 -0.0033252 82.117 0.10620 460.00 0.0021739 678.95 836.87 2.2985 2.4441 2.9926 909.40 -0.0033252 82.117 0.10620
218.38 10594. undefined 681.39 840.19 2.3035 460.00 0.0021739 681.39 840.19 2.3035 2.4479 2.9951 910.69 -0.0033334 82.137 0.10635 460.00 0.0021739 681.39 840.19 2.3035 2.4479 2.9951 910.69 -0.0033334 82.137 0.10635
219.38 10652. undefined 683.84 843.51 2.3085 460.00 0.0021739 683.84 843.51 2.3085 2.4517 2.9977 911.98 -0.0033416 82.157 0.10650 460.00 0.0021739 683.84 843.51 2.3085 2.4517 2.9977 911.98 -0.0033416 82.157 0.10650
220.38 10710. undefined 686.30 846.83 2.3134 460.00 0.0021739 686.30 846.83 2.3134 2.4556 3.0002 913.27 -0.0033496 82.176 0.10665 460.00 0.0021739 686.30 846.83 2.3134 2.4556 3.0002 913.27 -0.0033496 82.176 0.10665
221.38 10768. undefined 688.76 850.16 2.3184 460.00 0.0021739 688.76 850.16 2.3184 2.4594 3.0028 914.55 -0.0033575 82.196 0.10680 460.00 0.0021739 688.76 850.16 2.3184 2.4594 3.0028 914.55 -0.0033575 82.196 0.10680
222.38 10826. undefined 691.22 853.48 2.3234 460.00 0.0021739 691.22 853.48 2.3234 2.4632 3.0053 915.83 -0.0033654 82.216 0.10696 460.00 0.0021739 691.22 853.48 2.3234 2.4632 3.0053 915.83 -0.0033654 82.216 0.10696
223.38 10884. undefined 693.68 856.82 2.3283 460.00 0.0021739 693.68 856.82 2.3283 2.4670 3.0079 917.11 -0.0033731 82.236 0.10711 460.00 0.0021739 693.68 856.82 2.3283 2.4670 3.0079 917.11 -0.0033731 82.236 0.10711
224.38 10942. undefined 696.15 860.15 2.3333 460.00 0.0021739 696.15 860.15 2.3333 2.4708 3.0104 918.38 -0.0033808 82.255 0.10726 460.00 0.0021739 696.15 860.15 2.3333 2.4708 3.0104 918.38 -0.0033808 82.255 0.10726
225.38 11000. undefined 698.62 863.49 2.3383 460.00 0.0021739 698.62 863.49 2.3383 2.4746 3.0130 919.66 -0.0033883 82.275 0.10741 460.00 0.0021739 698.62 863.49 2.3383 2.4746 3.0130 919.66 -0.0033883 82.275 0.10741
226.38 11057. undefined 701.10 866.83 2.3432 460.00 0.0021739 701.10 866.83 2.3432 2.4784 3.0155 920.92 -0.0033958 82.295 0.10756 460.00 0.0021739 701.10 866.83 2.3432 2.4784 3.0155 920.92 -0.0033958 82.295 0.10756
227.38 11115. undefined 703.58 870.18 2.3482 460.00 0.0021739 703.58 870.18 2.3482 2.4822 3.0181 922.19 -0.0034031 82.315 0.10771 460.00 0.0021739 703.58 870.18 2.3482 2.4822 3.0181 922.19 -0.0034031 82.315 0.10771
228.38 11173. undefined 706.06 873.53 2.3532 460.00 0.0021739 706.06 873.53 2.3532 2.4860 3.0207 923.45 -0.0034104 82.335 0.10787 460.00 0.0021739 706.06 873.53 2.3532 2.4860 3.0207 923.45 -0.0034104 82.335 0.10787
229.38 11230. undefined 708.55 876.88 2.3581 460.00 0.0021739 708.55 876.88 2.3581 2.4897 3.0233 924.71 -0.0034176 82.354 0.10802 460.00 0.0021739 708.55 876.88 2.3581 2.4897 3.0233 924.71 -0.0034176 82.354 0.10802
230.38 11288. undefined 711.04 880.24 2.3631 460.00 0.0021739 711.04 880.24 2.3631 2.4935 3.0258 925.97 -0.0034246 82.374 0.10817 460.00 0.0021739 711.04 880.24 2.3631 2.4935 3.0258 925.97 -0.0034246 82.374 0.10817
231.38 11346. undefined 713.54 883.60 2.3680 460.00 0.0021739 713.54 883.60 2.3680 2.4973 3.0284 927.22 -0.0034316 82.394 0.10833 460.00 0.0021739 713.54 883.60 2.3680 2.4973 3.0284 927.22 -0.0034316 82.394 0.10833
232.38 11403. undefined 716.04 886.96 2.3730 460.00 0.0021739 716.04 886.96 2.3730 2.5010 3.0310 928.48 -0.0034385 82.414 0.10848 460.00 0.0021739 716.04 886.96 2.3730 2.5010 3.0310 928.48 -0.0034385 82.414 0.10848
233.38 11461. undefined 718.54 890.33 2.3779 460.00 0.0021739 718.54 890.33 2.3779 2.5048 3.0336 929.72 -0.0034453 82.433 0.10863 460.00 0.0021739 718.54 890.33 2.3779 2.5048 3.0336 929.72 -0.0034453 82.433 0.10863
234.38 11519. undefined 721.05 893.70 2.3829 460.00 0.0021739 721.05 893.70 2.3829 2.5085 3.0362 930.97 -0.0034521 82.453 0.10879 460.00 0.0021739 721.05 893.70 2.3829 2.5085 3.0362 930.97 -0.0034521 82.453 0.10879
235.38 11576. undefined 723.56 897.07 2.3878 460.00 0.0021739 723.56 897.07 2.3878 2.5123 3.0388 932.21 -0.0034587 82.473 0.10894 460.00 0.0021739 723.56 897.07 2.3878 2.5123 3.0388 932.21 -0.0034587 82.473 0.10894
236.38 11634. undefined 726.07 900.44 2.3927 460.00 0.0021739 726.07 900.44 2.3927 2.5160 3.0414 933.45 -0.0034653 82.493 0.10910 460.00 0.0021739 726.07 900.44 2.3927 2.5160 3.0414 933.45 -0.0034653 82.493 0.10910
237.38 11691. undefined 728.59 903.82 2.3977 460.00 0.0021739 728.59 903.82 2.3977 2.5198 3.0440 934.69 -0.0034717 82.513 0.10925 460.00 0.0021739 728.59 903.82 2.3977 2.5198 3.0440 934.69 -0.0034717 82.513 0.10925
238.38 11749. undefined 731.11 907.21 2.4026 460.00 0.0021739 731.11 907.21 2.4026 2.5235 3.0466 935.92 -0.0034781 82.532 0.10941 460.00 0.0021739 731.11 907.21 2.4026 2.5235 3.0466 935.92 -0.0034781 82.532 0.10941
239.38 11806. undefined 733.64 910.59 2.4075 460.00 0.0021739 733.64 910.59 2.4075 2.5272 3.0492 937.15 -0.0034845 82.552 0.10956 460.00 0.0021739 733.64 910.59 2.4075 2.5272 3.0492 937.15 -0.0034845 82.552 0.10956
240.38 11864. undefined 736.17 913.98 2.4125 460.00 0.0021739 736.17 913.98 2.4125 2.5310 3.0518 938.38 -0.0034907 82.572 0.10972 460.00 0.0021739 736.17 913.98 2.4125 2.5310 3.0518 938.38 -0.0034907 82.572 0.10972
241.38 11921. undefined 738.70 917.38 2.4174 460.00 0.0021739 738.70 917.38 2.4174 2.5347 3.0544 939.61 -0.0034968 82.592 0.10988 460.00 0.0021739 738.70 917.38 2.4174 2.5347 3.0544 939.61 -0.0034968 82.592 0.10988
242.38 11978. undefined 741.24 920.77 2.4223 460.00 0.0021739 741.24 920.77 2.4223 2.5384 3.0570 940.83 -0.0035029 82.611 0.11003 460.00 0.0021739 741.24 920.77 2.4223 2.5384 3.0570 940.83 -0.0035029 82.611 0.11003
243.38 12036. undefined 743.78 924.17 2.4272 460.00 0.0021739 743.78 924.17 2.4272 2.5421 3.0596 942.05 -0.0035089 82.631 0.11019 460.00 0.0021739 743.78 924.17 2.4272 2.5421 3.0596 942.05 -0.0035089 82.631 0.11019
244.38 12093. undefined 746.32 927.58 2.4322 460.00 0.0021739 746.32 927.58 2.4322 2.5458 3.0622 943.27 -0.0035148 82.651 0.11035 460.00 0.0021739 746.32 927.58 2.4322 2.5458 3.0622 943.27 -0.0035148 82.651 0.11035
245.38 12150. undefined 748.87 930.98 2.4371 460.00 0.0021739 748.87 930.98 2.4371 2.5495 3.0648 944.49 -0.0035207 82.671 0.11050 460.00 0.0021739 748.87 930.98 2.4371 2.5495 3.0648 944.49 -0.0035207 82.671 0.11050
246.38 12208. undefined 751.42 934.39 2.4420 460.00 0.0021739 751.42 934.39 2.4420 2.5532 3.0674 945.70 -0.0035264 82.690 0.11066 460.00 0.0021739 751.42 934.39 2.4420 2.5532 3.0674 945.70 -0.0035264 82.690 0.11066
247.38 12265. undefined 753.97 937.81 2.4469 460.00 0.0021739 753.97 937.81 2.4469 2.5569 3.0701 946.91 -0.0035321 82.710 0.11082 460.00 0.0021739 753.97 937.81 2.4469 2.5569 3.0701 946.91 -0.0035321 82.710 0.11082
248.38 12322. undefined 756.53 941.22 2.4518 460.00 0.0021739 756.53 941.22 2.4518 2.5606 3.0727 948.12 -0.0035378 82.730 0.11098 460.00 0.0021739 756.53 941.22 2.4518 2.5606 3.0727 948.12 -0.0035378 82.730 0.11098
249.38 12379. undefined 759.10 944.64 2.4567 460.00 0.0021739 759.10 944.64 2.4567 2.5643 3.0753 949.32 -0.0035433 82.749 0.11114 460.00 0.0021739 759.10 944.64 2.4567 2.5643 3.0753 949.32 -0.0035433 82.749 0.11114
250.38 12436. undefined 761.66 948.07 2.4616 460.00 0.0021739 761.66 948.07 2.4616 2.5680 3.0779 950.52 -0.0035488 82.769 0.11130 460.00 0.0021739 761.66 948.07 2.4616 2.5680 3.0779 950.52 -0.0035488 82.769 0.11130
251.38 12494. undefined 764.23 951.49 2.4665 460.00 0.0021739 764.23 951.49 2.4665 2.5716 3.0806 951.72 -0.0035542 82.789 0.11145 460.00 0.0021739 764.23 951.49 2.4665 2.5716 3.0806 951.72 -0.0035542 82.789 0.11145
252.38 12551. undefined 766.80 954.92 2.4714 460.00 0.0021739 766.80 954.92 2.4714 2.5753 3.0832 952.92 -0.0035596 82.809 0.11161 460.00 0.0021739 766.80 954.92 2.4714 2.5753 3.0832 952.92 -0.0035596 82.809 0.11161
253.38 12608. undefined 769.38 958.36 2.4763 460.00 0.0021739 769.38 958.36 2.4763 2.5790 3.0858 954.11 -0.0035648 82.828 0.11177 460.00 0.0021739 769.38 958.36 2.4763 2.5790 3.0858 954.11 -0.0035648 82.828 0.11177
254.38 12665. undefined 771.96 961.79 2.4812 460.00 0.0021739 771.96 961.79 2.4812 2.5826 3.0885 955.31 -0.0035700 82.848 0.11193 460.00 0.0021739 771.96 961.79 2.4812 2.5826 3.0885 955.31 -0.0035700 82.848 0.11193
255.38 12722. undefined 774.55 965.23 2.4861 460.00 0.0021739 774.55 965.23 2.4861 2.5863 3.0911 956.50 -0.0035752 82.868 0.11209 460.00 0.0021739 774.55 965.23 2.4861 2.5863 3.0911 956.50 -0.0035752 82.868 0.11209
256.38 12779. undefined 777.14 968.68 2.4910 460.00 0.0021739 777.14 968.68 2.4910 2.5899 3.0937 957.68 -0.0035803 82.887 0.11226 460.00 0.0021739 777.14 968.68 2.4910 2.5899 3.0937 957.68 -0.0035803 82.887 0.11226
257.38 12836. undefined 779.73 972.12 2.4959 460.00 0.0021739 779.73 972.12 2.4959 2.5936 3.0964 958.87 -0.0035853 82.907 0.11242 460.00 0.0021739 779.73 972.12 2.4959 2.5936 3.0964 958.87 -0.0035853 82.907 0.11242
258.38 12893. undefined 782.32 975.57 2.5008 460.00 0.0021739 782.32 975.57 2.5008 2.5972 3.0990 960.05 -0.0035902 82.927 0.11258 460.00 0.0021739 782.32 975.57 2.5008 2.5972 3.0990 960.05 -0.0035902 82.927 0.11258
259.38 12950. undefined 784.92 979.02 2.5057 460.00 0.0021739 784.92 979.02 2.5057 2.6008 3.1016 961.23 -0.0035951 82.946 0.11274 460.00 0.0021739 784.92 979.02 2.5057 2.6008 3.1016 961.23 -0.0035951 82.946 0.11274
260.38 13007. undefined 787.52 982.48 2.5106 460.00 0.0021739 787.52 982.48 2.5106 2.6045 3.1043 962.41 -0.0035999 82.966 0.11290 460.00 0.0021739 787.52 982.48 2.5106 2.6045 3.1043 962.41 -0.0035999 82.966 0.11290
261.38 13064. undefined 790.13 985.94 2.5155 460.00 0.0021739 790.13 985.94 2.5155 2.6081 3.1069 963.58 -0.0036047 82.986 0.11306 460.00 0.0021739 790.13 985.94 2.5155 2.6081 3.1069 963.58 -0.0036047 82.986 0.11306
262.38 13121. undefined 792.74 989.40 2.5203 460.00 0.0021739 792.74 989.40 2.5203 2.6117 3.1096 964.75 -0.0036094 83.006 0.11323 460.00 0.0021739 792.74 989.40 2.5203 2.6117 3.1096 964.75 -0.0036094 83.006 0.11323
263.38 13178. undefined 795.35 992.87 2.5252 460.00 0.0021739 795.35 992.87 2.5252 2.6153 3.1122 965.92 -0.0036140 83.025 0.11339 460.00 0.0021739 795.35 992.87 2.5252 2.6153 3.1122 965.92 -0.0036140 83.025 0.11339
264.38 13234. undefined 797.97 996.34 2.5301 460.00 0.0021739 797.97 996.34 2.5301 2.6190 3.1149 967.09 -0.0036186 83.045 0.11355 460.00 0.0021739 797.97 996.34 2.5301 2.6190 3.1149 967.09 -0.0036186 83.045 0.11355
265.38 13291. undefined 800.59 999.81 2.5350 460.00 0.0021739 800.59 999.81 2.5350 2.6226 3.1175 968.25 -0.0036231 83.065 0.11372 460.00 0.0021739 800.59 999.81 2.5350 2.6226 3.1175 968.25 -0.0036231 83.065 0.11372
266.38 13348. undefined 803.22 1003.3 2.5398 460.00 0.0021739 803.22 1003.3 2.5398 2.6262 3.1202 969.42 -0.0036276 83.084 0.11388 460.00 0.0021739 803.22 1003.3 2.5398 2.6262 3.1202 969.42 -0.0036276 83.084 0.11388
267.38 13405. undefined 805.84 1006.8 2.5447 460.00 0.0021739 805.84 1006.8 2.5447 2.6298 3.1228 970.58 -0.0036320 83.104 0.11404 460.00 0.0021739 805.84 1006.8 2.5447 2.6298 3.1228 970.58 -0.0036320 83.104 0.11404
268.38 13462. undefined 808.48 1010.2 2.5496 460.00 0.0021739 808.48 1010.2 2.5496 2.6333 3.1254 971.74 -0.0036363 83.123 0.11421 460.00 0.0021739 808.48 1010.2 2.5496 2.6333 3.1254 971.74 -0.0036363 83.123 0.11421
269.38 13518. undefined 811.11 1013.7 2.5544 460.00 0.0021739 811.11 1013.7 2.5544 2.6369 3.1281 972.89 -0.0036406 83.143 0.11437 460.00 0.0021739 811.11 1013.7 2.5544 2.6369 3.1281 972.89 -0.0036406 83.143 0.11437
270.38 13575. undefined 813.75 1017.2 2.5593 460.00 0.0021739 813.75 1017.2 2.5593 2.6405 3.1307 974.04 -0.0036448 83.163 0.11454 460.00 0.0021739 813.75 1017.2 2.5593 2.6405 3.1307 974.04 -0.0036448 83.163 0.11454
271.38 13632. undefined 816.39 1020.7 2.5641 460.00 0.0021739 816.39 1020.7 2.5641 2.6441 3.1334 975.20 -0.0036490 83.182 0.11470 460.00 0.0021739 816.39 1020.7 2.5641 2.6441 3.1334 975.20 -0.0036490 83.182 0.11470
272.38 13688. undefined 819.04 1024.2 2.5690 460.00 0.0021739 819.04 1024.2 2.5690 2.6477 3.1360 976.34 -0.0036531 83.202 0.11487 460.00 0.0021739 819.04 1024.2 2.5690 2.6477 3.1360 976.34 -0.0036531 83.202 0.11487
273.38 13745. undefined 821.69 1027.7 2.5738 460.00 0.0021739 821.69 1027.7 2.5738 2.6512 3.1387 977.49 -0.0036572 83.222 0.11503 460.00 0.0021739 821.69 1027.7 2.5738 2.6512 3.1387 977.49 -0.0036572 83.222 0.11503
274.38 13801. undefined 824.34 1031.2 2.5787 460.00 0.0021739 824.34 1031.2 2.5787 2.6548 3.1413 978.64 -0.0036612 83.241 0.11520 460.00 0.0021739 824.34 1031.2 2.5787 2.6548 3.1413 978.64 -0.0036612 83.241 0.11520
275.38 13858. undefined 827.00 1034.7 2.5835 460.00 0.0021739 827.00 1034.7 2.5835 2.6584 3.1440 979.78 -0.0036652 83.261 0.11536 460.00 0.0021739 827.00 1034.7 2.5835 2.6584 3.1440 979.78 -0.0036652 83.261 0.11536
276.38 13915. undefined 829.66 1038.2 2.5884 460.00 0.0021739 829.66 1038.2 2.5884 2.6619 3.1467 980.92 -0.0036691 83.280 0.11553 460.00 0.0021739 829.66 1038.2 2.5884 2.6619 3.1467 980.92 -0.0036691 83.280 0.11553
277.38 13971. undefined 832.32 1041.7 2.5932 460.00 0.0021739 832.32 1041.7 2.5932 2.6655 3.1493 982.05 -0.0036730 83.300 0.11570 460.00 0.0021739 832.32 1041.7 2.5932 2.6655 3.1493 982.05 -0.0036730 83.300 0.11570
278.38 14028. undefined 834.99 1045.2 2.5981 460.00 0.0021739 834.99 1045.2 2.5981 2.6690 3.1520 983.19 -0.0036768 83.320 0.11587 460.00 0.0021739 834.99 1045.2 2.5981 2.6690 3.1520 983.19 -0.0036768 83.320 0.11587
279.38 14084. undefined 837.66 1048.8 2.6029 460.00 0.0021739 837.66 1048.8 2.6029 2.6725 3.1546 984.32 -0.0036805 83.339 0.11603 460.00 0.0021739 837.66 1048.8 2.6029 2.6725 3.1546 984.32 -0.0036805 83.339 0.11603
280.38 14141. undefined 840.33 1052.3 2.6077 460.00 0.0021739 840.33 1052.3 2.6077 2.6761 3.1573 985.45 -0.0036843 83.359 0.11620 460.00 0.0021739 840.33 1052.3 2.6077 2.6761 3.1573 985.45 -0.0036843 83.359 0.11620
281.38 14197. undefined 843.01 1055.8 2.6126 460.00 0.0021739 843.01 1055.8 2.6126 2.6796 3.1599 986.58 -0.0036879 83.378 0.11637 460.00 0.0021739 843.01 1055.8 2.6126 2.6796 3.1599 986.58 -0.0036879 83.378 0.11637
282.38 14253. undefined 845.69 1059.3 2.6174 460.00 0.0021739 845.69 1059.3 2.6174 2.6831 3.1626 987.71 -0.0036915 83.398 0.11617 460.00 0.0021739 845.69 1059.3 2.6174 2.6831 3.1626 987.71 -0.0036915 83.398 0.11617
283.38 14310. undefined 848.38 1062.9 2.6222 460.00 0.0021739 848.38 1062.9 2.6222 2.6866 3.1652 988.83 -0.0036951 83.417 0.11634 460.00 0.0021739 848.38 1062.9 2.6222 2.6866 3.1652 988.83 -0.0036951 83.417 0.11634
284.38 14366. undefined 851.07 1066.4 2.6271 460.00 0.0021739 851.07 1066.4 2.6271 2.6902 3.1679 989.96 -0.0036986 83.437 0.11650 460.00 0.0021739 851.07 1066.4 2.6271 2.6902 3.1679 989.96 -0.0036986 83.437 0.11650
285.38 14422. undefined 853.76 1069.9 2.6319 460.00 0.0021739 853.76 1069.9 2.6319 2.6937 3.1705 991.08 -0.0037021 83.456 0.11667 460.00 0.0021739 853.76 1069.9 2.6319 2.6937 3.1705 991.08 -0.0037021 83.456 0.11667
286.38 14479. undefined 856.45 1073.5 2.6367 460.00 0.0021739 856.45 1073.5 2.6367 2.6972 3.1732 992.19 -0.0037055 83.476 0.11684 460.00 0.0021739 856.45 1073.5 2.6367 2.6972 3.1732 992.19 -0.0037055 83.476 0.11684
287.38 14535. undefined 859.15 1077.0 2.6415 460.00 0.0021739 859.15 1077.0 2.6415 2.7007 3.1758 993.31 -0.0037089 83.496 0.11701 460.00 0.0021739 859.15 1077.0 2.6415 2.7007 3.1758 993.31 -0.0037089 83.496 0.11701
288.38 14591. undefined 861.85 1080.6 2.6463 460.00 0.0021739 861.85 1080.6 2.6463 2.7042 3.1785 994.42 -0.0037122 83.515 0.11718 460.00 0.0021739 861.85 1080.6 2.6463 2.7042 3.1785 994.42 -0.0037122 83.515 0.11718
289.38 14647. undefined 864.56 1084.1 2.6512 460.00 0.0021739 864.56 1084.1 2.6512 2.7077 3.1811 995.53 -0.0037155 83.535 0.11735 460.00 0.0021739 864.56 1084.1 2.6512 2.7077 3.1811 995.53 -0.0037155 83.535 0.11735
290.38 14704. undefined 867.27 1087.7 2.6560 460.00 0.0021739 867.27 1087.7 2.6560 2.7111 3.1838 996.64 -0.0037188 83.554 0.11752 460.00 0.0021739 867.27 1087.7 2.6560 2.7111 3.1838 996.64 -0.0037188 83.554 0.11752
291.38 14760. undefined 869.98 1091.2 2.6608 460.00 0.0021739 869.98 1091.2 2.6608 2.7146 3.1865 997.75 -0.0037220 83.574 0.11769 460.00 0.0021739 869.98 1091.2 2.6608 2.7146 3.1865 997.75 -0.0037220 83.574 0.11769
292.38 14816. undefined 872.70 1094.8 2.6656 460.00 0.0021739 872.70 1094.8 2.6656 2.7181 3.1891 998.86 -0.0037251 83.593 0.11786 460.00 0.0021739 872.70 1094.8 2.6656 2.7181 3.1891 998.86 -0.0037251 83.593 0.11786
293.38 14872. undefined 875.42 1098.3 2.6704 460.00 0.0021739 875.42 1098.3 2.6704 2.7216 3.1918 999.96 -0.0037283 83.613 0.11803 460.00 0.0021739 875.42 1098.3 2.6704 2.7216 3.1918 999.96 -0.0037283 83.613 0.11803
294.38 14928. undefined 878.14 1101.9 2.6752 460.00 0.0021739 878.14 1101.9 2.6752 2.7250 3.1944 1001.1 -0.0037313 83.632 0.11820 460.00 0.0021739 878.14 1101.9 2.6752 2.7250 3.1944 1001.1 -0.0037313 83.632 0.11820
295.38 14984. undefined 880.87 1105.5 2.6800 460.00 0.0021739 880.87 1105.5 2.6800 2.7285 3.1971 1002.2 -0.0037344 83.652 0.11837 460.00 0.0021739 880.87 1105.5 2.6800 2.7285 3.1971 1002.2 -0.0037344 83.652 0.11837
296.38 15040. undefined 883.60 1109.0 2.6848 460.00 0.0021739 883.60 1109.0 2.6848 2.7320 3.1997 1003.3 -0.0037374 83.671 0.11854 460.00 0.0021739 883.60 1109.0 2.6848 2.7320 3.1997 1003.3 -0.0037374 83.671 0.11854
297.38 15096. undefined 886.33 1112.6 2.6896 460.00 0.0021739 886.33 1112.6 2.6896 2.7354 3.2024 1004.4 -0.0037403 83.690 0.11871 460.00 0.0021739 886.33 1112.6 2.6896 2.7354 3.2024 1004.4 -0.0037403 83.690 0.11871
298.38 15152. undefined 889.07 1116.2 2.6944 460.00 0.0021739 889.07 1116.2 2.6944 2.7389 3.2050 1005.4 -0.0037432 83.710 0.11889 460.00 0.0021739 889.07 1116.2 2.6944 2.7389 3.2050 1005.4 -0.0037432 83.710 0.11889
299.38 15208. undefined 891.81 1119.8 2.6992 460.00 0.0021739 891.81 1119.8 2.6992 2.7423 3.2077 1006.5 -0.0037461 83.729 0.11906 460.00 0.0021739 891.81 1119.8 2.6992 2.7423 3.2077 1006.5 -0.0037461 83.729 0.11906
300.38 15264. undefined 894.55 1123.3 2.7040 460.00 0.0021739 894.55 1123.3 2.7040 2.7458 3.2103 1007.6 -0.0037489 83.749 0.11923 460.00 0.0021739 894.55 1123.3 2.7040 2.7458 3.2103 1007.6 -0.0037489 83.749 0.11923