Temperature (C) Pressure (psia) Quality (l+v) Internal Energy (l+v, kJ/kg) Enthalpy (l+v, kJ/kg) Entropy (l+v, J/g*K) Density (l, kg/m3) Volume (l, m3/kg) Internal Energy (l, kJ/kg) Enthalpy (l, kJ/kg) Entropy (l, J/g*K) Cv (l, J/g*K) Cp (l, J/g*K) Sound Spd. (l, m/s) Joule-Thomson (l, F/psia) Viscosity (l, uPa*s) Therm. Cond. (l, W/m*K) Density (v, kg/m3) Volume (v, m3/kg) Internal Energy (v, kJ/kg) Enthalpy (v, kJ/kg) Entropy (v, J/g*K) Cv (v, J/g*K) Cp (v, J/g*K) Sound Spd. (v, m/s) Joule-Thomson (v, F/psia) Viscosity (v, uPa*s) Therm. Cond. (v, W/m*K)
-187.62 2.4953e-08 6.5738e-12 -196.64 -196.64 -1.3959 733.13 0.0013640 -196.64 -196.64 -1.3959 1.3553 1.9158 2136.4 -0.0077592 10960. 0.20792 1.0669e-08 9.3732e+07 350.13 366.26 5.1858 0.69067 0.87923 143.28 6.1051 2.3259 0.0017061
-186.62 3.7339e-08 9.6925e-12 -194.73 -194.73 -1.3736 732.08 0.0013660 -194.73 -194.73 -1.3736 1.3539 1.9166 2129.6 -0.0077546 10073. 0.20765 1.5780e-08 6.3371e+07 350.82 367.14 5.1200 0.69462 0.88317 144.03 5.9178 2.3534 0.0017533
-185.62 5.5322e-08 1.4151e-11 -192.81 -192.81 -1.3516 731.04 0.0013679 -192.81 -192.81 -1.3516 1.3525 1.9174 2122.9 -0.0077498 9276.1 0.20737 2.3112e-08 4.3267e+07 351.52 368.02 5.0561 0.69857 0.88713 144.77 5.7383 2.3808 0.0018007
-184.62 8.1182e-08 2.0466e-11 -190.89 -190.89 -1.3298 730.00 0.0013699 -190.89 -190.89 -1.3298 1.3513 1.9182 2116.1 -0.0077448 8557.8 0.20708 3.3533e-08 2.9821e+07 352.22 368.91 4.9939 0.70253 0.89108 145.51 5.5662 2.4083 0.0018485
-183.62 1.1803e-07 2.9330e-11 -188.97 -188.97 -1.3083 728.96 0.0013718 -188.97 -188.97 -1.3083 1.3501 1.9191 2109.3 -0.0077395 7909.8 0.20678 4.8211e-08 2.0742e+07 352.92 369.81 4.9333 0.70648 0.89504 146.24 5.4011 2.4357 0.0018965
-182.62 1.7009e-07 4.1664e-11 -187.05 -187.05 -1.2869 727.92 0.0013738 -187.05 -187.05 -1.2869 1.3490 1.9201 2102.5 -0.0077340 7324.3 0.20647 6.8704e-08 1.4555e+07 353.63 370.70 4.8744 0.71043 0.89899 146.97 5.2426 2.4632 0.0019448
-181.62 2.4299e-07 5.8680e-11 -185.13 -185.13 -1.2658 726.88 0.0013757 -185.13 -185.13 -1.2658 1.3480 1.9210 2095.7 -0.0077283 6794.5 0.20616 9.7079e-08 1.0301e+07 354.35 371.60 4.8170 0.71438 0.90294 147.69 5.0904 2.4906 0.0019934
-180.62 3.4425e-07 8.1969e-11 -183.21 -183.21 -1.2450 725.85 0.0013777 -183.21 -183.21 -1.2450 1.3470 1.9220 2088.9 -0.0077225 6314.4 0.20584 1.3605e-07 7.3504e+06 355.06 372.51 4.7612 0.71833 0.90688 148.41 4.9442 2.5181 0.0020423
-179.62 4.8378e-07 1.1359e-10 -181.29 -181.29 -1.2243 724.81 0.0013797 -181.29 -181.29 -1.2243 1.3461 1.9231 2082.0 -0.0077164 5878.8 0.20551 1.8915e-07 5.2868e+06 355.78 373.42 4.7068 0.72227 0.91082 149.13 4.8038 2.5456 0.0020915
-178.62 6.7459e-07 1.5620e-10 -179.37 -179.37 -1.2038 723.78 0.0013816 -179.37 -179.37 -1.2038 1.3453 1.9241 2075.2 -0.0077102 5482.9 0.20517 2.6096e-07 3.8320e+06 356.51 374.33 4.6538 0.72620 0.91475 149.84 4.6688 2.5731 0.0021410
-177.62 9.3358e-07 2.1320e-10 -177.44 -177.44 -1.1836 722.75 0.0013836 -177.44 -177.44 -1.1836 1.3445 1.9252 2068.4 -0.0077039 5122.6 0.20483 3.5737e-07 2.7982e+06 357.23 375.25 4.6022 0.73012 0.91867 150.54 4.5390 2.6005 0.0021907
-176.62 1.2826e-06 2.8891e-10 -175.52 -175.52 -1.1635 721.72 0.0013856 -175.52 -175.52 -1.1635 1.3437 1.9263 2061.5 -0.0076973 4794.1 0.20447 4.8588e-07 2.0581e+06 357.97 376.17 4.5519 0.73403 0.92258 151.25 4.4142 2.6280 0.0022408
-175.62 1.7496e-06 3.8878e-10 -173.59 -173.59 -1.1437 720.69 0.0013876 -173.59 -173.59 -1.1437 1.3430 1.9274 2054.7 -0.0076907 4494.3 0.20411 6.5601e-07 1.5244e+06 358.70 377.09 4.5029 0.73792 0.92648 151.95 4.2941 2.6555 0.0022912
-174.62 2.3705e-06 5.1964e-10 -171.66 -171.66 -1.1240 719.66 0.0013895 -171.66 -171.66 -1.1240 1.3423 1.9286 2047.9 -0.0076838 4220.2 0.20375 8.7976e-07 1.1367e+06 359.44 378.02 4.4551 0.74181 0.93036 152.64 4.1784 2.6830 0.0023418
-173.62 3.1903e-06 6.9000e-10 -169.73 -169.73 -1.1045 718.64 0.0013915 -169.73 -169.73 -1.1045 1.3417 1.9298 2041.0 -0.0076769 3969.3 0.20338 1.1721e-06 8.5314e+05 360.19 378.95 4.4085 0.74568 0.93423 153.33 4.0671 2.7105 0.0023928
-172.62 4.2661e-06 9.1042e-10 -167.80 -167.80 -1.0852 717.61 0.0013935 -167.80 -167.80 -1.0852 1.3411 1.9310 2034.2 -0.0076698 3739.3 0.20300 1.5518e-06 6.4441e+05 360.93 379.89 4.3631 0.74953 0.93809 154.02 3.9599 2.7379 0.0024440
-171.62 5.6692e-06 1.1939e-09 -165.87 -165.87 -1.0661 716.58 0.0013955 -165.87 -165.87 -1.0661 1.3405 1.9322 2027.3 -0.0076625 3528.0 0.20261 2.0419e-06 4.8974e+05 361.69 380.83 4.3188 0.75337 0.94193 154.71 3.8566 2.7654 0.0024955
-170.62 7.4884e-06 1.5563e-09 -163.94 -163.94 -1.0472 715.56 0.0013975 -163.94 -163.94 -1.0472 1.3400 1.9334 2020.5 -0.0076552 3333.8 0.20222 2.6708e-06 3.7442e+05 362.44 381.77 4.2755 0.75720 0.94575 155.39 3.7570 2.7929 0.0025473
-169.62 9.8334e-06 2.0169e-09 -162.00 -162.00 -1.0284 714.54 0.0013995 -162.00 -162.00 -1.0284 1.3395 1.9347 2013.6 -0.0076477 3154.9 0.20182 3.4733e-06 2.8791e+05 363.20 382.72 4.2334 0.76100 0.94956 156.07 3.6609 2.8204 0.0025994
-168.62 1.2839e-05 2.5993e-09 -160.07 -160.07 -1.0098 713.52 0.0014015 -160.07 -160.07 -1.0098 1.3390 1.9359 2006.8 -0.0076401 2989.9 0.20141 4.4917e-06 2.2263e+05 363.96 383.67 4.1922 0.76479 0.95335 156.74 3.5683 2.8479 0.0026518
-167.62 1.6672e-05 3.3316e-09 -158.13 -158.13 -0.99134 712.49 0.0014035 -158.13 -158.13 -0.99134 1.3386 1.9372 2000.0 -0.0076323 2837.5 0.20100 5.7771e-06 1.7310e+05 364.73 384.63 4.1521 0.76856 0.95712 157.41 3.4790 2.8754 0.0027045
-166.62 2.1533e-05 4.2476e-09 -156.19 -156.19 -0.97306 711.47 0.0014055 -156.19 -156.19 -0.97306 1.3382 1.9385 1993.1 -0.0076245 2696.5 0.20058 7.3914e-06 1.3529e+05 365.50 385.59 4.1129 0.77232 0.96087 158.08 3.3927 2.9029 0.0027575
-165.62 2.7666e-05 5.3877e-09 -154.25 -154.25 -0.95494 710.45 0.0014075 -154.25 -154.25 -0.95494 1.3378 1.9398 1986.3 -0.0076165 2566.0 0.20016 9.4084e-06 1.0629e+05 366.27 386.55 4.0746 0.77605 0.96460 158.75 3.3095 2.9304 0.0028108
-164.62 3.5367e-05 6.7998e-09 -152.31 -152.31 -0.93698 709.44 0.0014096 -152.31 -152.31 -0.93698 1.3375 1.9411 1979.4 -0.0076084 2444.9 0.19973 1.1916e-05 83918. 367.05 387.52 4.0372 0.77976 0.96832 159.41 3.2291 2.9579 0.0028643
-163.62 4.4989e-05 8.5405e-09 -150.37 -150.37 -0.91917 708.42 0.0014116 -150.37 -150.37 -0.91917 1.3371 1.9424 1972.6 -0.0076002 2332.3 0.19930 1.5020e-05 66577. 367.83 388.49 4.0008 0.78346 0.97201 160.07 3.1514 2.9854 0.0029182
-162.62 5.6956e-05 1.0676e-08 -148.43 -148.43 -0.90151 707.40 0.0014136 -148.43 -148.43 -0.90151 1.3368 1.9437 1965.8 -0.0075919 2227.7 0.19886 1.8844e-05 53068. 368.62 389.46 3.9651 0.78713 0.97569 160.72 3.0764 3.0129 0.0029723
-161.62 7.1773e-05 1.3285e-08 -146.48 -146.48 -0.88400 706.38 0.0014157 -146.48 -146.48 -0.88400 1.3365 1.9451 1959.0 -0.0075834 2130.2 0.19841 2.3533e-05 42494. 369.41 390.44 3.9304 0.79079 0.97935 161.38 3.0038 3.0404 0.0030268
-160.62 9.0036e-05 1.6458e-08 -144.54 -144.54 -0.86663 705.37 0.0014177 -144.54 -144.54 -0.86663 1.3363 1.9465 1952.1 -0.0075748 2039.2 0.19796 2.9258e-05 34178. 370.20 391.42 3.8964 0.79443 0.98298 162.03 2.9337 3.0679 0.0030815
-159.62 0.00011245 2.0300e-08 -142.59 -142.59 -0.84940 704.35 0.0014197 -142.59 -142.59 -0.84940 1.3360 1.9478 1945.3 -0.0075661 1954.2 0.19751 3.6221e-05 27609. 371.00 392.40 3.8632 0.79805 0.98660 162.68 2.8658 3.0955 0.0031365
-158.62 0.00013985 2.4934e-08 -140.64 -140.64 -0.83231 703.34 0.0014218 -140.64 -140.64 -0.83231 1.3358 1.9492 1938.5 -0.0075573 1874.8 0.19705 4.4652e-05 22395. 371.80 393.39 3.8307 0.80164 0.99020 163.32 2.8002 3.1230 0.0031918
-157.62 0.00017320 3.0500e-08 -138.69 -138.69 -0.81536 702.32 0.0014238 -138.69 -138.69 -0.81536 1.3356 1.9506 1931.7 -0.0075484 1800.3 0.19658 5.4822e-05 18241. 372.60 394.38 3.7990 0.80522 0.99378 163.96 2.7367 3.1505 0.0032474
-156.62 0.00021364 3.7160e-08 -136.74 -136.74 -0.79854 701.31 0.0014259 -136.74 -136.74 -0.79854 1.3354 1.9520 1924.9 -0.0075393 1730.5 0.19611 6.7040e-05 14916. 373.41 395.38 3.7680 0.80878 0.99734 164.60 2.6752 3.1780 0.0033033
-155.62 0.00026248 4.5099e-08 -134.79 -134.79 -0.78185 700.30 0.0014280 -134.79 -134.79 -0.78185 1.3352 1.9534 1918.1 -0.0075302 1664.9 0.19564 8.1666e-05 12245. 374.22 396.38 3.7377 0.81232 1.0009 165.24 2.6157 3.2055 0.0033595
-154.62 0.00032125 5.4527e-08 -132.83 -132.83 -0.76530 699.29 0.0014300 -132.83 -132.83 -0.76530 1.3350 1.9548 1911.3 -0.0075209 1603.3 0.19516 9.9109e-05 10090. 375.03 397.38 3.7081 0.81585 1.0044 165.87 2.5580 3.2330 0.0034160
-153.62 0.00039171 6.5682e-08 -130.88 -130.88 -0.74887 698.27 0.0014321 -130.88 -130.88 -0.74887 1.3349 1.9563 1904.5 -0.0075114 1545.3 0.19468 0.00011984 8344.6 375.85 398.39 3.6792 0.81935 1.0079 166.50 2.5022 3.2606 0.0034727
-152.62 0.00047590 7.8837e-08 -128.92 -128.92 -0.73256 697.26 0.0014342 -128.92 -128.92 -0.73256 1.3348 1.9577 1897.8 -0.0075019 1490.6 0.19419 0.00014439 6925.9 376.67 399.40 3.6509 0.82284 1.0114 167.13 2.4481 3.2881 0.0035298
-151.62 0.00057613 9.4295e-08 -126.96 -126.96 -0.71638 696.25 0.0014363 -126.96 -126.96 -0.71638 1.3346 1.9592 1891.0 -0.0074922 1438.9 0.19370 0.00017336 5768.4 377.49 400.41 3.6232 0.82631 1.0149 167.76 2.3957 3.3156 0.0035872
-150.62 0.00069507 1.1240e-07 -125.00 -125.00 -0.70032 695.24 0.0014384 -125.00 -125.00 -0.70032 1.3345 1.9606 1884.2 -0.0074824 1390.2 0.19320 0.00020744 4820.7 378.32 401.42 3.5962 0.82976 1.0183 168.38 2.3448 3.3431 0.0036448
-149.62 0.00083574 1.3354e-07 -123.04 -123.04 -0.68438 694.23 0.0014404 -123.04 -123.04 -0.68438 1.3345 1.9621 1877.4 -0.0074724 1344.0 0.19270 0.00024740 4042.0 379.15 402.44 3.5697 0.83319 1.0218 169.00 2.2956 3.3706 0.0037027
-148.62 0.0010016 1.5813e-07 -121.08 -121.08 -0.66855 693.22 0.0014425 -121.08 -121.08 -0.66855 1.3344 1.9636 1870.7 -0.0074623 1300.3 0.19220 0.00029412 3400.0 379.99 403.47 3.5438 0.83661 1.0252 169.62 2.2478 3.3982 0.0037610
-147.62 0.0011965 1.8667e-07 -119.11 -119.11 -0.65284 692.21 0.0014447 -119.11 -119.11 -0.65284 1.3343 1.9651 1863.9 -0.0074521 1258.9 0.19169 0.00034856 2869.0 380.83 404.49 3.5185 0.84001 1.0286 170.24 2.2014 3.4257 0.0038195
-146.62 0.0014249 2.1967e-07 -117.15 -117.15 -0.63724 691.20 0.0014468 -117.15 -117.15 -0.63724 1.3343 1.9666 1857.2 -0.0074417 1219.6 0.19117 0.00041181 2428.3 381.67 405.52 3.4938 0.84340 1.0320 170.85 2.1565 3.4532 0.0038783
-145.62 0.0016917 2.5774e-07 -115.18 -115.18 -0.62175 690.19 0.0014489 -115.18 -115.18 -0.62175 1.3343 1.9682 1850.4 -0.0074312 1182.3 0.19066 0.00048510 2061.4 382.51 406.56 3.4695 0.84677 1.0353 171.46 2.1128 3.4807 0.0039374
-144.62 0.0020026 3.0151e-07 -113.21 -113.21 -0.60637 689.18 0.0014510 -113.21 -113.21 -0.60637 1.3343 1.9697 1843.7 -0.0074206 1146.8 0.19014 0.00056976 1755.1 383.36 407.59 3.4458 0.85012 1.0387 172.07 2.0705 3.5082 0.0039967
-143.62 0.0023637 3.5171e-07 -111.24 -111.24 -0.59110 688.17 0.0014531 -111.24 -111.24 -0.59110 1.3343 1.9713 1836.9 -0.0074098 1113.0 0.18962 0.00066731 1498.6 384.21 408.63 3.4226 0.85346 1.0420 172.68 2.0294 3.5358 0.0040564
-142.62 0.0027820 4.0912e-07 -109.27 -109.27 -0.57593 687.16 0.0014553 -109.27 -109.27 -0.57593 1.3343 1.9728 1830.2 -0.0073988 1080.8 0.18909 0.00077939 1283.1 385.07 409.68 3.3999 0.85679 1.0454 173.28 1.9896 3.5633 0.0041164
-141.62 0.0032653 4.7461e-07 -107.30 -107.30 -0.56087 686.15 0.0014574 -107.30 -107.30 -0.56087 1.3343 1.9744 1823.5 -0.0073878 1050.1 0.18856 0.00090784 1101.5 385.93 410.72 3.3777 0.86011 1.0487 173.88 1.9508 3.5908 0.0041766
-140.62 0.0038222 5.4910e-07 -105.32 -105.32 -0.54591 685.14 0.0014596 -105.32 -105.32 -0.54591 1.3344 1.9760 1816.7 -0.0073765 1020.7 0.18803 0.0010547 948.16 386.79 411.77 3.3560 0.86341 1.0520 174.48 1.9133 3.6183 0.0042372
-139.62 0.0044623 6.3364e-07 -103.34 -103.34 -0.53105 684.13 0.0014617 -103.34 -103.34 -0.53105 1.3344 1.9776 1810.0 -0.0073651 992.74 0.18749 0.0012221 818.26 387.65 412.83 3.3347 0.86670 1.0553 175.08 1.8768 3.6459 0.0042980
-138.62 0.0051963 7.2933e-07 -101.37 -101.37 -0.51628 683.12 0.0014639 -101.37 -101.37 -0.51629 1.3345 1.9792 1803.3 -0.0073536 965.97 0.18695 0.0014125 707.94 388.52 413.88 3.3139 0.86998 1.0586 175.67 1.8413 3.6734 0.0043592
-137.62 0.0060358 8.3739e-07 -99.386 -99.386 -0.50162 682.11 0.0014660 -99.386 -99.386 -0.50162 1.3346 1.9808 1796.6 -0.0073419 940.35 0.18641 0.0016287 614.00 389.39 414.94 3.2935 0.87325 1.0619 176.26 1.8069 3.7009 0.0044206
-136.62 0.0069938 9.5912e-07 -97.404 -97.404 -0.48705 681.10 0.0014682 -97.404 -97.404 -0.48705 1.3347 1.9825 1789.9 -0.0073301 915.81 0.18586 0.0018733 533.80 390.26 416.00 3.2735 0.87650 1.0651 176.85 1.7734 3.7284 0.0044823
-135.62 0.0080843 1.0959e-06 -95.421 -95.421 -0.47258 680.09 0.0014704 -95.421 -95.421 -0.47258 1.3348 1.9841 1783.2 -0.0073180 892.30 0.18531 0.0021497 465.17 391.14 417.07 3.2540 0.87975 1.0684 177.44 1.7409 3.7559 0.0045443
-134.62 0.0093230 1.2494e-06 -93.436 -93.435 -0.45819 679.08 0.0014726 -93.436 -93.436 -0.45820 1.3350 1.9858 1776.5 -0.0073059 869.75 0.18476 0.0024613 406.30 392.02 418.14 3.2348 0.88299 1.0716 178.02 1.7093 3.7834 0.0046066
-133.62 0.010727 1.4211e-06 -91.449 -91.449 -0.44390 678.07 0.0014748 -91.450 -91.449 -0.44391 1.3351 1.9875 1769.8 -0.0072935 848.11 0.18421 0.0028116 355.67 392.91 419.21 3.2161 0.88622 1.0749 178.61 1.6786 3.8109 0.0046691
-132.62 0.012315 1.6127e-06 -89.460 -89.460 -0.42970 677.06 0.0014770 -89.461 -89.461 -0.42971 1.3353 1.9892 1763.1 -0.0072810 827.32 0.18365 0.0032049 312.03 393.79 420.29 3.1977 0.88944 1.0781 179.19 1.6488 3.8385 0.0047320
-131.62 0.014106 1.8263e-06 -87.470 -87.470 -0.41559 676.04 0.0014792 -87.471 -87.471 -0.41560 1.3354 1.9909 1756.4 -0.0072684 807.34 0.18309 0.0036453 274.33 394.68 421.36 3.1798 0.89266 1.0813 179.76 1.6197 3.8660 0.0047951
-130.62 0.016124 2.0638e-06 -85.478 -85.478 -0.40157 675.03 0.0014814 -85.479 -85.479 -0.40157 1.3356 1.9926 1749.7 -0.0072555 788.12 0.18253 0.0041375 241.69 395.58 422.44 3.1622 0.89586 1.0846 180.34 1.5915 3.8935 0.0048586
-129.62 0.018392 2.3273e-06 -83.485 -83.485 -0.38763 674.02 0.0014836 -83.486 -83.486 -0.38763 1.3358 1.9944 1743.0 -0.0072425 769.63 0.18196 0.0046867 213.37 396.47 423.53 3.1450 0.89906 1.0878 180.91 1.5641 3.9210 0.0049223
-128.62 0.020935 2.6190e-06 -81.489 -81.489 -0.37377 673.01 0.0014859 -81.491 -81.490 -0.37378 1.3360 1.9961 1736.3 -0.0072294 751.83 0.18140 0.0052981 188.75 397.37 424.62 3.1281 0.90226 1.0910 181.48 1.5374 3.9485 0.0049863
-127.62 0.023783 2.9416e-06 -79.492 -79.492 -0.36000 672.00 0.0014881 -79.494 -79.493 -0.36001 1.3363 1.9979 1729.6 -0.0072160 734.67 0.18083 0.0059776 167.29 398.27 425.71 3.1116 0.90545 1.0942 182.05 1.5114 3.9760 0.0050506
-126.62 0.026966 3.2974e-06 -77.493 -77.493 -0.34631 670.98 0.0014904 -77.495 -77.495 -0.34632 1.3365 1.9997 1722.9 -0.0072025 718.14 0.18025 0.0067313 148.56 399.18 426.80 3.0954 0.90863 1.0974 182.62 1.4861 4.0035 0.0051152
-125.62 0.030515 3.6891e-06 -75.493 -75.492 -0.33270 669.97 0.0014926 -75.494 -75.494 -0.33272 1.3368 2.0015 1716.2 -0.0071888 702.18 0.17968 0.0075660 132.17 400.09 427.89 3.0795 0.91181 1.1006 183.18 1.4615 4.0310 0.0051800
-124.62 0.034467 4.1198e-06 -73.490 -73.489 -0.31917 668.95 0.0014949 -73.492 -73.492 -0.31919 1.3371 2.0033 1709.5 -0.0071749 686.79 0.17910 0.0084885 117.81 401.00 428.99 3.0640 0.91499 1.1038 183.74 1.4375 4.0584 0.0052452
-123.62 0.038859 4.5922e-06 -71.485 -71.485 -0.30572 667.94 0.0014971 -71.488 -71.487 -0.30574 1.3374 2.0051 1702.8 -0.0071609 671.93 0.17852 0.0095065 105.19 401.91 430.10 3.0488 0.91816 1.1070 184.30 1.4141 4.0859 0.0053106
-122.62 0.043731 5.1097e-06 -69.479 -69.479 -0.29235 666.92 0.0014994 -69.482 -69.481 -0.29237 1.3377 2.0070 1696.2 -0.0071466 657.57 0.17794 0.010628 94.092 402.83 431.20 3.0339 0.92134 1.1102 184.86 1.3913 4.1134 0.0053764
-121.62 0.049128 5.6756e-06 -67.471 -67.470 -0.27905 665.91 0.0015017 -67.474 -67.473 -0.27907 1.3380 2.0089 1689.5 -0.0071322 643.70 0.17736 0.011861 84.309 403.75 432.31 3.0193 0.92451 1.1134 185.41 1.3691 4.1409 0.0054424
-120.62 0.055096 6.2932e-06 -65.461 -65.460 -0.26583 664.89 0.0015040 -65.464 -65.463 -0.26585 1.3384 2.0107 1682.8 -0.0071176 630.28 0.17678 0.013215 75.669 404.67 433.42 3.0050 0.92767 1.1166 185.96 1.3475 4.1683 0.0055087
-119.62 0.061684 6.9663e-06 -63.449 -63.448 -0.25268 663.87 0.0015063 -63.452 -63.452 -0.25271 1.3387 2.0126 1676.1 -0.0071028 617.30 0.17619 0.014700 68.027 405.60 434.53 2.9909 0.93084 1.1198 186.51 1.3264 4.1958 0.0055752
-118.62 0.068946 7.6987e-06 -61.435 -61.434 -0.23961 662.86 0.0015086 -61.439 -61.438 -0.23963 1.3391 2.0146 1669.4 -0.0070878 604.74 0.17560 0.016325 61.255 406.53 435.64 2.9772 0.93401 1.1231 187.06 1.3058 4.2233 0.0056421
-117.62 0.076937 8.4943e-06 -59.419 -59.418 -0.22661 661.84 0.0015109 -59.423 -59.422 -0.22663 1.3395 2.0165 1662.8 -0.0070726 592.58 0.17501 0.018101 55.245 407.46 436.76 2.9638 0.93718 1.1263 187.60 1.2857 4.2507 0.0057092
-116.62 0.085718 9.3573e-06 -57.401 -57.400 -0.21367 660.82 0.0015133 -57.406 -57.405 -0.21370 1.3400 2.0184 1656.1 -0.0070573 580.80 0.17442 0.020040 49.901 408.39 437.88 2.9506 0.94035 1.1295 188.14 1.2660 4.2782 0.0057767
-115.62 0.095353 1.0292e-05 -55.382 -55.380 -0.20081 659.80 0.0015156 -55.386 -55.385 -0.20084 1.3404 2.0204 1649.4 -0.0070417 569.38 0.17383 0.022152 45.142 409.33 439.01 2.9377 0.94352 1.1327 188.68 1.2468 4.3056 0.0058444
-114.62 0.10591 1.1303e-05 -53.360 -53.358 -0.18801 658.78 0.0015180 -53.365 -53.364 -0.18805 1.3409 2.0224 1642.7 -0.0070260 558.32 0.17323 0.024451 40.898 410.27 440.13 2.9250 0.94669 1.1360 189.22 1.2281 4.3330 0.0059123
-113.62 0.11746 1.2394e-05 -51.336 -51.334 -0.17529 657.76 0.0015203 -51.342 -51.340 -0.17533 1.3413 2.0244 1636.0 -0.0070100 547.59 0.17264 0.026949 37.107 411.21 441.26 2.9126 0.94987 1.1392 189.75 1.2097 4.3604 0.0059806
-112.62 0.13008 1.3571e-05 -49.310 -49.308 -0.16263 656.73 0.0015227 -49.316 -49.315 -0.16267 1.3418 2.0264 1629.3 -0.0069938 537.18 0.17204 0.029661 33.715 412.16 442.39 2.9005 0.95305 1.1424 190.28 1.1918 4.3879 0.0060491
-111.62 0.14384 1.4838e-05 -47.282 -47.280 -0.15003 655.71 0.0015251 -47.289 -47.287 -0.15008 1.3424 2.0285 1622.7 -0.0069774 527.08 0.17144 0.032600 30.675 413.10 443.53 2.8885 0.95623 1.1457 190.81 1.1742 4.4153 0.0061180
-110.62 0.15884 1.6201e-05 -45.252 -45.250 -0.13750 654.69 0.0015274 -45.259 -45.258 -0.13755 1.3429 2.0305 1616.0 -0.0069609 517.28 0.17084 0.035781 27.948 414.06 444.66 2.8769 0.95942 1.1490 191.34 1.1570 4.4427 0.0061871
-109.62 0.17516 1.7664e-05 -43.220 -43.217 -0.12504 653.66 0.0015298 -43.228 -43.226 -0.12509 1.3435 2.0326 1609.3 -0.0069441 507.76 0.17024 0.039220 25.497 415.01 445.80 2.8654 0.96261 1.1522 191.86 1.1402 4.4701 0.0062564
-108.62 0.19290 1.9233e-05 -41.185 -41.183 -0.11264 652.64 0.0015322 -41.194 -41.192 -0.11269 1.3441 2.0347 1602.6 -0.0069271 498.51 0.16964 0.042933 23.292 415.96 446.94 2.8542 0.96581 1.1555 192.38 1.1236 4.4974 0.0063261
-107.62 0.21215 2.0914e-05 -39.149 -39.146 -0.10030 651.61 0.0015347 -39.158 -39.156 -0.10036 1.3447 2.0369 1595.9 -0.0069098 489.52 0.16903 0.046937 21.305 416.92 448.09 2.8433 0.96901 1.1588 192.90 1.1075 4.5248 0.0063960
-106.62 0.23301 2.2711e-05 -37.110 -37.107 -0.088016 650.58 0.0015371 -37.120 -37.118 -0.088082 1.3453 2.0390 1589.2 -0.0068924 480.79 0.16843 0.051250 19.512 417.88 449.23 2.8325 0.97222 1.1621 193.41 1.0916 4.5522 0.0064662
-105.62 0.25561 2.4632e-05 -35.069 -35.066 -0.075797 649.55 0.0015395 -35.080 -35.078 -0.075868 1.3460 2.0412 1582.6 -0.0068747 472.30 0.16782 0.055891 17.892 418.85 450.38 2.8220 0.97544 1.1655 193.93 1.0760 4.5795 0.0065367
-104.62 0.28004 2.6681e-05 -33.026 -33.022 -0.063638 648.52 0.0015420 -33.038 -33.035 -0.063714 1.3467 2.0434 1575.9 -0.0068569 464.04 0.16721 0.060878 16.426 419.81 451.53 2.8116 0.97867 1.1688 194.44 1.0608 4.6069 0.0066074
-103.62 0.30643 2.8865e-05 -30.981 -30.977 -0.051537 647.49 0.0015444 -30.994 -30.991 -0.051619 1.3474 2.0456 1569.2 -0.0068387 456.00 0.16660 0.066231 15.099 420.78 452.68 2.8015 0.98191 1.1722 194.94 1.0458 4.6342 0.0066785
-102.62 0.33490 3.1189e-05 -28.933 -28.929 -0.039493 646.46 0.0015469 -28.947 -28.944 -0.039582 1.3481 2.0478 1562.5 -0.0068204 448.18 0.16600 0.071971 13.894 421.75 453.84 2.7916 0.98516 1.1755 195.44 1.0310 4.6615 0.0067498
-101.62 0.36558 3.3661e-05 -26.883 -26.878 -0.027507 645.43 0.0015494 -26.898 -26.894 -0.027602 1.3489 2.0501 1555.8 -0.0068018 440.57 0.16539 0.078120 12.801 422.73 454.99 2.7818 0.98841 1.1789 195.95 1.0166 4.6888 0.0068213
-100.62 0.39862 3.6285e-05 -24.831 -24.826 -0.015577 644.39 0.0015519 -24.847 -24.843 -0.015678 1.3497 2.0524 1549.1 -0.0067830 433.16 0.16478 0.084699 11.807 423.70 456.15 2.7723 0.99168 1.1823 196.44 1.0024 4.7161 0.0068932
-99.625 0.43414 3.9069e-05 -22.776 -22.770 -0.0037022 643.36 0.0015544 -22.794 -22.789 -0.0038103 1.3505 2.0547 1542.4 -0.0067639 425.95 0.16416 0.091731 10.901 424.68 457.31 2.7630 0.99496 1.1858 196.94 0.98838 4.7434 0.0069653
-98.625 0.47230 4.2019e-05 -20.719 -20.713 0.0081181 642.32 0.0015569 -20.738 -20.733 0.0080027 1.3514 2.0570 1535.7 -0.0067447 418.92 0.16355 0.099240 10.077 425.66 458.48 2.7538 0.99825 1.1892 197.43 0.97464 4.7707 0.0070377
-97.625 0.51325 4.5141e-05 -18.660 -18.653 0.019885 641.28 0.0015594 -18.680 -18.674 0.019762 1.3522 2.0594 1529.0 -0.0067251 412.07 0.16294 0.10725 9.3239 426.65 459.64 2.7448 1.0016 1.1927 197.92 0.96112 4.7979 0.0071103
-96.625 0.55714 4.8441e-05 -16.598 -16.590 0.031598 640.24 0.0015619 -16.620 -16.614 0.031467 1.3531 2.0618 1522.3 -0.0067053 405.39 0.16233 0.11579 8.6365 427.63 460.81 2.7360 1.0049 1.1962 198.40 0.94783 4.8251 0.0071832
-95.625 0.60416 5.1927e-05 -14.534 -14.525 0.043259 639.20 0.0015645 -14.557 -14.550 0.043120 1.3540 2.0642 1515.7 -0.0066853 398.88 0.16171 0.12488 8.0078 428.62 461.98 2.7274 1.0082 1.1997 198.88 0.93475 4.8524 0.0072564
-94.625 0.65446 5.5605e-05 -12.467 -12.458 0.054869 638.16 0.0015670 -12.491 -12.484 0.054721 1.3550 2.0667 1509.0 -0.0066650 392.53 0.16110 0.13455 7.4323 429.61 463.15 2.7189 1.0116 1.2032 199.36 0.92188 4.8796 0.0073299
-93.625 0.70822 5.9481e-05 -10.397 -10.388 0.066428 637.12 0.0015696 -10.424 -10.416 0.066271 1.3560 2.0691 1502.3 -0.0066444 386.34 0.16048 0.14482 6.9050 430.60 464.32 2.7107 1.0149 1.2068 199.83 0.90921 4.9068 0.0074036
-92.625 0.76564 6.3562e-05 -8.3256 -8.3151 0.077937 636.07 0.0015722 -8.3535 -8.3452 0.077771 1.3570 2.0716 1495.6 -0.0066236 380.31 0.15987 0.15573 6.4212 431.60 465.49 2.7025 1.0183 1.2104 200.30 0.89673 4.9340 0.0074776
-91.625 0.82689 6.7855e-05 -6.2511 -6.2398 0.089397 635.02 0.0015747 -6.2808 -6.2719 0.089220 1.3580 2.0742 1488.9 -0.0066025 374.41 0.15925 0.16731 5.9769 432.59 466.67 2.6946 1.0217 1.2140 200.77 0.88445 4.9611 0.0075518
-90.625 0.89218 7.2365e-05 -4.1740 -4.1618 0.10081 633.98 0.0015773 -4.2056 -4.1959 0.10062 1.3591 2.0767 1482.2 -0.0065811 368.66 0.15864 0.17958 5.5685 433.59 467.84 2.6868 1.0251 1.2177 201.24 0.87236 4.9883 0.0076263
-89.625 0.96172 7.7100e-05 -2.0942 -2.0811 0.11217 632.93 0.0015800 -2.1279 -2.1174 0.11197 1.3602 2.0793 1475.5 -0.0065595 363.05 0.15802 0.19258 5.1928 434.59 469.02 2.6791 1.0285 1.2213 201.70 0.86045 5.0154 0.0077011
-88.625 1.0357 8.2066e-05 -0.011765 0.0023754 0.12349 631.88 0.0015826 -0.047516 -0.036215 0.12328 1.3613 2.0819 1468.8 -0.0065375 357.56 0.15740 0.20633 4.8466 435.59 470.20 2.6717 1.0320 1.2250 202.15 0.84873 5.0425 0.0077761
-87.625 1.1144 8.7269e-05 2.0734 2.0886 0.13476 630.83 0.0015852 2.0355 2.0476 0.13454 1.3625 2.0846 1462.1 -0.0065153 352.21 0.15679 0.22087 4.5276 436.60 471.39 2.6643 1.0354 1.2288 202.61 0.83718 5.0696 0.0078514
-86.625 1.1979 9.2715e-05 4.1613 4.1776 0.14598 629.77 0.0015879 4.1211 4.1342 0.14575 1.3637 2.0873 1455.4 -0.0064928 346.98 0.15617 0.23623 4.2331 437.61 472.57 2.6571 1.0389 1.2325 203.06 0.82580 5.0967 0.0079270
-85.625 1.2866 9.8410e-05 6.2519 6.2695 0.15716 628.72 0.0015905 6.2094 6.2235 0.15691 1.3649 2.0900 1448.8 -0.0064701 341.87 0.15555 0.25245 3.9612 438.61 473.75 2.6501 1.0424 1.2363 203.50 0.81460 5.1237 0.0080028
-84.625 1.3806 0.00010436 8.3454 8.3642 0.16829 627.66 0.0015932 8.3004 8.3155 0.16803 1.3661 2.0927 1442.1 -0.0064470 336.87 0.15494 0.26956 3.7097 439.63 474.94 2.6432 1.0460 1.2402 203.95 0.80356 5.1508 0.0080789
-83.625 1.4803 0.00011057 10.442 10.462 0.17938 626.60 0.0015959 10.394 10.410 0.17911 1.3674 2.0955 1435.4 -0.0064236 331.99 0.15432 0.28760 3.4771 440.64 476.13 2.6364 1.0495 1.2440 204.38 0.79269 5.1778 0.0081553
-82.625 1.5858 0.00011705 12.541 12.562 0.19043 625.54 0.0015986 12.491 12.508 0.19014 1.3687 2.0983 1428.7 -0.0063999 327.22 0.15370 0.30659 3.2616 441.65 477.31 2.6298 1.0531 1.2479 204.82 0.78199 5.2048 0.0082319
-81.625 1.6975 0.00012380 14.643 14.666 0.20143 624.48 0.0016013 14.590 14.609 0.20113 1.3700 2.1012 1422.0 -0.0063759 322.55 0.15309 0.32659 3.0619 442.67 478.50 2.6233 1.0567 1.2519 205.25 0.77144 5.2318 0.0083088
-80.625 1.8155 0.00013083 16.748 16.773 0.21240 623.42 0.0016041 16.692 16.712 0.21208 1.3714 2.1041 1415.4 -0.0063516 317.99 0.15247 0.34763 2.8766 443.69 479.70 2.6169 1.0603 1.2558 205.67 0.76106 5.2587 0.0083860
-79.625 1.9402 0.00013814 18.856 18.882 0.22332 622.36 0.0016068 18.797 18.819 0.22299 1.3728 2.1070 1408.7 -0.0063270 313.52 0.15186 0.36974 2.7046 444.71 480.89 2.6106 1.0639 1.2598 206.10 0.75083 5.2857 0.0084634
-78.625 2.0718 0.00014574 20.967 20.995 0.23420 621.29 0.0016096 20.905 20.928 0.23385 1.3742 2.1099 1402.0 -0.0063021 309.15 0.15124 0.39296 2.5448 445.73 482.08 2.6045 1.0676 1.2639 206.51 0.74076 5.3126 0.0085411
-77.625 2.2107 0.00015363 23.081 23.111 0.24504 620.22 0.0016123 23.016 23.040 0.24468 1.3757 2.1129 1395.3 -0.0062768 304.88 0.15062 0.41735 2.3961 446.75 483.27 2.5985 1.0712 1.2680 206.93 0.73084 5.3395 0.0086190
-76.625 2.3571 0.00016182 25.198 25.230 0.25584 619.15 0.0016151 25.130 25.156 0.25546 1.3772 2.1159 1388.7 -0.0062512 300.69 0.15001 0.44292 2.2577 447.78 484.47 2.5926 1.0749 1.2721 207.34 0.72107 5.3664 0.0086972
-75.625 2.5113 0.00017031 27.318 27.353 0.26660 618.08 0.0016179 27.247 27.275 0.26620 1.3787 2.1190 1382.0 -0.0062253 296.59 0.14939 0.46974 2.1288 448.81 485.67 2.5869 1.0787 1.2762 207.74 0.71146 5.3933 0.0087757
-74.625 2.6736 0.00017910 29.442 29.478 0.27732 617.01 0.0016207 29.366 29.396 0.27691 1.3802 2.1221 1375.4 -0.0061990 292.58 0.14878 0.49783 2.0087 449.83 486.86 2.5812 1.0824 1.2804 208.14 0.70200 5.4201 0.0088544
-73.625 2.8444 0.00018820 31.568 31.607 0.28801 615.93 0.0016236 31.489 31.521 0.28758 1.3818 2.1252 1368.7 -0.0061724 288.65 0.14816 0.52725 1.8966 450.86 488.06 2.5757 1.0862 1.2847 208.54 0.69268 5.4469 0.0089334
-72.625 3.0240 0.00019761 33.698 33.739 0.29865 614.85 0.0016264 33.615 33.649 0.29821 1.3834 2.1284 1362.0 -0.0061454 284.81 0.14755 0.55804 1.7920 451.90 489.26 2.5703 1.0900 1.2889 208.93 0.68351 5.4737 0.0090126
-71.625 3.2127 0.00020734 35.831 35.875 0.30927 613.78 0.0016293 35.745 35.781 0.30880 1.3851 2.1316 1355.4 -0.0061181 281.03 0.14694 0.59024 1.6942 452.93 490.46 2.5650 1.0938 1.2932 209.32 0.67448 5.5005 0.0090922
-70.625 3.4108 0.00021738 37.967 38.014 0.31984 612.69 0.0016321 37.877 37.915 0.31935 1.3867 2.1349 1348.7 -0.0060904 277.34 0.14632 0.62390 1.6028 453.96 491.66 2.5598 1.0976 1.2976 209.70 0.66560 5.5273 0.0091720
-69.625 3.6187 0.00022774 40.107 40.157 0.33038 611.61 0.0016350 40.013 40.053 0.32987 1.3884 2.1382 1342.1 -0.0060624 273.72 0.14571 0.65906 1.5173 455.00 492.86 2.5547 1.1015 1.3020 210.08 0.65687 5.5540 0.0092520
-68.625 3.8367 0.00023841 42.250 42.303 0.34088 610.53 0.0016379 42.152 42.195 0.34036 1.3902 2.1415 1335.5 -0.0060339 270.17 0.14510 0.69577 1.4372 456.04 494.06 2.5497 1.1054 1.3064 210.45 0.64827 5.5807 0.0093324
-67.625 4.0652 0.00024941 44.397 44.452 0.35135 609.44 0.0016409 44.294 44.340 0.35080 1.3919 2.1449 1328.8 -0.0060051 266.69 0.14449 0.73408 1.3622 457.08 495.26 2.5448 1.1093 1.3109 210.82 0.63981 5.6074 0.0094130
-66.625 4.3046 0.00026072 46.547 46.605 0.36179 608.35 0.0016438 46.439 46.488 0.36122 1.3937 2.1483 1322.2 -0.0059760 263.28 0.14388 0.77404 1.2919 458.12 496.46 2.5400 1.1133 1.3154 211.18 0.63150 5.6341 0.0094939
-65.625 4.5551 0.00027236 48.700 48.762 0.37219 607.26 0.0016467 48.588 48.640 0.37160 1.3955 2.1518 1315.6 -0.0059464 259.93 0.14327 0.81570 1.2259 459.16 497.67 2.5353 1.1172 1.3200 211.54 0.62332 5.6608 0.0095750
-64.625 4.8173 0.00028432 50.857 50.923 0.38256 606.16 0.0016497 50.740 50.795 0.38195 1.3974 2.1553 1308.9 -0.0059164 256.65 0.14266 0.85910 1.1640 460.21 498.87 2.5307 1.1212 1.3246 211.89 0.61527 5.6874 0.0096564
-63.625 5.0915 0.00029659 53.017 53.087 0.39289 605.07 0.0016527 52.896 52.954 0.39226 1.3993 2.1588 1302.3 -0.0058861 253.42 0.14205 0.90429 1.1058 461.25 500.07 2.5262 1.1252 1.3293 212.24 0.60736 5.7140 0.0097382
-62.625 5.3781 0.00030918 55.181 55.255 0.40320 603.97 0.0016557 55.055 55.117 0.40254 1.4012 2.1624 1295.7 -0.0058553 250.26 0.14144 0.95134 1.0511 462.30 501.28 2.5218 1.1293 1.3340 212.58 0.59958 5.7406 0.0098201
-61.625 5.6774 0.00032209 57.349 57.427 0.41347 602.87 0.0016587 57.218 57.283 0.41279 1.4031 2.1660 1289.1 -0.0058241 247.16 0.14084 1.0003 0.99972 463.35 502.48 2.5175 1.1333 1.3387 212.92 0.59194 5.7672 0.0099024
-60.625 5.9899 0.00033531 59.520 59.602 0.42371 601.77 0.0016618 59.385 59.453 0.42301 1.4051 2.1697 1282.5 -0.0057925 244.12 0.14023 1.0512 0.95131 464.40 503.68 2.5133 1.1374 1.3435 213.26 0.58442 5.7938 0.0099850
-59.625 6.3160 0.00034884 61.695 61.782 0.43392 600.66 0.0016648 61.554 61.627 0.43320 1.4071 2.1734 1275.9 -0.0057605 241.13 0.13962 1.1041 0.90573 465.45 504.89 2.5091 1.1415 1.3483 213.58 0.57704 5.8203 0.010068
-58.625 6.6561 0.00036267 63.874 63.965 0.44410 599.55 0.0016679 63.728 63.805 0.44335 1.4091 2.1772 1269.3 -0.0057280 238.19 0.13902 1.1591 0.86277 466.50 506.09 2.5051 1.1457 1.3532 213.90 0.56978 5.8468 0.010151
-57.625 7.0107 0.00037679 66.057 66.152 0.45425 598.44 0.0016710 65.905 65.986 0.45348 1.4111 2.1810 1262.7 -0.0056951 235.31 0.13842 1.2161 0.82228 467.55 507.30 2.5011 1.1498 1.3581 214.22 0.56265 5.8733 0.010234
-56.625 7.3801 0.00039122 68.243 68.344 0.46437 597.33 0.0016741 68.086 68.172 0.46358 1.4132 2.1848 1256.1 -0.0056617 232.48 0.13781 1.2754 0.78408 468.60 508.50 2.4972 1.1540 1.3631 214.53 0.55564 5.8998 0.010318
-55.625 7.7648 0.00040592 70.433 70.539 0.47446 596.22 0.0016772 70.271 70.361 0.47364 1.4153 2.1887 1249.5 -0.0056279 229.69 0.13721 1.3369 0.74802 469.66 509.71 2.4934 1.1582 1.3681 214.84 0.54875 5.9263 0.010402
-54.625 8.1652 0.00042091 72.628 72.739 0.48453 595.10 0.0016804 72.460 72.554 0.48368 1.4174 2.1927 1242.9 -0.0055937 226.96 0.13661 1.4006 0.71396 470.72 510.91 2.4897 1.1624 1.3731 215.14 0.54199 5.9527 0.010486
-53.625 8.5819 0.00043617 74.826 74.943 0.49456 593.98 0.0016836 74.652 74.752 0.49369 1.4196 2.1967 1236.3 -0.0055589 224.27 0.13601 1.4667 0.68178 471.77 512.11 2.4860 1.1667 1.3782 215.43 0.53535 5.9792 0.010571
-52.625 9.0151 0.00045169 77.028 77.151 0.50457 592.86 0.0016867 76.849 76.954 0.50368 1.4218 2.2007 1229.8 -0.0055237 221.63 0.13541 1.5353 0.65136 472.83 513.32 2.4824 1.1710 1.3834 215.72 0.52882 6.0056 0.010656
-51.625 9.4655 0.00046746 79.234 79.363 0.51455 591.73 0.0016900 79.049 79.159 0.51363 1.4240 2.2048 1223.2 -0.0054880 219.04 0.13482 1.6062 0.62258 473.89 514.52 2.4789 1.1752 1.3886 216.00 0.52241 6.0320 0.010741
-50.625 9.9335 0.00048348 81.444 81.579 0.52451 590.60 0.0016932 81.253 81.369 0.52356 1.4262 2.2089 1216.6 -0.0054519 216.48 0.13422 1.6797 0.59534 474.95 515.73 2.4755 1.1796 1.3938 216.28 0.51612 6.0584 0.010827
-49.625 10.419 0.00049972 83.658 83.800 0.53443 589.47 0.0016964 83.462 83.584 0.53347 1.4285 2.2131 1210.1 -0.0054152 213.98 0.13363 1.7558 0.56954 476.01 516.93 2.4722 1.1839 1.3991 216.55 0.50994 6.0848 0.010913
-48.625 10.924 0.00051618 85.876 86.025 0.54434 588.34 0.0016997 85.674 85.802 0.54334 1.4308 2.2173 1203.5 -0.0053780 211.51 0.13303 1.8345 0.54510 477.07 518.13 2.4689 1.1883 1.4044 216.82 0.50387 6.1112 0.010999
-47.625 11.448 0.00053285 88.099 88.255 0.55421 587.20 0.0017030 87.891 88.025 0.55319 1.4331 2.2216 1196.9 -0.0053403 209.08 0.13244 1.9159 0.52194 478.14 519.33 2.4657 1.1927 1.4098 217.08 0.49792 6.1375 0.011085
-46.625 11.991 0.00054970 90.325 90.489 0.56406 586.06 0.0017063 90.111 90.252 0.56302 1.4354 2.2259 1190.4 -0.0053020 206.69 0.13185 2.0001 0.49997 479.20 520.53 2.4625 1.1971 1.4153 217.33 0.49207 6.1639 0.011172
-45.625 12.554 0.00056673 92.556 92.727 0.57389 584.92 0.0017096 92.336 92.484 0.57282 1.4378 2.2303 1183.8 -0.0052633 204.34 0.13126 2.0872 0.47912 480.27 521.74 2.4594 1.2015 1.4207 217.58 0.48633 6.1902 0.011259
-44.625 13.137 0.00058391 94.791 94.970 0.58369 583.77 0.0017130 94.565 94.720 0.58260 1.4402 2.2347 1177.3 -0.0052240 202.03 0.13067 2.1771 0.45933 481.33 522.94 2.4564 1.2060 1.4263 217.82 0.48069 6.2165 0.011347
-43.625 13.741 0.00060123 97.030 97.218 0.59347 582.62 0.0017164 96.799 96.961 0.59235 1.4426 2.2392 1170.7 -0.0051841 199.75 0.13008 2.2700 0.44053 482.40 524.14 2.4535 1.2104 1.4319 218.05 0.47516 6.2429 0.011435
-42.625 14.367 0.00061866 99.274 99.470 0.60322 581.47 0.0017198 99.036 99.207 0.60208 1.4450 2.2437 1164.2 -0.0051437 197.51 0.12949 2.3659 0.42267 483.46 525.33 2.4506 1.2149 1.4375 218.28 0.46973 6.2692 0.011523
-41.625 15.015 0.00063620 101.52 101.73 0.61296 580.32 0.0017232 101.28 101.46 0.61179 1.4475 2.2483 1157.7 -0.0051027 195.30 0.12891 2.4649 0.40569 484.53 526.53 2.4478 1.2195 1.4432 218.50 0.46440 6.2955 0.011612
-40.625 15.686 0.00065381 103.77 103.99 0.62266 579.16 0.0017266 103.52 103.71 0.62147 1.4500 2.2529 1151.1 -0.0050611 193.13 0.12832 2.5671 0.38954 485.60 527.73 2.4450 1.2240 1.4489 218.72 0.45917 6.3218 0.011701
-39.625 16.380 0.00067148 106.03 106.26 0.63235 578.00 0.0017301 105.78 105.97 0.63113 1.4525 2.2576 1144.6 -0.0050189 190.99 0.12774 2.6725 0.37418 486.67 528.93 2.4423 1.2286 1.4547 218.93 0.45403 6.3481 0.011790
-38.625 17.097 0.00068917 108.29 108.53 0.64201 576.83 0.0017336 108.03 108.24 0.64077 1.4550 2.2623 1138.0 -0.0049761 188.88 0.12716 2.7813 0.35955 487.74 530.12 2.4397 1.2332 1.4606 219.13 0.44900 6.3744 0.011880
-37.625 17.838 0.00070686 110.56 110.80 0.65165 575.66 0.0017371 110.29 110.51 0.65039 1.4576 2.2671 1131.5 -0.0049327 186.81 0.12658 2.8934 0.34562 488.81 531.32 2.4371 1.2378 1.4665 219.33 0.44405 6.4007 0.011970
-36.625 18.604 0.00072453 112.83 113.08 0.66127 574.49 0.0017407 112.56 112.78 0.65999 1.4602 2.2719 1125.0 -0.0048887 184.76 0.12600 3.0089 0.33235 489.88 532.51 2.4346 1.2424 1.4724 219.52 0.43920 6.4270 0.012060
-35.625 19.395 0.00074215 115.10 115.37 0.67087 573.32 0.0017442 114.83 115.06 0.66956 1.4628 2.2768 1118.5 -0.0048440 182.75 0.12542 3.1280 0.31969 490.95 533.70 2.4321 1.2471 1.4784 219.70 0.43444 6.4533 0.012151
-34.625 20.212 0.00075967 117.38 117.66 0.68045 572.14 0.0017478 117.10 117.34 0.67912 1.4654 2.2818 1111.9 -0.0047987 180.76 0.12485 3.2506 0.30763 492.02 534.89 2.4297 1.2517 1.4845 219.88 0.42977 6.4797 0.012243
-33.625 21.056 0.00077709 119.67 119.96 0.69000 570.96 0.0017514 119.38 119.63 0.68865 1.4681 2.2868 1105.4 -0.0047527 178.80 0.12427 3.3770 0.29612 493.09 536.08 2.4273 1.2564 1.4906 220.05 0.42519 6.5060 0.012334
-32.625 21.926 0.00079435 121.96 122.26 0.69954 569.77 0.0017551 121.66 121.93 0.69817 1.4708 2.2918 1098.9 -0.0047061 176.87 0.12370 3.5071 0.28514 494.17 537.27 2.4250 1.2611 1.4968 220.21 0.42070 6.5323 0.012426
-31.625 22.823 0.00081142 124.25 124.56 0.70906 568.58 0.0017588 123.95 124.23 0.70767 1.4735 2.2970 1092.3 -0.0046587 174.97 0.12313 3.6410 0.27465 495.24 538.46 2.4227 1.2659 1.5031 220.36 0.41629 6.5587 0.012519
-30.625 23.749 0.00082827 126.55 126.87 0.71855 567.39 0.0017625 126.24 126.53 0.71714 1.4762 2.3021 1085.8 -0.0046107 173.09 0.12256 3.7787 0.26464 496.31 539.64 2.4205 1.2706 1.5094 220.51 0.41196 6.5850 0.012612
-29.625 24.703 0.00084486 128.85 129.19 0.72803 566.19 0.0017662 128.54 128.84 0.72660 1.4790 2.3074 1079.3 -0.0045619 171.24 0.12200 3.9205 0.25507 497.38 540.83 2.4184 1.2754 1.5157 220.65 0.40772 6.6114 0.012706
-28.625 25.687 0.00086114 131.16 131.51 0.73749 564.99 0.0017699 130.84 131.16 0.73604 1.4818 2.3126 1072.8 -0.0045124 169.42 0.12143 4.0663 0.24592 498.46 542.01 2.4162 1.2802 1.5222 220.79 0.40356 6.6378 0.012800
-27.625 26.700 0.00087707 133.47 133.84 0.74693 563.78 0.0017737 133.15 133.48 0.74547 1.4846 2.3180 1066.2 -0.0044621 167.62 0.12087 4.2163 0.23717 499.53 543.19 2.4142 1.2850 1.5286 220.91 0.39947 6.6642 0.012894
-26.625 27.743 0.00089261 135.79 136.17 0.75635 562.57 0.0017775 135.47 135.81 0.75487 1.4874 2.3234 1059.7 -0.0044111 165.84 0.12031 4.3705 0.22881 500.60 544.37 2.4122 1.2899 1.5352 221.03 0.39547 6.6906 0.012989
-25.625 28.817 0.00090771 138.11 138.51 0.76575 561.36 0.0017814 137.78 138.14 0.76426 1.4902 2.3289 1053.2 -0.0043593 164.09 0.11975 4.5290 0.22080 501.68 545.55 2.4102 1.2947 1.5418 221.14 0.39154 6.7171 0.013084
-24.625 29.923 0.00092232 140.44 140.85 0.77514 560.14 0.0017853 140.11 140.48 0.77363 1.4931 2.3344 1046.7 -0.0043067 162.36 0.11919 4.6918 0.21314 502.75 546.72 2.4083 1.2996 1.5485 221.25 0.38768 6.7436 0.013180
-23.625 31.061 0.00093638 142.77 143.20 0.78450 558.92 0.0017892 142.44 142.82 0.78298 1.4960 2.3400 1040.1 -0.0042533 160.65 0.11863 4.8592 0.20580 503.82 547.90 2.4064 1.3045 1.5552 221.35 0.38391 6.7701 0.013277
-22.625 32.232 0.00094985 145.11 145.55 0.79385 557.69 0.0017931 144.77 145.17 0.79232 1.4990 2.3457 1033.6 -0.0041990 158.97 0.11807 5.0311 0.19877 504.90 549.07 2.4045 1.3095 1.5621 221.44 0.38020 6.7967 0.013374
-21.625 33.435 0.00096266 147.45 147.91 0.80319 556.46 0.0017971 147.11 147.52 0.80164 1.5019 2.3514 1027.1 -0.0041439 157.30 0.11752 5.2076 0.19203 505.97 550.24 2.4027 1.3144 1.5690 221.52 0.37656 6.8232 0.013471
-20.625 34.673 0.00097476 149.80 150.28 0.81250 555.23 0.0018011 149.45 149.88 0.81095 1.5049 2.3572 1020.6 -0.0040879 155.66 0.11697 5.3889 0.18557 507.04 551.40 2.4010 1.3194 1.5759 221.59 0.37300 6.8499 0.013569
-19.625 35.946 0.00098608 152.16 152.65 0.82180 553.99 0.0018051 151.80 152.25 0.82024 1.5079 2.3630 1014.0 -0.0040311 154.04 0.11642 5.5750 0.17937 508.11 552.57 2.3992 1.3244 1.5829 221.66 0.36950 6.8765 0.013668
-18.625 37.253 0.00099656 154.51 155.02 0.83108 552.74 0.0018092 154.16 154.62 0.82952 1.5109 2.3689 1007.5 -0.0039733 152.44 0.11587 5.7660 0.17343 509.19 553.73 2.3976 1.3294 1.5901 221.72 0.36608 6.9032 0.013767
-17.625 38.596 0.0010061 156.88 157.40 0.84035 551.49 0.0018133 156.52 157.00 0.83878 1.5140 2.3749 1001.0 -0.0039145 150.86 0.11532 5.9621 0.16773 510.26 554.89 2.3959 1.3345 1.5972 221.77 0.36272 6.9300 0.013867
-16.625 39.976 0.0010147 159.24 159.79 0.84960 550.24 0.0018174 158.89 159.39 0.84803 1.5171 2.3810 994.44 -0.0038549 149.29 0.11478 6.1632 0.16225 511.33 556.05 2.3943 1.3395 1.6045 221.81 0.35942 6.9568 0.013968
-15.625 41.392 0.0010223 161.62 162.18 0.85883 548.98 0.0018216 161.26 161.78 0.85726 1.5202 2.3871 987.91 -0.0037942 147.75 0.11423 6.3696 0.15700 512.40 557.20 2.3927 1.3446 1.6119 221.85 0.35619 6.9836 0.014069
-14.625 42.846 0.0010287 164.00 164.58 0.86805 547.71 0.0018258 163.64 164.18 0.86649 1.5233 2.3933 981.37 -0.0037325 146.22 0.11369 6.5812 0.15195 513.47 558.36 2.3912 1.3497 1.6193 221.87 0.35302 7.0105 0.014170
-13.625 44.338 0.0010338 166.38 166.99 0.87726 546.44 0.0018300 166.02 166.58 0.87569 1.5264 2.3996 974.83 -0.0036698 144.72 0.11315 6.7983 0.14710 514.54 559.51 2.3897 1.3549 1.6268 221.89 0.34992 7.0375 0.014273
-12.625 45.870 0.0010377 168.77 169.40 0.88645 545.17 0.0018343 168.41 168.99 0.88489 1.5296 2.4059 968.29 -0.0036061 143.23 0.11261 7.0208 0.14243 515.61 560.65 2.3883 1.3600 1.6344 221.90 0.34688 7.0646 0.014376
-11.625 47.440 0.0010402 171.17 171.81 0.89562 543.89 0.0018386 170.81 171.41 0.89407 1.5328 2.4124 961.75 -0.0035413 141.76 0.11208 7.2490 0.13795 516.68 561.80 2.3868 1.3652 1.6421 221.91 0.34389 7.0917 0.014479
-10.625 49.051 0.0010413 173.57 174.24 0.90478 542.60 0.0018430 173.21 173.83 0.90324 1.5360 2.4189 955.20 -0.0034753 140.30 0.11154 7.4829 0.13364 517.75 562.94 2.3854 1.3704 1.6498 221.90 0.34097 7.1188 0.014584
-9.6250 50.703 0.0010407 175.97 176.66 0.91393 541.31 0.0018474 175.61 176.26 0.91240 1.5393 2.4255 948.65 -0.0034082 138.86 0.11101 7.7226 0.12949 518.81 564.08 2.3841 1.3757 1.6577 221.88 0.33810 7.1461 0.014689
-8.6250 52.396 0.0010385 178.38 179.10 0.92306 540.02 0.0018518 178.03 178.70 0.92154 1.5426 2.4321 942.10 -0.0033400 137.44 0.11048 7.9683 0.12550 519.88 565.21 2.3827 1.3809 1.6657 221.86 0.33529 7.1734 0.014795
-7.6250 54.131 0.0010345 180.80 181.54 0.93218 538.72 0.0018563 180.45 181.14 0.93068 1.5459 2.4389 935.55 -0.0032705 136.03 0.10995 8.2200 0.12165 520.94 566.35 2.3814 1.3862 1.6737 221.83 0.33254 7.2008 0.014902
-6.6250 55.909 0.0010286 183.22 183.99 0.94129 537.41 0.0018608 182.87 183.59 0.93980 1.5492 2.4457 928.99 -0.0031998 134.64 0.10942 8.4779 0.11795 522.01 567.48 2.3801 1.3915 1.6819 221.79 0.32984 7.2284 0.015009
-5.6250 57.730 0.0010207 185.65 186.44 0.95038 536.10 0.0018653 185.30 186.05 0.94892 1.5525 2.4526 922.43 -0.0031279 133.27 0.10889 8.7420 0.11439 523.07 568.60 2.3789 1.3969 1.6902 221.74 0.32720 7.2560 0.015117
-4.6250 59.595 0.0010107 188.08 188.90 0.95946 534.78 0.0018699 187.74 188.51 0.95802 1.5559 2.4596 915.87 -0.0030546 131.91 0.10837 9.0126 0.11096 524.13 569.72 2.3777 1.4022 1.6985 221.68 0.32461 7.2837 0.015226
-3.6250 61.505 0.00099846 190.52 191.36 0.96852 533.45 0.0018746 190.19 190.98 0.96711 1.5593 2.4667 909.30 -0.0029800 130.56 0.10785 9.2896 0.10765 525.19 570.84 2.3765 1.4076 1.7070 221.62 0.32207 7.3115 0.015336
-2.6250 63.461 0.00098383 192.97 193.83 0.97757 532.12 0.0018793 192.64 193.46 0.97620 1.5627 2.4739 902.73 -0.0029041 129.23 0.10733 9.5733 0.10446 526.25 571.96 2.3753 1.4131 1.7156 221.54 0.31958 7.3394 0.015447
-1.6250 65.462 0.00096669 195.42 196.31 0.98662 530.78 0.0018840 195.10 195.95 0.98527 1.5662 2.4811 896.16 -0.0028267 127.91 0.10681 9.8638 0.10138 527.31 573.07 2.3742 1.4185 1.7243 221.45 0.31715 7.3674 0.015559
-0.62500 67.510 0.00094690 197.87 198.79 0.99564 529.44 0.0018888 197.56 198.44 0.99434 1.5696 2.4885 889.58 -0.0027478 126.61 0.10629 10.161 0.098414 528.37 574.18 2.3731 1.4240 1.7331 221.36 0.31476 7.3956 0.015671
0.37500 69.606 0.00092431 200.33 201.28 1.0047 528.09 0.0018936 200.03 200.94 1.0034 1.5731 2.4960 883.00 -0.0026675 125.32 0.10578 10.466 0.095552 529.42 575.28 2.3720 1.4295 1.7421 221.26 0.31242 7.4239 0.015785
1.3750 71.749 0.00089876 202.80 203.78 1.0137 526.73 0.0018985 202.51 203.45 1.0124 1.5767 2.5035 876.42 -0.0025856 124.04 0.10527 10.777 0.092790 530.48 576.38 2.3709 1.4350 1.7512 221.14 0.31013 7.4523 0.015899
2.3750 73.941 0.00087010 205.27 206.28 1.0227 525.37 0.0019034 204.99 205.96 1.0215 1.5802 2.5112 869.83 -0.0025022 122.78 0.10476 11.096 0.090123 531.53 577.47 2.3699 1.4406 1.7604 221.02 0.30789 7.4808 0.016015
3.3750 76.183 0.00083816 207.75 208.79 1.0316 523.99 0.0019084 207.48 208.48 1.0305 1.5838 2.5190 863.24 -0.0024171 121.53 0.10425 11.422 0.087549 532.58 578.56 2.3688 1.4462 1.7697 220.89 0.30569 7.5095 0.016131
4.3750 78.475 0.00080275 210.24 211.31 1.0406 522.62 0.0019134 209.98 211.01 1.0395 1.5874 2.5268 856.64 -0.0023303 120.29 0.10374 11.756 0.085062 533.63 579.65 2.3678 1.4518 1.7792 220.75 0.30354 7.5384 0.016249
5.3750 80.817 0.00076371 212.73 213.83 1.0496 521.23 0.0019185 212.48 213.55 1.0486 1.5910 2.5348 850.04 -0.0022417 119.06 0.10324 12.098 0.082660 534.67 580.73 2.3669 1.4575 1.7888 220.60 0.30144 7.5674 0.016368
6.3750 83.211 0.00072083 215.23 216.36 1.0585 519.84 0.0019237 215.00 216.10 1.0576 1.5946 2.5429 843.43 -0.0021514 117.85 0.10273 12.447 0.080340 535.72 581.81 2.3659 1.4632 1.7986 220.44 0.29938 7.5966 0.016487
7.3750 85.657 0.00067391 217.73 218.90 1.0675 518.44 0.0019289 217.51 218.65 1.0666 1.5983 2.5511 836.82 -0.0020593 116.65 0.10223 12.805 0.078096 536.76 582.88 2.3650 1.4689 1.8085 220.27 0.29736 7.6259 0.016608
8.3750 88.156 0.00062274 220.24 221.44 1.0764 517.03 0.0019341 220.04 221.22 1.0756 1.6020 2.5595 830.20 -0.0019652 115.46 0.10173 13.170 0.075928 537.80 583.95 2.3640 1.4746 1.8186 220.08 0.29538 7.6555 0.016730
9.3750 90.708 0.00056711 222.75 223.99 1.0853 515.62 0.0019394 222.57 223.79 1.0846 1.6057 2.5679 823.58 -0.0018691 114.28 0.10124 13.545 0.073830 538.84 585.01 2.3631 1.4804 1.8288 219.89 0.29345 7.6852 0.016853
10.375 93.315 0.00050678 225.27 226.55 1.0942 514.19 0.0019448 225.11 226.37 1.0936 1.6095 2.5765 816.96 -0.0017710 113.11 0.10074 13.927 0.071802 539.87 586.07 2.3622 1.4863 1.8392 219.69 0.29156 7.7151 0.016978
11.375 95.977 0.00044151 227.80 229.11 1.1031 512.76 0.0019502 227.66 228.95 1.1025 1.6132 2.5852 810.32 -0.0016708 111.95 0.10025 14.319 0.069840 540.90 587.12 2.3614 1.4921 1.8498 219.48 0.28971 7.7452 0.017103
12.375 98.694 0.00037105 230.33 231.68 1.1120 511.32 0.0019557 230.22 231.55 1.1115 1.6170 2.5940 803.68 -0.0015685 110.80 0.099756 14.719 0.067941 541.93 588.17 2.3605 1.4980 1.8605 219.26 0.28790 7.7756 0.017230
13.375 101.47 0.00029514 232.87 234.26 1.1209 509.87 0.0019613 232.78 234.15 1.1205 1.6208 2.6030 797.04 -0.0014639 109.67 0.099267 15.128 0.066103 542.96 589.21 2.3597 1.5040 1.8715 219.03 0.28612 7.8061 0.017359
14.375 104.30 0.00021349 235.42 236.84 1.1297 508.42 0.0019669 235.35 236.77 1.1295 1.6247 2.6121 790.39 -0.0013569 108.54 0.098779 15.547 0.064323 543.99 590.24 2.3588 1.5099 1.8826 218.79 0.28439 7.8369 0.017488
15.375 107.19 0.00012581 237.97 239.43 1.1386 506.95 0.0019726 237.93 239.39 1.1384 1.6286 2.6214 783.73 -0.0012476 107.43 0.098294 15.974 0.062600 545.01 591.27 2.3580 1.5159 1.8940 218.53 0.28270 7.8680 0.017619
16.375 110.13 3.1809e-05 240.53 242.03 1.1474 505.48 0.0019783 240.52 242.02 1.1474 1.6324 2.6308 777.07 -0.0011357 106.32 0.097810 16.412 0.060931 546.03 592.29 2.3572 1.5220 1.9055 218.27 0.28104 7.8993 0.017752
17.375 167.29 undefined 242.46 244.75 1.1541 505.00 0.0019802 242.46 244.75 1.1541 1.6362 2.6311 776.98 -0.0011446 105.97 0.097721 505.00 0.0019802 242.46 244.75 1.1541 1.6362 2.6311 776.98 -0.0011446 105.97 0.097721
18.375 250.34 undefined 244.10 247.52 1.1597 505.00 0.0019802 244.10 247.52 1.1597 1.6399 2.6272 779.99 -0.0012105 105.97 0.097820 505.00 0.0019802 244.10 247.52 1.1597 1.6399 2.6272 779.99 -0.0012105 105.97 0.097820
19.375 333.41 undefined 245.74 250.29 1.1654 505.00 0.0019802 245.74 250.29 1.1654 1.6437 2.6236 782.98 -0.0012748 105.98 0.097919 505.00 0.0019802 245.74 250.29 1.1654 1.6437 2.6236 782.98 -0.0012748 105.98 0.097919
20.375 416.50 undefined 247.39 253.07 1.1710 505.00 0.0019802 247.39 253.07 1.1710 1.6474 2.6201 785.92 -0.0013376 105.98 0.098019 505.00 0.0019802 247.39 253.07 1.1710 1.6474 2.6201 785.92 -0.0013376 105.98 0.098019
21.375 499.60 undefined 249.04 255.86 1.1766 505.00 0.0019802 249.04 255.86 1.1766 1.6512 2.6167 788.84 -0.0013989 105.99 0.098119 505.00 0.0019802 249.04 255.86 1.1766 1.6512 2.6167 788.84 -0.0013989 105.99 0.098119
22.375 582.70 undefined 250.69 258.65 1.1822 505.00 0.0019802 250.69 258.65 1.1822 1.6549 2.6136 791.72 -0.0014588 105.99 0.098219 505.00 0.0019802 250.69 258.65 1.1822 1.6549 2.6136 791.72 -0.0014588 105.99 0.098219
23.375 665.81 undefined 252.35 261.44 1.1878 505.00 0.0019802 252.35 261.44 1.1878 1.6587 2.6106 794.57 -0.0015172 106.00 0.098320 505.00 0.0019802 252.35 261.44 1.1878 1.6587 2.6106 794.57 -0.0015172 106.00 0.098320
24.375 748.93 undefined 254.01 264.23 1.1934 505.00 0.0019802 254.01 264.23 1.1934 1.6626 2.6078 797.39 -0.0015744 106.00 0.098421 505.00 0.0019802 254.01 264.23 1.1934 1.6626 2.6078 797.39 -0.0015744 106.00 0.098421
25.375 832.05 undefined 255.67 267.03 1.1990 505.00 0.0019802 255.67 267.03 1.1990 1.6664 2.6051 800.18 -0.0016302 106.01 0.098522 505.00 0.0019802 255.67 267.03 1.1990 1.6664 2.6051 800.18 -0.0016302 106.01 0.098522
26.375 915.18 undefined 257.34 269.84 1.2045 505.00 0.0019802 257.34 269.84 1.2045 1.6702 2.6026 802.94 -0.0016847 106.01 0.098624 505.00 0.0019802 257.34 269.84 1.2045 1.6702 2.6026 802.94 -0.0016847 106.01 0.098624
27.375 998.30 undefined 259.01 272.64 1.2101 505.00 0.0019802 259.01 272.64 1.2101 1.6741 2.6003 805.67 -0.0017381 106.02 0.098726 505.00 0.0019802 259.01 272.64 1.2101 1.6741 2.6003 805.67 -0.0017381 106.02 0.098726
28.375 1081.4 undefined 260.69 275.45 1.2157 505.00 0.0019802 260.69 275.45 1.2157 1.6780 2.5980 808.38 -0.0017902 106.03 0.098828 505.00 0.0019802 260.69 275.45 1.2157 1.6780 2.5980 808.38 -0.0017902 106.03 0.098828
29.375 1164.5 undefined 262.37 278.27 1.2212 505.00 0.0019802 262.37 278.27 1.2212 1.6819 2.5959 811.05 -0.0018413 106.03 0.098931 505.00 0.0019802 262.37 278.27 1.2212 1.6819 2.5959 811.05 -0.0018413 106.03 0.098931
30.375 1247.6 undefined 264.05 281.09 1.2268 505.00 0.0019802 264.05 281.09 1.2268 1.6858 2.5940 813.70 -0.0018912 106.04 0.099034 505.00 0.0019802 264.05 281.09 1.2268 1.6858 2.5940 813.70 -0.0018912 106.04 0.099034
31.375 1330.8 undefined 265.74 283.91 1.2324 505.00 0.0019802 265.74 283.91 1.2324 1.6897 2.5921 816.32 -0.0019400 106.05 0.099137 505.00 0.0019802 265.74 283.91 1.2324 1.6897 2.5921 816.32 -0.0019400 106.05 0.099137
32.375 1413.8 undefined 267.43 286.73 1.2379 505.00 0.0019802 267.43 286.73 1.2379 1.6937 2.5904 818.92 -0.0019878 106.05 0.099241 505.00 0.0019802 267.43 286.73 1.2379 1.6937 2.5904 818.92 -0.0019878 106.05 0.099241
33.375 1496.9 undefined 269.13 289.57 1.2434 505.00 0.0019802 269.13 289.57 1.2434 1.6976 2.5888 821.49 -0.0020346 106.06 0.099345 505.00 0.0019802 269.13 289.57 1.2434 1.6976 2.5888 821.49 -0.0020346 106.06 0.099345
34.375 1580.0 undefined 270.83 292.40 1.2490 505.00 0.0019802 270.83 292.40 1.2490 1.7016 2.5873 824.04 -0.0020804 106.07 0.099449 505.00 0.0019802 270.83 292.40 1.2490 1.7016 2.5873 824.04 -0.0020804 106.07 0.099449
35.375 1663.1 undefined 272.53 295.24 1.2545 505.00 0.0019802 272.53 295.24 1.2545 1.7056 2.5860 826.56 -0.0021252 106.07 0.099554 505.00 0.0019802 272.53 295.24 1.2545 1.7056 2.5860 826.56 -0.0021252 106.07 0.099554
36.375 1746.1 undefined 274.24 298.08 1.2600 505.00 0.0019802 274.24 298.08 1.2600 1.7096 2.5847 829.06 -0.0021692 106.08 0.099659 505.00 0.0019802 274.24 298.08 1.2600 1.7096 2.5847 829.06 -0.0021692 106.08 0.099659
37.375 1829.1 undefined 275.95 300.92 1.2656 505.00 0.0019802 275.95 300.92 1.2656 1.7136 2.5835 831.54 -0.0022122 106.09 0.099764 505.00 0.0019802 275.95 300.92 1.2656 1.7136 2.5835 831.54 -0.0022122 106.09 0.099764
38.375 1912.2 undefined 277.67 303.77 1.2711 505.00 0.0019802 277.67 303.77 1.2711 1.7177 2.5825 833.99 -0.0022543 106.09 0.099869 505.00 0.0019802 277.67 303.77 1.2711 1.7177 2.5825 833.99 -0.0022543 106.09 0.099869
39.375 1995.2 undefined 279.39 306.63 1.2766 505.00 0.0019802 279.39 306.63 1.2766 1.7217 2.5815 836.43 -0.0022956 106.10 0.099975 505.00 0.0019802 279.39 306.63 1.2766 1.7217 2.5815 836.43 -0.0022956 106.10 0.099975
40.375 2078.1 undefined 281.11 309.48 1.2821 505.00 0.0019802 281.11 309.48 1.2821 1.7258 2.5807 838.84 -0.0023360 106.11 0.10008 505.00 0.0019802 281.11 309.48 1.2821 1.7258 2.5807 838.84 -0.0023360 106.11 0.10008
41.375 2161.1 undefined 282.84 312.34 1.2876 505.00 0.0019802 282.84 312.34 1.2876 1.7299 2.5799 841.24 -0.0023757 106.12 0.10019 505.00 0.0019802 282.84 312.34 1.2876 1.7299 2.5799 841.24 -0.0023757 106.12 0.10019
42.375 2244.0 undefined 284.57 315.21 1.2931 505.00 0.0019802 284.57 315.21 1.2931 1.7340 2.5792 843.61 -0.0024145 106.12 0.10029 505.00 0.0019802 284.57 315.21 1.2931 1.7340 2.5792 843.61 -0.0024145 106.12 0.10029
43.375 2326.9 undefined 286.30 318.07 1.2986 505.00 0.0019802 286.30 318.07 1.2986 1.7381 2.5786 845.97 -0.0024526 106.13 0.10040 505.00 0.0019802 286.30 318.07 1.2986 1.7381 2.5786 845.97 -0.0024526 106.13 0.10040
44.375 2409.8 undefined 288.04 320.95 1.3041 505.00 0.0019802 288.04 320.95 1.3041 1.7422 2.5781 848.30 -0.0024899 106.14 0.10051 505.00 0.0019802 288.04 320.95 1.3041 1.7422 2.5781 848.30 -0.0024899 106.14 0.10051
45.375 2492.7 undefined 289.79 323.82 1.3096 505.00 0.0019802 289.79 323.82 1.3096 1.7463 2.5777 850.62 -0.0025265 106.15 0.10062 505.00 0.0019802 289.79 323.82 1.3096 1.7463 2.5777 850.62 -0.0025265 106.15 0.10062
46.375 2575.5 undefined 291.54 326.70 1.3150 505.00 0.0019802 291.54 326.70 1.3150 1.7504 2.5773 852.92 -0.0025624 106.15 0.10072 505.00 0.0019802 291.54 326.70 1.3150 1.7504 2.5773 852.92 -0.0025624 106.15 0.10072
47.375 2658.3 undefined 293.29 329.58 1.3205 505.00 0.0019802 293.29 329.58 1.3205 1.7546 2.5771 855.20 -0.0025976 106.16 0.10083 505.00 0.0019802 293.29 329.58 1.3205 1.7546 2.5771 855.20 -0.0025976 106.16 0.10083
48.375 2741.1 undefined 295.05 332.47 1.3260 505.00 0.0019802 295.05 332.47 1.3260 1.7588 2.5769 857.46 -0.0026320 106.17 0.10094 505.00 0.0019802 295.05 332.47 1.3260 1.7588 2.5769 857.46 -0.0026320 106.17 0.10094
49.375 2823.8 undefined 296.81 335.36 1.3315 505.00 0.0019802 296.81 335.36 1.3315 1.7629 2.5768 859.71 -0.0026659 106.18 0.10105 505.00 0.0019802 296.81 335.36 1.3315 1.7629 2.5768 859.71 -0.0026659 106.18 0.10105
50.375 2906.6 undefined 298.57 338.26 1.3369 505.00 0.0019802 298.57 338.26 1.3369 1.7671 2.5767 861.94 -0.0026990 106.19 0.10116 505.00 0.0019802 298.57 338.26 1.3369 1.7671 2.5767 861.94 -0.0026990 106.19 0.10116
51.375 2989.3 undefined 300.34 341.15 1.3424 505.00 0.0019802 300.34 341.15 1.3424 1.7713 2.5768 864.16 -0.0027316 106.20 0.10127 505.00 0.0019802 300.34 341.15 1.3424 1.7713 2.5768 864.16 -0.0027316 106.20 0.10127
52.375 3071.9 undefined 302.12 344.06 1.3478 505.00 0.0019802 302.12 344.06 1.3478 1.7755 2.5769 866.36 -0.0027635 106.20 0.10138 505.00 0.0019802 302.12 344.06 1.3478 1.7755 2.5769 866.36 -0.0027635 106.20 0.10138
53.375 3154.5 undefined 303.89 346.96 1.3533 505.00 0.0019802 303.89 346.96 1.3533 1.7797 2.5770 868.55 -0.0027948 106.21 0.10149 505.00 0.0019802 303.89 346.96 1.3533 1.7797 2.5770 868.55 -0.0027948 106.21 0.10149
54.375 3237.1 undefined 305.67 349.87 1.3587 505.00 0.0019802 305.67 349.87 1.3587 1.7839 2.5773 870.72 -0.0028255 106.22 0.10160 505.00 0.0019802 305.67 349.87 1.3587 1.7839 2.5773 870.72 -0.0028255 106.22 0.10160
55.375 3319.7 undefined 307.46 352.78 1.3642 505.00 0.0019802 307.46 352.78 1.3642 1.7881 2.5776 872.88 -0.0028556 106.23 0.10171 505.00 0.0019802 307.46 352.78 1.3642 1.7881 2.5776 872.88 -0.0028556 106.23 0.10171
56.375 3402.2 undefined 309.25 355.70 1.3696 505.00 0.0019802 309.25 355.70 1.3696 1.7924 2.5779 875.02 -0.0028852 106.24 0.10182 505.00 0.0019802 309.25 355.70 1.3696 1.7924 2.5779 875.02 -0.0028852 106.24 0.10182
57.375 3484.7 undefined 311.05 358.62 1.3751 505.00 0.0019802 311.05 358.62 1.3751 1.7966 2.5784 877.15 -0.0029142 106.25 0.10193 505.00 0.0019802 311.05 358.62 1.3751 1.7966 2.5784 877.15 -0.0029142 106.25 0.10193
58.375 3567.2 undefined 312.84 361.55 1.3805 505.00 0.0019802 312.84 361.55 1.3805 1.8008 2.5788 879.26 -0.0029427 106.26 0.10204 505.00 0.0019802 312.84 361.55 1.3805 1.8008 2.5788 879.26 -0.0029427 106.26 0.10204
59.375 3649.6 undefined 314.65 364.47 1.3859 505.00 0.0019802 314.65 364.47 1.3859 1.8051 2.5794 881.36 -0.0029706 106.27 0.10216 505.00 0.0019802 314.65 364.47 1.3859 1.8051 2.5794 881.36 -0.0029706 106.27 0.10216
60.375 3732.0 undefined 316.45 367.41 1.3914 505.00 0.0019802 316.45 367.41 1.3914 1.8093 2.5800 883.45 -0.0029980 106.28 0.10227 505.00 0.0019802 316.45 367.41 1.3914 1.8093 2.5800 883.45 -0.0029980 106.28 0.10227
61.375 3814.3 undefined 318.27 370.34 1.3968 505.00 0.0019802 318.27 370.34 1.3968 1.8136 2.5806 885.53 -0.0030249 106.29 0.10238 505.00 0.0019802 318.27 370.34 1.3968 1.8136 2.5806 885.53 -0.0030249 106.29 0.10238
62.375 3896.7 undefined 320.08 373.28 1.4022 505.00 0.0019802 320.08 373.28 1.4022 1.8179 2.5814 887.59 -0.0030513 106.29 0.10249 505.00 0.0019802 320.08 373.28 1.4022 1.8179 2.5814 887.59 -0.0030513 106.29 0.10249
63.375 3978.9 undefined 321.90 376.23 1.4076 505.00 0.0019802 321.90 376.23 1.4076 1.8221 2.5821 889.65 -0.0030772 106.30 0.10261 505.00 0.0019802 321.90 376.23 1.4076 1.8221 2.5821 889.65 -0.0030772 106.30 0.10261
64.375 4061.2 undefined 323.73 379.17 1.4130 505.00 0.0019802 323.73 379.17 1.4130 1.8264 2.5829 891.69 -0.0031026 106.31 0.10272 505.00 0.0019802 323.73 379.17 1.4130 1.8264 2.5829 891.69 -0.0031026 106.31 0.10272
65.375 4143.4 undefined 325.55 382.12 1.4184 505.00 0.0019802 325.55 382.12 1.4184 1.8307 2.5838 893.72 -0.0031275 106.32 0.10284 505.00 0.0019802 325.55 382.12 1.4184 1.8307 2.5838 893.72 -0.0031275 106.32 0.10284
66.375 4225.5 undefined 327.39 385.08 1.4238 505.00 0.0019802 327.39 385.08 1.4238 1.8350 2.5847 895.73 -0.0031520 106.33 0.10295 505.00 0.0019802 327.39 385.08 1.4238 1.8350 2.5847 895.73 -0.0031520 106.33 0.10295
67.375 4307.7 undefined 329.22 388.04 1.4292 505.00 0.0019802 329.22 388.04 1.4292 1.8393 2.5857 897.74 -0.0031760 106.34 0.10306 505.00 0.0019802 329.22 388.04 1.4292 1.8393 2.5857 897.74 -0.0031760 106.34 0.10306
68.375 4389.8 undefined 331.07 391.00 1.4346 505.00 0.0019802 331.07 391.00 1.4346 1.8436 2.5867 899.73 -0.0031996 106.35 0.10318 505.00 0.0019802 331.07 391.00 1.4346 1.8436 2.5867 899.73 -0.0031996 106.35 0.10318
69.375 4471.8 undefined 332.91 393.96 1.4400 505.00 0.0019802 332.91 393.96 1.4400 1.8479 2.5878 901.72 -0.0032228 106.36 0.10329 505.00 0.0019802 332.91 393.96 1.4400 1.8479 2.5878 901.72 -0.0032228 106.36 0.10329
70.375 4553.8 undefined 334.76 396.93 1.4454 505.00 0.0019802 334.76 396.93 1.4454 1.8522 2.5889 903.69 -0.0032455 106.37 0.10341 505.00 0.0019802 334.76 396.93 1.4454 1.8522 2.5889 903.69 -0.0032455 106.37 0.10341
71.375 4635.8 undefined 336.62 399.91 1.4508 505.00 0.0019802 336.62 399.91 1.4508 1.8565 2.5900 905.66 -0.0032678 106.38 0.10352 505.00 0.0019802 336.62 399.91 1.4508 1.8565 2.5900 905.66 -0.0032678 106.38 0.10352
72.375 4717.7 undefined 338.47 402.89 1.4562 505.00 0.0019802 338.47 402.89 1.4562 1.8608 2.5912 907.61 -0.0032897 106.39 0.10364 505.00 0.0019802 338.47 402.89 1.4562 1.8608 2.5912 907.61 -0.0032897 106.39 0.10364
73.375 4799.6 undefined 340.34 405.87 1.4616 505.00 0.0019802 340.34 405.87 1.4616 1.8651 2.5924 909.55 -0.0033112 106.40 0.10376 505.00 0.0019802 340.34 405.87 1.4616 1.8651 2.5924 909.55 -0.0033112 106.40 0.10376
74.375 4881.4 undefined 342.20 408.85 1.4670 505.00 0.0019802 342.20 408.85 1.4670 1.8695 2.5937 911.49 -0.0033323 106.41 0.10387 505.00 0.0019802 342.20 408.85 1.4670 1.8695 2.5937 911.49 -0.0033323 106.41 0.10387
75.375 4963.2 undefined 344.08 411.84 1.4724 505.00 0.0019802 344.08 411.84 1.4724 1.8738 2.5950 913.41 -0.0033530 106.43 0.10399 505.00 0.0019802 344.08 411.84 1.4724 1.8738 2.5950 913.41 -0.0033530 106.43 0.10399
76.375 5045.0 undefined 345.95 414.83 1.4777 505.00 0.0019802 345.95 414.83 1.4777 1.8781 2.5964 915.33 -0.0033734 106.44 0.10411 505.00 0.0019802 345.95 414.83 1.4777 1.8781 2.5964 915.33 -0.0033734 106.44 0.10411
77.375 5126.7 undefined 347.83 417.83 1.4831 505.00 0.0019802 347.83 417.83 1.4831 1.8824 2.5977 917.23 -0.0033933 106.45 0.10422 505.00 0.0019802 347.83 417.83 1.4831 1.8824 2.5977 917.23 -0.0033933 106.45 0.10422
78.375 5208.4 undefined 349.72 420.83 1.4885 505.00 0.0019802 349.72 420.83 1.4885 1.8868 2.5992 919.13 -0.0034129 106.46 0.10434 505.00 0.0019802 349.72 420.83 1.4885 1.8868 2.5992 919.13 -0.0034129 106.46 0.10434
79.375 5290.0 undefined 351.61 423.83 1.4938 505.00 0.0019802 351.61 423.83 1.4938 1.8911 2.6006 921.02 -0.0034322 106.47 0.10446 505.00 0.0019802 351.61 423.83 1.4938 1.8911 2.6006 921.02 -0.0034322 106.47 0.10446
80.375 5371.6 undefined 353.50 426.84 1.4992 505.00 0.0019802 353.50 426.84 1.4992 1.8954 2.6021 922.90 -0.0034511 106.48 0.10458 505.00 0.0019802 353.50 426.84 1.4992 1.8954 2.6021 922.90 -0.0034511 106.48 0.10458
81.375 5453.1 undefined 355.40 429.85 1.5046 505.00 0.0019802 355.40 429.85 1.5046 1.8998 2.6037 924.77 -0.0034696 106.49 0.10470 505.00 0.0019802 355.40 429.85 1.5046 1.8998 2.6037 924.77 -0.0034696 106.49 0.10470
82.375 5534.6 undefined 357.30 432.86 1.5099 505.00 0.0019802 357.30 432.86 1.5099 1.9041 2.6052 926.63 -0.0034879 106.50 0.10482 505.00 0.0019802 357.30 432.86 1.5099 1.9041 2.6052 926.63 -0.0034879 106.50 0.10482
83.375 5616.1 undefined 359.21 435.88 1.5153 505.00 0.0019802 359.21 435.88 1.5153 1.9084 2.6068 928.48 -0.0035057 106.51 0.10494 505.00 0.0019802 359.21 435.88 1.5153 1.9084 2.6068 928.48 -0.0035057 106.51 0.10494
84.375 5697.5 undefined 361.12 438.90 1.5206 505.00 0.0019802 361.12 438.90 1.5206 1.9128 2.6085 930.33 -0.0035233 106.52 0.10505 505.00 0.0019802 361.12 438.90 1.5206 1.9128 2.6085 930.33 -0.0035233 106.52 0.10505
85.375 5778.9 undefined 363.03 441.93 1.5260 505.00 0.0019802 363.03 441.93 1.5260 1.9171 2.6101 932.16 -0.0035405 106.53 0.10517 505.00 0.0019802 363.03 441.93 1.5260 1.9171 2.6101 932.16 -0.0035405 106.53 0.10517
86.375 5860.2 undefined 364.95 444.96 1.5313 505.00 0.0019802 364.95 444.96 1.5313 1.9214 2.6118 933.99 -0.0035575 106.55 0.10529 505.00 0.0019802 364.95 444.96 1.5313 1.9214 2.6118 933.99 -0.0035575 106.55 0.10529
87.375 5941.5 undefined 366.87 447.99 1.5367 505.00 0.0019802 366.87 447.99 1.5367 1.9258 2.6136 935.81 -0.0035741 106.56 0.10541 505.00 0.0019802 366.87 447.99 1.5367 1.9258 2.6136 935.81 -0.0035741 106.56 0.10541
88.375 6022.8 undefined 368.80 451.03 1.5420 505.00 0.0019802 368.80 451.03 1.5420 1.9301 2.6153 937.63 -0.0035904 106.57 0.10554 505.00 0.0019802 368.80 451.03 1.5420 1.9301 2.6153 937.63 -0.0035904 106.57 0.10554
89.375 6104.0 undefined 370.73 454.07 1.5473 505.00 0.0019802 370.73 454.07 1.5473 1.9344 2.6171 939.43 -0.0036064 106.58 0.10566 505.00 0.0019802 370.73 454.07 1.5473 1.9344 2.6171 939.43 -0.0036064 106.58 0.10566
90.375 6185.1 undefined 372.67 457.12 1.5527 505.00 0.0019802 372.67 457.12 1.5527 1.9388 2.6189 941.23 -0.0036221 106.59 0.10578 505.00 0.0019802 372.67 457.12 1.5527 1.9388 2.6189 941.23 -0.0036221 106.59 0.10578
91.375 6266.2 undefined 374.61 460.16 1.5580 505.00 0.0019802 374.61 460.16 1.5580 1.9431 2.6208 943.02 -0.0036376 106.60 0.10590 505.00 0.0019802 374.61 460.16 1.5580 1.9431 2.6208 943.02 -0.0036376 106.60 0.10590
92.375 6347.3 undefined 376.56 463.22 1.5633 505.00 0.0019802 376.56 463.22 1.5633 1.9475 2.6226 944.80 -0.0036527 106.61 0.10602 505.00 0.0019802 376.56 463.22 1.5633 1.9475 2.6226 944.80 -0.0036527 106.61 0.10602
93.375 6428.3 undefined 378.51 466.27 1.5687 505.00 0.0019802 378.51 466.27 1.5687 1.9518 2.6245 946.58 -0.0036676 106.63 0.10614 505.00 0.0019802 378.51 466.27 1.5687 1.9518 2.6245 946.58 -0.0036676 106.63 0.10614
94.375 6509.3 undefined 380.46 469.33 1.5740 505.00 0.0019802 380.46 469.33 1.5740 1.9561 2.6265 948.35 -0.0036822 106.64 0.10627 505.00 0.0019802 380.46 469.33 1.5740 1.9561 2.6265 948.35 -0.0036822 106.64 0.10627
95.375 6590.2 undefined 382.42 472.39 1.5793 505.00 0.0019802 382.42 472.39 1.5793 1.9605 2.6284 950.11 -0.0036966 106.65 0.10639 505.00 0.0019802 382.42 472.39 1.5793 1.9605 2.6284 950.11 -0.0036966 106.65 0.10639
96.375 6671.1 undefined 384.38 475.46 1.5846 505.00 0.0019802 384.38 475.46 1.5846 1.9648 2.6304 951.86 -0.0037107 106.66 0.10651 505.00 0.0019802 384.38 475.46 1.5846 1.9648 2.6304 951.86 -0.0037107 106.66 0.10651
97.375 6752.0 undefined 386.35 478.53 1.5899 505.00 0.0019802 386.35 478.53 1.5899 1.9691 2.6324 953.61 -0.0037245 106.67 0.10664 505.00 0.0019802 386.35 478.53 1.5899 1.9691 2.6324 953.61 -0.0037245 106.67 0.10664
98.375 6832.8 undefined 388.32 481.61 1.5952 505.00 0.0019802 388.32 481.61 1.5952 1.9735 2.6344 955.35 -0.0037381 106.69 0.10676 505.00 0.0019802 388.32 481.61 1.5952 1.9735 2.6344 955.35 -0.0037381 106.69 0.10676
99.375 6913.5 undefined 390.30 484.69 1.6006 505.00 0.0019802 390.30 484.69 1.6006 1.9778 2.6365 957.08 -0.0037514 106.70 0.10688 505.00 0.0019802 390.30 484.69 1.6006 1.9778 2.6365 957.08 -0.0037514 106.70 0.10688
100.38 6994.2 undefined 392.28 487.77 1.6059 505.00 0.0019802 392.28 487.77 1.6059 1.9821 2.6385 958.81 -0.0037645 106.71 0.10701 505.00 0.0019802 392.28 487.77 1.6059 1.9821 2.6385 958.81 -0.0037645 106.71 0.10701
101.38 7074.9 undefined 394.26 490.85 1.6112 505.00 0.0019802 394.26 490.85 1.6112 1.9865 2.6406 960.53 -0.0037774 106.72 0.10713 505.00 0.0019802 394.26 490.85 1.6112 1.9865 2.6406 960.53 -0.0037774 106.72 0.10713
102.38 7155.5 undefined 396.25 493.94 1.6165 505.00 0.0019802 396.25 493.94 1.6165 1.9908 2.6427 962.24 -0.0037900 106.74 0.10726 505.00 0.0019802 396.25 493.94 1.6165 1.9908 2.6427 962.24 -0.0037900 106.74 0.10726
103.38 7236.1 undefined 398.24 497.04 1.6218 505.00 0.0019802 398.24 497.04 1.6218 1.9951 2.6449 963.95 -0.0038024 106.75 0.10738 505.00 0.0019802 398.24 497.04 1.6218 1.9951 2.6449 963.95 -0.0038024 106.75 0.10738
104.38 7316.6 undefined 400.24 500.13 1.6271 505.00 0.0019802 400.24 500.13 1.6271 1.9995 2.6470 965.65 -0.0038146 106.76 0.10751 505.00 0.0019802 400.24 500.13 1.6271 1.9995 2.6470 965.65 -0.0038146 106.76 0.10751
105.38 7397.1 undefined 402.24 503.23 1.6324 505.00 0.0019802 402.24 503.23 1.6324 2.0038 2.6492 967.35 -0.0038265 106.77 0.10763 505.00 0.0019802 402.24 503.23 1.6324 2.0038 2.6492 967.35 -0.0038265 106.77 0.10763
106.38 7477.6 undefined 404.25 506.34 1.6377 505.00 0.0019802 404.25 506.34 1.6377 2.0081 2.6514 969.04 -0.0038382 106.79 0.10776 505.00 0.0019802 404.25 506.34 1.6377 2.0081 2.6514 969.04 -0.0038382 106.79 0.10776
107.38 7558.0 undefined 406.26 509.44 1.6429 505.00 0.0019802 406.26 509.44 1.6429 2.0124 2.6536 970.72 -0.0038497 106.80 0.10788 505.00 0.0019802 406.26 509.44 1.6429 2.0124 2.6536 970.72 -0.0038497 106.80 0.10788
108.38 7638.3 undefined 408.27 512.56 1.6482 505.00 0.0019802 408.27 512.56 1.6482 2.0167 2.6558 972.39 -0.0038610 106.81 0.10801 505.00 0.0019802 408.27 512.56 1.6482 2.0167 2.6558 972.39 -0.0038610 106.81 0.10801
109.38 7718.6 undefined 410.29 515.67 1.6535 505.00 0.0019802 410.29 515.67 1.6535 2.0211 2.6581 974.07 -0.0038721 106.82 0.10814 505.00 0.0019802 410.29 515.67 1.6535 2.0211 2.6581 974.07 -0.0038721 106.82 0.10814
110.38 7798.9 undefined 412.31 518.79 1.6588 505.00 0.0019802 412.31 518.79 1.6588 2.0254 2.6604 975.73 -0.0038830 106.84 0.10827 505.00 0.0019802 412.31 518.79 1.6588 2.0254 2.6604 975.73 -0.0038830 106.84 0.10827
111.38 7879.1 undefined 414.34 521.91 1.6641 505.00 0.0019802 414.34 521.91 1.6641 2.0297 2.6626 977.39 -0.0038937 106.85 0.10840 505.00 0.0019802 414.34 521.91 1.6641 2.0297 2.6626 977.39 -0.0038937 106.85 0.10840
112.38 7959.2 undefined 416.37 525.04 1.6694 505.00 0.0019802 416.37 525.04 1.6694 2.0340 2.6650 979.04 -0.0039042 106.86 0.10853 505.00 0.0019802 416.37 525.04 1.6694 2.0340 2.6650 979.04 -0.0039042 106.86 0.10853
113.38 8039.4 undefined 418.41 528.17 1.6746 505.00 0.0019802 418.41 528.17 1.6746 2.0383 2.6673 980.69 -0.0039145 106.87 0.10866 505.00 0.0019802 418.41 528.17 1.6746 2.0383 2.6673 980.69 -0.0039145 106.87 0.10866
114.38 8119.4 undefined 420.45 531.30 1.6799 505.00 0.0019802 420.45 531.30 1.6799 2.0426 2.6696 982.33 -0.0039246 106.89 0.10879 505.00 0.0019802 420.45 531.30 1.6799 2.0426 2.6696 982.33 -0.0039246 106.89 0.10879
115.38 8199.5 undefined 422.49 534.44 1.6852 505.00 0.0019802 422.49 534.44 1.6852 2.0469 2.6720 983.96 -0.0039346 106.90 0.10892 505.00 0.0019802 422.49 534.44 1.6852 2.0469 2.6720 983.96 -0.0039346 106.90 0.10892
116.38 8279.5 undefined 424.54 537.58 1.6904 505.00 0.0019802 424.54 537.58 1.6904 2.0512 2.6743 985.59 -0.0039443 106.91 0.10905 505.00 0.0019802 424.54 537.58 1.6904 2.0512 2.6743 985.59 -0.0039443 106.91 0.10905
117.38 8359.4 undefined 426.60 540.73 1.6957 505.00 0.0019802 426.60 540.73 1.6957 2.0555 2.6767 987.22 -0.0039539 106.93 0.10918 505.00 0.0019802 426.60 540.73 1.6957 2.0555 2.6767 987.22 -0.0039539 106.93 0.10918
118.38 8439.3 undefined 428.65 543.88 1.7010 505.00 0.0019802 428.65 543.88 1.7010 2.0598 2.6791 988.84 -0.0039633 106.94 0.10931 505.00 0.0019802 428.65 543.88 1.7010 2.0598 2.6791 988.84 -0.0039633 106.94 0.10931
119.38 8519.1 undefined 430.72 547.03 1.7062 505.00 0.0019802 430.72 547.03 1.7062 2.0641 2.6816 990.45 -0.0039725 106.95 0.10944 505.00 0.0019802 430.72 547.03 1.7062 2.0641 2.6816 990.45 -0.0039725 106.95 0.10944
120.38 8598.9 undefined 432.78 550.18 1.7115 505.00 0.0019802 432.78 550.18 1.7115 2.0684 2.6840 992.06 -0.0039815 106.97 0.10957 505.00 0.0019802 432.78 550.18 1.7115 2.0684 2.6840 992.06 -0.0039815 106.97 0.10957
121.38 8678.7 undefined 434.85 553.34 1.7167 505.00 0.0019802 434.85 553.34 1.7167 2.0727 2.6864 993.66 -0.0039904 106.98 0.10970 505.00 0.0019802 434.85 553.34 1.7167 2.0727 2.6864 993.66 -0.0039904 106.98 0.10970
122.38 8758.4 undefined 436.93 556.51 1.7220 505.00 0.0019802 436.93 556.51 1.7220 2.0770 2.6889 995.26 -0.0039991 106.99 0.10983 505.00 0.0019802 436.93 556.51 1.7220 2.0770 2.6889 995.26 -0.0039991 106.99 0.10983
123.38 8838.1 undefined 439.01 559.67 1.7272 505.00 0.0019802 439.01 559.67 1.7272 2.0812 2.6914 996.85 -0.0040077 107.01 0.10997 505.00 0.0019802 439.01 559.67 1.7272 2.0812 2.6914 996.85 -0.0040077 107.01 0.10997
124.38 8917.7 undefined 441.09 562.84 1.7325 505.00 0.0019802 441.09 562.84 1.7325 2.0855 2.6939 998.44 -0.0040161 107.02 0.11010 505.00 0.0019802 441.09 562.84 1.7325 2.0855 2.6939 998.44 -0.0040161 107.02 0.11010
125.38 8997.3 undefined 443.18 566.02 1.7377 505.00 0.0019802 443.18 566.02 1.7377 2.0898 2.6964 1000.0 -0.0040243 107.03 0.11023 505.00 0.0019802 443.18 566.02 1.7377 2.0898 2.6964 1000.0 -0.0040243 107.03 0.11023
126.38 9076.8 undefined 445.27 569.19 1.7430 505.00 0.0019802 445.27 569.19 1.7430 2.0941 2.6989 1001.6 -0.0040324 107.05 0.11037 505.00 0.0019802 445.27 569.19 1.7430 2.0941 2.6989 1001.6 -0.0040324 107.05 0.11037
127.38 9156.3 undefined 447.37 572.38 1.7482 505.00 0.0019802 447.37 572.38 1.7482 2.0983 2.7014 1003.2 -0.0040403 107.06 0.11050 505.00 0.0019802 447.37 572.38 1.7482 2.0983 2.7014 1003.2 -0.0040403 107.06 0.11050
128.38 9235.7 undefined 449.47 575.56 1.7535 505.00 0.0019802 449.47 575.56 1.7535 2.1026 2.7039 1004.7 -0.0040481 107.07 0.11063 505.00 0.0019802 449.47 575.56 1.7535 2.1026 2.7039 1004.7 -0.0040481 107.07 0.11063
129.38 9315.1 undefined 451.57 578.75 1.7587 505.00 0.0019802 451.57 578.75 1.7587 2.1069 2.7065 1006.3 -0.0040557 107.09 0.11077 505.00 0.0019802 451.57 578.75 1.7587 2.1069 2.7065 1006.3 -0.0040557 107.09 0.11077
130.38 9394.5 undefined 453.68 581.94 1.7639 505.00 0.0019802 453.68 581.94 1.7639 2.1111 2.7090 1007.9 -0.0040632 107.10 0.11090 505.00 0.0019802 453.68 581.94 1.7639 2.1111 2.7090 1007.9 -0.0040632 107.10 0.11090
131.38 9473.8 undefined 455.79 585.14 1.7692 505.00 0.0019802 455.79 585.14 1.7692 2.1154 2.7116 1009.4 -0.0040706 107.12 0.11104 505.00 0.0019802 455.79 585.14 1.7692 2.1154 2.7116 1009.4 -0.0040706 107.12 0.11104
132.38 9553.0 undefined 457.91 588.34 1.7744 505.00 0.0019802 457.91 588.34 1.7744 2.1196 2.7142 1011.0 -0.0040778 107.13 0.11117 505.00 0.0019802 457.91 588.34 1.7744 2.1196 2.7142 1011.0 -0.0040778 107.13 0.11117
133.38 9632.2 undefined 460.03 591.54 1.7796 505.00 0.0019802 460.03 591.54 1.7796 2.1239 2.7168 1012.5 -0.0040848 107.14 0.11131 505.00 0.0019802 460.03 591.54 1.7796 2.1239 2.7168 1012.5 -0.0040848 107.14 0.11131
134.38 9711.4 undefined 462.16 594.75 1.7848 505.00 0.0019802 462.16 594.75 1.7848 2.1281 2.7194 1014.0 -0.0040918 107.16 0.11144 505.00 0.0019802 462.16 594.75 1.7848 2.1281 2.7194 1014.0 -0.0040918 107.16 0.11144
135.38 9790.5 undefined 464.29 597.96 1.7901 505.00 0.0019802 464.29 597.96 1.7901 2.1324 2.7220 1015.6 -0.0040986 107.17 0.11158 505.00 0.0019802 464.29 597.96 1.7901 2.1324 2.7220 1015.6 -0.0040986 107.17 0.11158
136.38 9869.6 undefined 466.42 601.17 1.7953 505.00 0.0019802 466.42 601.17 1.7953 2.1366 2.7247 1017.1 -0.0041053 107.19 0.11171 505.00 0.0019802 466.42 601.17 1.7953 2.1366 2.7247 1017.1 -0.0041053 107.19 0.11171
137.38 9948.6 undefined 468.56 604.39 1.8005 505.00 0.0019802 468.56 604.39 1.8005 2.1408 2.7273 1018.6 -0.0041118 107.20 0.11185 505.00 0.0019802 468.56 604.39 1.8005 2.1408 2.7273 1018.6 -0.0041118 107.20 0.11185
138.38 10028. undefined 470.70 607.61 1.8057 505.00 0.0019802 470.70 607.61 1.8057 2.1451 2.7299 1020.1 -0.0041182 107.21 0.11199 505.00 0.0019802 470.70 607.61 1.8057 2.1451 2.7299 1020.1 -0.0041182 107.21 0.11199
139.38 10107. undefined 472.85 610.84 1.8109 505.00 0.0019802 472.85 610.84 1.8109 2.1493 2.7326 1021.7 -0.0041245 107.23 0.11212 505.00 0.0019802 472.85 610.84 1.8109 2.1493 2.7326 1021.7 -0.0041245 107.23 0.11212
140.38 10185. undefined 475.00 614.06 1.8161 505.00 0.0019802 475.00 614.06 1.8161 2.1535 2.7353 1023.2 -0.0041307 107.24 0.11226 505.00 0.0019802 475.00 614.06 1.8161 2.1535 2.7353 1023.2 -0.0041307 107.24 0.11226
141.38 10264. undefined 477.16 617.30 1.8213 505.00 0.0019802 477.16 617.30 1.8213 2.1577 2.7379 1024.7 -0.0041368 107.26 0.11240 505.00 0.0019802 477.16 617.30 1.8213 2.1577 2.7379 1024.7 -0.0041368 107.26 0.11240
142.38 10343. undefined 479.32 620.53 1.8265 505.00 0.0019802 479.32 620.53 1.8265 2.1620 2.7406 1026.2 -0.0041427 107.27 0.11254 505.00 0.0019802 479.32 620.53 1.8265 2.1620 2.7406 1026.2 -0.0041427 107.27 0.11254
143.38 10422. undefined 481.48 623.77 1.8317 505.00 0.0019802 481.48 623.77 1.8317 2.1662 2.7433 1027.7 -0.0041485 107.28 0.11267 505.00 0.0019802 481.48 623.77 1.8317 2.1662 2.7433 1027.7 -0.0041485 107.28 0.11267
144.38 10501. undefined 483.65 627.01 1.8369 505.00 0.0019802 483.65 627.01 1.8369 2.1704 2.7460 1029.2 -0.0041542 107.30 0.11281 505.00 0.0019802 483.65 627.01 1.8369 2.1704 2.7460 1029.2 -0.0041542 107.30 0.11281
145.38 10579. undefined 485.82 630.26 1.8421 505.00 0.0019802 485.82 630.26 1.8421 2.1746 2.7487 1030.7 -0.0041598 107.31 0.11295 505.00 0.0019802 485.82 630.26 1.8421 2.1746 2.7487 1030.7 -0.0041598 107.31 0.11295
146.38 10658. undefined 488.00 633.51 1.8473 505.00 0.0019802 488.00 633.51 1.8473 2.1788 2.7514 1032.1 -0.0041653 107.33 0.11309 505.00 0.0019802 488.00 633.51 1.8473 2.1788 2.7514 1032.1 -0.0041653 107.33 0.11309
147.38 10736. undefined 490.18 636.77 1.8525 505.00 0.0019802 490.18 636.77 1.8525 2.1830 2.7542 1033.6 -0.0041707 107.34 0.11323 505.00 0.0019802 490.18 636.77 1.8525 2.1830 2.7542 1033.6 -0.0041707 107.34 0.11323
148.38 10815. undefined 492.37 640.02 1.8577 505.00 0.0019802 492.37 640.02 1.8577 2.1872 2.7569 1035.1 -0.0041760 107.36 0.11337 505.00 0.0019802 492.37 640.02 1.8577 2.1872 2.7569 1035.1 -0.0041760 107.36 0.11337
149.38 10893. undefined 494.56 643.28 1.8629 505.00 0.0019802 494.56 643.28 1.8629 2.1914 2.7596 1036.6 -0.0041811 107.37 0.11351 505.00 0.0019802 494.56 643.28 1.8629 2.1914 2.7596 1036.6 -0.0041811 107.37 0.11351
150.38 10972. undefined 496.75 646.55 1.8681 505.00 0.0019802 496.75 646.55 1.8681 2.1955 2.7624 1038.0 -0.0041862 107.39 0.11365 505.00 0.0019802 496.75 646.55 1.8681 2.1955 2.7624 1038.0 -0.0041862 107.39 0.11365
151.38 11050. undefined 498.95 649.82 1.8733 505.00 0.0019802 498.95 649.82 1.8733 2.1997 2.7651 1039.5 -0.0041912 107.40 0.11379 505.00 0.0019802 498.95 649.82 1.8733 2.1997 2.7651 1039.5 -0.0041912 107.40 0.11379
152.38 11129. undefined 501.15 653.09 1.8784 505.00 0.0019802 501.15 653.09 1.8784 2.2039 2.7679 1041.0 -0.0041960 107.42 0.11393 505.00 0.0019802 501.15 653.09 1.8784 2.2039 2.7679 1041.0 -0.0041960 107.42 0.11393
153.38 11207. undefined 503.35 656.36 1.8836 505.00 0.0019802 503.35 656.36 1.8836 2.2081 2.7707 1042.4 -0.0042008 107.43 0.11407 505.00 0.0019802 503.35 656.36 1.8836 2.2081 2.7707 1042.4 -0.0042008 107.43 0.11407
154.38 11285. undefined 505.56 659.64 1.8888 505.00 0.0019802 505.56 659.64 1.8888 2.2122 2.7734 1043.9 -0.0042055 107.44 0.11421 505.00 0.0019802 505.56 659.64 1.8888 2.2122 2.7734 1043.9 -0.0042055 107.44 0.11421
155.38 11363. undefined 507.78 662.92 1.8940 505.00 0.0019802 507.78 662.92 1.8940 2.2164 2.7762 1045.3 -0.0042100 107.46 0.11436 505.00 0.0019802 507.78 662.92 1.8940 2.2164 2.7762 1045.3 -0.0042100 107.46 0.11436
156.38 11442. undefined 510.00 666.21 1.8991 505.00 0.0019802 510.00 666.21 1.8991 2.2206 2.7790 1046.8 -0.0042145 107.47 0.11450 505.00 0.0019802 510.00 666.21 1.8991 2.2206 2.7790 1046.8 -0.0042145 107.47 0.11450
157.38 11520. undefined 512.22 669.50 1.9043 505.00 0.0019802 512.22 669.50 1.9043 2.2247 2.7818 1048.2 -0.0042189 107.49 0.11464 505.00 0.0019802 512.22 669.50 1.9043 2.2247 2.7818 1048.2 -0.0042189 107.49 0.11464
158.38 11598. undefined 514.45 672.79 1.9095 505.00 0.0019802 514.45 672.79 1.9095 2.2289 2.7846 1049.6 -0.0042232 107.50 0.11478 505.00 0.0019802 514.45 672.79 1.9095 2.2289 2.7846 1049.6 -0.0042232 107.50 0.11478
159.38 11676. undefined 516.68 676.09 1.9146 505.00 0.0019802 516.68 676.09 1.9146 2.2330 2.7874 1051.1 -0.0042274 107.52 0.11493 505.00 0.0019802 516.68 676.09 1.9146 2.2330 2.7874 1051.1 -0.0042274 107.52 0.11493
160.38 11754. undefined 518.91 679.39 1.9198 505.00 0.0019802 518.91 679.39 1.9198 2.2372 2.7902 1052.5 -0.0042315 107.53 0.11507 505.00 0.0019802 518.91 679.39 1.9198 2.2372 2.7902 1052.5 -0.0042315 107.53 0.11507
161.38 11832. undefined 521.15 682.69 1.9250 505.00 0.0019802 521.15 682.69 1.9250 2.2413 2.7930 1053.9 -0.0042355 107.55 0.11521 505.00 0.0019802 521.15 682.69 1.9250 2.2413 2.7930 1053.9 -0.0042355 107.55 0.11521
162.38 11910. undefined 523.39 686.00 1.9301 505.00 0.0019802 523.39 686.00 1.9301 2.2454 2.7958 1055.3 -0.0042395 107.56 0.11536 505.00 0.0019802 523.39 686.00 1.9301 2.2454 2.7958 1055.3 -0.0042395 107.56 0.11536
163.38 11987. undefined 525.64 689.31 1.9353 505.00 0.0019802 525.64 689.31 1.9353 2.2495 2.7987 1056.8 -0.0042433 107.58 0.11550 505.00 0.0019802 525.64 689.31 1.9353 2.2495 2.7987 1056.8 -0.0042433 107.58 0.11550
164.38 12065. undefined 527.89 692.62 1.9404 505.00 0.0019802 527.89 692.62 1.9404 2.2537 2.8015 1058.2 -0.0042471 107.59 0.11564 505.00 0.0019802 527.89 692.62 1.9404 2.2537 2.8015 1058.2 -0.0042471 107.59 0.11564
165.38 12143. undefined 530.15 695.94 1.9456 505.00 0.0019802 530.15 695.94 1.9456 2.2578 2.8043 1059.6 -0.0042508 107.61 0.11579 505.00 0.0019802 530.15 695.94 1.9456 2.2578 2.8043 1059.6 -0.0042508 107.61 0.11579
166.38 12221. undefined 532.41 699.26 1.9507 505.00 0.0019802 532.41 699.26 1.9507 2.2619 2.8072 1061.0 -0.0042544 107.62 0.11593 505.00 0.0019802 532.41 699.26 1.9507 2.2619 2.8072 1061.0 -0.0042544 107.62 0.11593
167.38 12298. undefined 534.67 702.58 1.9559 505.00 0.0019802 534.67 702.58 1.9559 2.2660 2.8100 1062.4 -0.0042580 107.64 0.11608 505.00 0.0019802 534.67 702.58 1.9559 2.2660 2.8100 1062.4 -0.0042580 107.64 0.11608
168.38 12376. undefined 536.94 705.91 1.9610 505.00 0.0019802 536.94 705.91 1.9610 2.2701 2.8129 1063.8 -0.0042614 107.65 0.11622 505.00 0.0019802 536.94 705.91 1.9610 2.2701 2.8129 1063.8 -0.0042614 107.65 0.11622
169.38 12454. undefined 539.21 709.24 1.9662 505.00 0.0019802 539.21 709.24 1.9662 2.2742 2.8157 1065.2 -0.0042648 107.67 0.11637 505.00 0.0019802 539.21 709.24 1.9662 2.2742 2.8157 1065.2 -0.0042648 107.67 0.11637
170.38 12531. undefined 541.49 712.58 1.9713 505.00 0.0019802 541.49 712.58 1.9713 2.2783 2.8186 1066.6 -0.0042681 107.68 0.11652 505.00 0.0019802 541.49 712.58 1.9713 2.2783 2.8186 1066.6 -0.0042681 107.68 0.11652
171.38 12609. undefined 543.77 715.92 1.9764 505.00 0.0019802 543.77 715.92 1.9764 2.2824 2.8215 1068.0 -0.0042713 107.70 0.11666 505.00 0.0019802 543.77 715.92 1.9764 2.2824 2.8215 1068.0 -0.0042713 107.70 0.11666
172.38 12686. undefined 546.06 719.26 1.9816 505.00 0.0019802 546.06 719.26 1.9816 2.2865 2.8243 1069.3 -0.0042745 107.72 0.11681 505.00 0.0019802 546.06 719.26 1.9816 2.2865 2.8243 1069.3 -0.0042745 107.72 0.11681
173.38 12764. undefined 548.34 722.60 1.9867 505.00 0.0019802 548.34 722.60 1.9867 2.2906 2.8272 1070.7 -0.0042776 107.73 0.11696 505.00 0.0019802 548.34 722.60 1.9867 2.2906 2.8272 1070.7 -0.0042776 107.73 0.11696
174.38 12841. undefined 550.64 725.95 1.9918 505.00 0.0019802 550.64 725.95 1.9918 2.2947 2.8301 1072.1 -0.0042806 107.75 0.11710 505.00 0.0019802 550.64 725.95 1.9918 2.2947 2.8301 1072.1 -0.0042806 107.75 0.11710
175.38 12918. undefined 552.93 729.31 1.9969 505.00 0.0019802 552.93 729.31 1.9969 2.2987 2.8329 1073.5 -0.0042836 107.76 0.11725 505.00 0.0019802 552.93 729.31 1.9969 2.2987 2.8329 1073.5 -0.0042836 107.76 0.11725
176.38 12995. undefined 555.23 732.66 2.0021 505.00 0.0019802 555.23 732.66 2.0021 2.3028 2.8358 1074.8 -0.0042865 107.78 0.11740 505.00 0.0019802 555.23 732.66 2.0021 2.3028 2.8358 1074.8 -0.0042865 107.78 0.11740
177.38 13073. undefined 557.54 736.02 2.0072 505.00 0.0019802 557.54 736.02 2.0072 2.3069 2.8387 1076.2 -0.0042893 107.79 0.11755 505.00 0.0019802 557.54 736.02 2.0072 2.3069 2.8387 1076.2 -0.0042893 107.79 0.11755
178.38 13150. undefined 559.85 739.38 2.0123 505.00 0.0019802 559.85 739.38 2.0123 2.3109 2.8416 1077.6 -0.0042920 107.81 0.11770 505.00 0.0019802 559.85 739.38 2.0123 2.3109 2.8416 1077.6 -0.0042920 107.81 0.11770
179.38 13227. undefined 562.16 742.75 2.0174 505.00 0.0019802 562.16 742.75 2.0174 2.3150 2.8445 1078.9 -0.0042947 107.82 0.11785 505.00 0.0019802 562.16 742.75 2.0174 2.3150 2.8445 1078.9 -0.0042947 107.82 0.11785
180.38 13304. undefined 564.48 746.12 2.0225 505.00 0.0019802 564.48 746.12 2.0225 2.3190 2.8474 1080.3 -0.0042973 107.84 0.11799 505.00 0.0019802 564.48 746.12 2.0225 2.3190 2.8474 1080.3 -0.0042973 107.84 0.11799
181.38 13381. undefined 566.80 749.49 2.0277 505.00 0.0019802 566.80 749.49 2.0277 2.3231 2.8503 1081.6 -0.0042999 107.85 0.11814 505.00 0.0019802 566.80 749.49 2.0277 2.3231 2.8503 1081.6 -0.0042999 107.85 0.11814
182.38 13458. undefined 569.12 752.87 2.0328 505.00 0.0019802 569.12 752.87 2.0328 2.3271 2.8532 1083.0 -0.0043024 107.87 0.11829 505.00 0.0019802 569.12 752.87 2.0328 2.3271 2.8532 1083.0 -0.0043024 107.87 0.11829
183.38 13535. undefined 571.45 756.25 2.0379 505.00 0.0019802 571.45 756.25 2.0379 2.3312 2.8561 1084.3 -0.0043048 107.89 0.11844 505.00 0.0019802 571.45 756.25 2.0379 2.3312 2.8561 1084.3 -0.0043048 107.89 0.11844
184.38 13612. undefined 573.79 759.63 2.0430 505.00 0.0019802 573.79 759.63 2.0430 2.3352 2.8590 1085.7 -0.0043072 107.90 0.11859 505.00 0.0019802 573.79 759.63 2.0430 2.3352 2.8590 1085.7 -0.0043072 107.90 0.11859
185.38 13689. undefined 576.12 763.02 2.0481 505.00 0.0019802 576.12 763.02 2.0481 2.3392 2.8619 1087.0 -0.0043095 107.92 0.11874 505.00 0.0019802 576.12 763.02 2.0481 2.3392 2.8619 1087.0 -0.0043095 107.92 0.11874
186.38 13766. undefined 578.46 766.41 2.0532 505.00 0.0019802 578.46 766.41 2.0532 2.3432 2.8648 1088.4 -0.0043117 107.93 0.11889 505.00 0.0019802 578.46 766.41 2.0532 2.3432 2.8648 1088.4 -0.0043117 107.93 0.11889
187.38 13843. undefined 580.81 769.80 2.0583 505.00 0.0019802 580.81 769.80 2.0583 2.3473 2.8677 1089.7 -0.0043139 107.95 0.11905 505.00 0.0019802 580.81 769.80 2.0583 2.3473 2.8677 1089.7 -0.0043139 107.95 0.11905
188.38 13919. undefined 583.16 773.20 2.0634 505.00 0.0019802 583.16 773.20 2.0634 2.3513 2.8707 1091.0 -0.0043161 107.96 0.11920 505.00 0.0019802 583.16 773.20 2.0634 2.3513 2.8707 1091.0 -0.0043161 107.96 0.11920
189.38 13996. undefined 585.51 776.60 2.0685 505.00 0.0019802 585.51 776.60 2.0685 2.3553 2.8736 1092.3 -0.0043181 107.98 0.11935 505.00 0.0019802 585.51 776.60 2.0685 2.3553 2.8736 1092.3 -0.0043181 107.98 0.11935
190.38 14073. undefined 587.87 780.00 2.0736 505.00 0.0019802 587.87 780.00 2.0736 2.3593 2.8765 1093.7 -0.0043202 108.00 0.11950 505.00 0.0019802 587.87 780.00 2.0736 2.3593 2.8765 1093.7 -0.0043202 108.00 0.11950
191.38 14149. undefined 590.23 783.41 2.0786 505.00 0.0019802 590.23 783.41 2.0786 2.3633 2.8794 1095.0 -0.0043221 108.01 0.11965 505.00 0.0019802 590.23 783.41 2.0786 2.3633 2.8794 1095.0 -0.0043221 108.01 0.11965
192.38 14226. undefined 592.60 786.82 2.0837 505.00 0.0019802 592.60 786.82 2.0837 2.3673 2.8823 1096.3 -0.0043241 108.03 0.11981 505.00 0.0019802 592.60 786.82 2.0837 2.3673 2.8823 1096.3 -0.0043241 108.03 0.11981
193.38 14302. undefined 594.97 790.24 2.0888 505.00 0.0019802 594.97 790.24 2.0888 2.3713 2.8853 1097.6 -0.0043259 108.04 0.11996 505.00 0.0019802 594.97 790.24 2.0888 2.3713 2.8853 1097.6 -0.0043259 108.04 0.11996
194.38 14379. undefined 597.34 793.65 2.0939 505.00 0.0019802 597.34 793.65 2.0939 2.3753 2.8882 1098.9 -0.0043277 108.06 0.12011 505.00 0.0019802 597.34 793.65 2.0939 2.3753 2.8882 1098.9 -0.0043277 108.06 0.12011
195.38 14455. undefined 599.72 797.07 2.0990 505.00 0.0019802 599.72 797.07 2.0990 2.3792 2.8911 1100.2 -0.0043295 108.07 0.12026 505.00 0.0019802 599.72 797.07 2.0990 2.3792 2.8911 1100.2 -0.0043295 108.07 0.12026
196.38 14532. undefined 602.10 800.50 2.1041 505.00 0.0019802 602.10 800.50 2.1041 2.3832 2.8941 1101.6 -0.0043312 108.09 0.12042 505.00 0.0019802 602.10 800.50 2.1041 2.3832 2.8941 1101.6 -0.0043312 108.09 0.12042
197.38 14608. undefined 604.48 803.93 2.1091 505.00 0.0019802 604.48 803.93 2.1091 2.3872 2.8970 1102.9 -0.0043329 108.11 0.12057 505.00 0.0019802 604.48 803.93 2.1091 2.3872 2.8970 1102.9 -0.0043329 108.11 0.12057
198.38 14684. undefined 606.87 807.36 2.1142 505.00 0.0019802 606.87 807.36 2.1142 2.3911 2.8999 1104.2 -0.0043345 108.12 0.12073 505.00 0.0019802 606.87 807.36 2.1142 2.3911 2.8999 1104.2 -0.0043345 108.12 0.12073
199.38 14761. undefined 609.26 810.79 2.1193 505.00 0.0019802 609.26 810.79 2.1193 2.3951 2.9029 1105.5 -0.0043361 108.14 0.12088 505.00 0.0019802 609.26 810.79 2.1193 2.3951 2.9029 1105.5 -0.0043361 108.14 0.12088
200.38 14837. undefined 611.66 814.23 2.1243 505.00 0.0019802 611.66 814.23 2.1243 2.3990 2.9058 1106.8 -0.0043376 108.15 0.12104 505.00 0.0019802 611.66 814.23 2.1243 2.3990 2.9058 1106.8 -0.0043376 108.15 0.12104
201.38 14913. undefined 614.06 817.67 2.1294 505.00 0.0019802 614.06 817.67 2.1294 2.4030 2.9087 1108.0 -0.0043390 108.17 0.12119 505.00 0.0019802 614.06 817.67 2.1294 2.4030 2.9087 1108.0 -0.0043390 108.17 0.12119
202.38 14989. undefined 616.47 821.11 2.1345 505.00 0.0019802 616.47 821.11 2.1345 2.4069 2.9117 1109.3 -0.0043405 108.19 0.12135 505.00 0.0019802 616.47 821.11 2.1345 2.4069 2.9117 1109.3 -0.0043405 108.19 0.12135
203.38 15065. undefined 618.88 824.56 2.1395 505.00 0.0019802 618.88 824.56 2.1395 2.4109 2.9146 1110.6 -0.0043419 108.20 0.12150 505.00 0.0019802 618.88 824.56 2.1395 2.4109 2.9146 1110.6 -0.0043419 108.20 0.12150
204.38 15141. undefined 621.29 828.01 2.1446 505.00 0.0019802 621.29 828.01 2.1446 2.4148 2.9176 1111.9 -0.0043432 108.22 0.12166 505.00 0.0019802 621.29 828.01 2.1446 2.4148 2.9176 1111.9 -0.0043432 108.22 0.12166
205.38 15217. undefined 623.71 831.47 2.1496 505.00 0.0019802 623.71 831.47 2.1496 2.4187 2.9205 1113.2 -0.0043445 108.23 0.12181 505.00 0.0019802 623.71 831.47 2.1496 2.4187 2.9205 1113.2 -0.0043445 108.23 0.12181
206.38 15293. undefined 626.13 834.92 2.1547 505.00 0.0019802 626.13 834.92 2.1547 2.4227 2.9235 1114.5 -0.0043457 108.25 0.12197 505.00 0.0019802 626.13 834.92 2.1547 2.4227 2.9235 1114.5 -0.0043457 108.25 0.12197
207.38 15369. undefined 628.55 838.39 2.1597 505.00 0.0019802 628.55 838.39 2.1597 2.4266 2.9264 1115.7 -0.0043469 108.27 0.12213 505.00 0.0019802 628.55 838.39 2.1597 2.4266 2.9264 1115.7 -0.0043469 108.27 0.12213
208.38 15445. undefined 630.98 841.85 2.1648 505.00 0.0019802 630.98 841.85 2.1648 2.4305 2.9294 1117.0 -0.0043481 108.28 0.12229 505.00 0.0019802 630.98 841.85 2.1648 2.4305 2.9294 1117.0 -0.0043481 108.28 0.12229
209.38 15521. undefined 633.41 845.32 2.1698 505.00 0.0019802 633.41 845.32 2.1698 2.4344 2.9323 1118.3 -0.0043492 108.30 0.12244 505.00 0.0019802 633.41 845.32 2.1698 2.4344 2.9323 1118.3 -0.0043492 108.30 0.12244
210.38 15597. undefined 635.85 848.79 2.1749 505.00 0.0019802 635.85 848.79 2.1749 2.4383 2.9353 1119.5 -0.0043503 108.31 0.12260 505.00 0.0019802 635.85 848.79 2.1749 2.4383 2.9353 1119.5 -0.0043503 108.31 0.12260
211.38 15672. undefined 638.29 852.26 2.1799 505.00 0.0019802 638.29 852.26 2.1799 2.4422 2.9382 1120.8 -0.0043513 108.33 0.12276 505.00 0.0019802 638.29 852.26 2.1799 2.4422 2.9382 1120.8 -0.0043513 108.33 0.12276
212.38 15748. undefined 640.73 855.74 2.1850 505.00 0.0019802 640.73 855.74 2.1850 2.4461 2.9412 1122.1 -0.0043523 108.35 0.12292 505.00 0.0019802 640.73 855.74 2.1850 2.4461 2.9412 1122.1 -0.0043523 108.35 0.12292
213.38 15824. undefined 643.18 859.22 2.1900 505.00 0.0019802 643.18 859.22 2.1900 2.4500 2.9441 1123.3 -0.0043533 108.36 0.12308 505.00 0.0019802 643.18 859.22 2.1900 2.4500 2.9441 1123.3 -0.0043533 108.36 0.12308
214.38 15899. undefined 645.63 862.71 2.1950 505.00 0.0019802 645.63 862.71 2.1950 2.4539 2.9471 1124.6 -0.0043542 108.38 0.12324 505.00 0.0019802 645.63 862.71 2.1950 2.4539 2.9471 1124.6 -0.0043542 108.38 0.12324
215.38 15975. undefined 648.09 866.19 2.2001 505.00 0.0019802 648.09 866.19 2.2001 2.4577 2.9500 1125.8 -0.0043551 108.40 0.12339 505.00 0.0019802 648.09 866.19 2.2001 2.4577 2.9500 1125.8 -0.0043551 108.40 0.12339
216.38 16050. undefined 650.55 869.68 2.2051 505.00 0.0019802 650.55 869.68 2.2051 2.4616 2.9530 1127.1 -0.0043560 108.41 0.12355 505.00 0.0019802 650.55 869.68 2.2051 2.4616 2.9530 1127.1 -0.0043560 108.41 0.12355
217.38 16126. undefined 653.01 873.18 2.2101 505.00 0.0019802 653.01 873.18 2.2101 2.4655 2.9559 1128.3 -0.0043568 108.43 0.12371 505.00 0.0019802 653.01 873.18 2.2101 2.4655 2.9559 1128.3 -0.0043568 108.43 0.12371
218.38 16201. undefined 655.48 876.68 2.2151 505.00 0.0019802 655.48 876.68 2.2151 2.4693 2.9589 1129.6 -0.0043576 108.44 0.12387 505.00 0.0019802 655.48 876.68 2.2151 2.4693 2.9589 1129.6 -0.0043576 108.44 0.12387
219.38 16277. undefined 657.95 880.18 2.2202 505.00 0.0019802 657.95 880.18 2.2202 2.4732 2.9618 1130.8 -0.0043583 108.46 0.12403 505.00 0.0019802 657.95 880.18 2.2202 2.4732 2.9618 1130.8 -0.0043583 108.46 0.12403
220.38 16352. undefined 660.43 883.68 2.2252 505.00 0.0019802 660.43 883.68 2.2252 2.4771 2.9648 1132.0 -0.0043590 108.48 0.12420 505.00 0.0019802 660.43 883.68 2.2252 2.4771 2.9648 1132.0 -0.0043590 108.48 0.12420
221.38 16427. undefined 662.90 887.19 2.2302 505.00 0.0019802 662.90 887.19 2.2302 2.4809 2.9677 1133.3 -0.0043597 108.49 0.12436 505.00 0.0019802 662.90 887.19 2.2302 2.4809 2.9677 1133.3 -0.0043597 108.49 0.12436
222.38 16503. undefined 665.39 890.70 2.2352 505.00 0.0019802 665.39 890.70 2.2352 2.4847 2.9707 1134.5 -0.0043603 108.51 0.12452 505.00 0.0019802 665.39 890.70 2.2352 2.4847 2.9707 1134.5 -0.0043603 108.51 0.12452
223.38 16578. undefined 667.87 894.21 2.2402 505.00 0.0019802 667.87 894.21 2.2402 2.4886 2.9736 1135.7 -0.0043609 108.53 0.12468 505.00 0.0019802 667.87 894.21 2.2402 2.4886 2.9736 1135.7 -0.0043609 108.53 0.12468
224.38 16653. undefined 670.36 897.73 2.2453 505.00 0.0019802 670.36 897.73 2.2453 2.4924 2.9766 1137.0 -0.0043615 108.54 0.12484 505.00 0.0019802 670.36 897.73 2.2453 2.4924 2.9766 1137.0 -0.0043615 108.54 0.12484
225.38 16728. undefined 672.86 901.25 2.2503 505.00 0.0019802 672.86 901.25 2.2503 2.4962 2.9795 1138.2 -0.0043620 108.56 0.12500 505.00 0.0019802 672.86 901.25 2.2503 2.4962 2.9795 1138.2 -0.0043620 108.56 0.12500
226.38 16803. undefined 675.36 904.77 2.2553 505.00 0.0019802 675.36 904.77 2.2553 2.5001 2.9825 1139.4 -0.0043625 108.58 0.12517 505.00 0.0019802 675.36 904.77 2.2553 2.5001 2.9825 1139.4 -0.0043625 108.58 0.12517
227.38 16879. undefined 677.86 908.30 2.2603 505.00 0.0019802 677.86 908.30 2.2603 2.5039 2.9854 1140.6 -0.0043630 108.59 0.12533 505.00 0.0019802 677.86 908.30 2.2603 2.5039 2.9854 1140.6 -0.0043630 108.59 0.12533
228.38 16954. undefined 680.37 911.83 2.2653 505.00 0.0019802 680.37 911.83 2.2653 2.5077 2.9884 1141.9 -0.0043634 108.61 0.12549 505.00 0.0019802 680.37 911.83 2.2653 2.5077 2.9884 1141.9 -0.0043634 108.61 0.12549
229.38 17029. undefined 682.87 915.36 2.2703 505.00 0.0019802 682.87 915.36 2.2703 2.5115 2.9913 1143.1 -0.0043638 108.63 0.12565 505.00 0.0019802 682.87 915.36 2.2703 2.5115 2.9913 1143.1 -0.0043638 108.63 0.12565
230.38 17103. undefined 685.39 918.90 2.2753 505.00 0.0019802 685.39 918.90 2.2753 2.5153 2.9943 1144.3 -0.0043642 108.64 0.12582 505.00 0.0019802 685.39 918.90 2.2753 2.5153 2.9943 1144.3 -0.0043642 108.64 0.12582
231.38 17178. undefined 687.91 922.44 2.2803 505.00 0.0019802 687.91 922.44 2.2803 2.5191 2.9972 1145.5 -0.0043646 108.66 0.12598 505.00 0.0019802 687.91 922.44 2.2803 2.5191 2.9972 1145.5 -0.0043646 108.66 0.12598
232.38 17253. undefined 690.43 925.98 2.2853 505.00 0.0019802 690.43 925.98 2.2853 2.5229 3.0002 1146.7 -0.0043649 108.67 0.12615 505.00 0.0019802 690.43 925.98 2.2853 2.5229 3.0002 1146.7 -0.0043649 108.67 0.12615
233.38 17328. undefined 692.95 929.53 2.2902 505.00 0.0019802 692.95 929.53 2.2902 2.5267 3.0031 1147.9 -0.0043652 108.69 0.12631 505.00 0.0019802 692.95 929.53 2.2902 2.5267 3.0031 1147.9 -0.0043652 108.69 0.12631
234.38 17403. undefined 695.48 933.08 2.2952 505.00 0.0019802 695.48 933.08 2.2952 2.5305 3.0061 1149.1 -0.0043655 108.71 0.12648 505.00 0.0019802 695.48 933.08 2.2952 2.5305 3.0061 1149.1 -0.0043655 108.71 0.12648
235.38 17478. undefined 698.01 936.63 2.3002 505.00 0.0019802 698.01 936.63 2.3002 2.5342 3.0090 1150.3 -0.0043657 108.72 0.12664 505.00 0.0019802 698.01 936.63 2.3002 2.5342 3.0090 1150.3 -0.0043657 108.72 0.12664
236.38 17552. undefined 700.55 940.19 2.3052 505.00 0.0019802 700.55 940.19 2.3052 2.5380 3.0120 1151.5 -0.0043659 108.74 0.12681 505.00 0.0019802 700.55 940.19 2.3052 2.5380 3.0120 1151.5 -0.0043659 108.74 0.12681
237.38 17627. undefined 703.09 943.75 2.3102 505.00 0.0019802 703.09 943.75 2.3102 2.5418 3.0149 1152.7 -0.0043661 108.76 0.12697 505.00 0.0019802 703.09 943.75 2.3102 2.5418 3.0149 1152.7 -0.0043661 108.76 0.12697
238.38 17702. undefined 705.63 947.31 2.3152 505.00 0.0019802 705.63 947.31 2.3152 2.5455 3.0179 1153.9 -0.0043662 108.77 0.12714 505.00 0.0019802 705.63 947.31 2.3152 2.5455 3.0179 1153.9 -0.0043662 108.77 0.12714
239.38 17776. undefined 708.18 950.88 2.3201 505.00 0.0019802 708.18 950.88 2.3201 2.5493 3.0208 1155.1 -0.0043664 108.79 0.12730 505.00 0.0019802 708.18 950.88 2.3201 2.5493 3.0208 1155.1 -0.0043664 108.79 0.12730
240.38 17851. undefined 710.73 954.44 2.3251 505.00 0.0019802 710.73 954.44 2.3251 2.5530 3.0238 1156.3 -0.0043665 108.81 0.12747 505.00 0.0019802 710.73 954.44 2.3251 2.5530 3.0238 1156.3 -0.0043665 108.81 0.12747
241.38 17925. undefined 713.29 958.02 2.3301 505.00 0.0019802 713.29 958.02 2.3301 2.5568 3.0267 1157.5 -0.0043665 108.82 0.12764 505.00 0.0019802 713.29 958.02 2.3301 2.5568 3.0267 1157.5 -0.0043665 108.82 0.12764
242.38 18000. undefined 715.84 961.59 2.3350 505.00 0.0019802 715.84 961.59 2.3350 2.5605 3.0297 1158.7 -0.0043666 108.84 0.12781 505.00 0.0019802 715.84 961.59 2.3350 2.5605 3.0297 1158.7 -0.0043666 108.84 0.12781
243.38 18074. undefined 718.41 965.17 2.3400 505.00 0.0019802 718.41 965.17 2.3400 2.5643 3.0326 1159.9 -0.0043666 108.86 0.12797 505.00 0.0019802 718.41 965.17 2.3400 2.5643 3.0326 1159.9 -0.0043666 108.86 0.12797
244.38 18148. undefined 720.97 968.75 2.3450 505.00 0.0019802 720.97 968.75 2.3450 2.5680 3.0355 1161.0 -0.0043666 108.87 0.12814 505.00 0.0019802 720.97 968.75 2.3450 2.5680 3.0355 1161.0 -0.0043666 108.87 0.12814
245.38 18223. undefined 723.54 972.34 2.3499 505.00 0.0019802 723.54 972.34 2.3499 2.5717 3.0385 1162.2 -0.0043666 108.89 0.12831 505.00 0.0019802 723.54 972.34 2.3499 2.5717 3.0385 1162.2 -0.0043666 108.89 0.12831
246.38 18297. undefined 726.12 975.92 2.3549 505.00 0.0019802 726.12 975.92 2.3549 2.5754 3.0414 1163.4 -0.0043665 108.91 0.12848 505.00 0.0019802 726.12 975.92 2.3549 2.5754 3.0414 1163.4 -0.0043665 108.91 0.12848
247.38 18371. undefined 728.69 979.51 2.3598 505.00 0.0019802 728.69 979.51 2.3598 2.5791 3.0444 1164.6 -0.0043665 108.92 0.12865 505.00 0.0019802 728.69 979.51 2.3598 2.5791 3.0444 1164.6 -0.0043665 108.92 0.12865
248.38 18445. undefined 731.27 983.11 2.3648 505.00 0.0019802 731.27 983.11 2.3648 2.5829 3.0473 1165.7 -0.0043664 108.94 0.12881 505.00 0.0019802 731.27 983.11 2.3648 2.5829 3.0473 1165.7 -0.0043664 108.94 0.12881
249.38 18520. undefined 733.86 986.71 2.3697 505.00 0.0019802 733.86 986.71 2.3697 2.5866 3.0502 1166.9 -0.0043662 108.96 0.12898 505.00 0.0019802 733.86 986.71 2.3697 2.5866 3.0502 1166.9 -0.0043662 108.96 0.12898
250.38 18594. undefined 736.45 990.31 2.3747 505.00 0.0019802 736.45 990.31 2.3747 2.5903 3.0532 1168.1 -0.0043661 108.97 0.12915 505.00 0.0019802 736.45 990.31 2.3747 2.5903 3.0532 1168.1 -0.0043661 108.97 0.12915
251.38 18668. undefined 739.04 993.91 2.3796 505.00 0.0019802 739.04 993.91 2.3796 2.5940 3.0561 1169.2 -0.0043659 108.99 0.12932 505.00 0.0019802 739.04 993.91 2.3796 2.5940 3.0561 1169.2 -0.0043659 108.99 0.12932
252.38 18742. undefined 741.64 997.52 2.3846 505.00 0.0019802 741.64 997.52 2.3846 2.5976 3.0590 1170.4 -0.0043657 109.01 0.12949 505.00 0.0019802 741.64 997.52 2.3846 2.5976 3.0590 1170.4 -0.0043657 109.01 0.12949
253.38 18816. undefined 744.23 1001.1 2.3895 505.00 0.0019802 744.23 1001.1 2.3895 2.6013 3.0620 1171.6 -0.0043655 109.02 0.12966 505.00 0.0019802 744.23 1001.1 2.3895 2.6013 3.0620 1171.6 -0.0043655 109.02 0.12966
254.38 18890. undefined 746.84 1004.7 2.3945 505.00 0.0019802 746.84 1004.7 2.3945 2.6050 3.0649 1172.7 -0.0043653 109.04 0.12983 505.00 0.0019802 746.84 1004.7 2.3945 2.6050 3.0649 1172.7 -0.0043653 109.04 0.12983
255.38 18964. undefined 749.44 1008.4 2.3994 505.00 0.0019802 749.44 1008.4 2.3994 2.6087 3.0678 1173.9 -0.0043651 109.06 0.13000 505.00 0.0019802 749.44 1008.4 2.3994 2.6087 3.0678 1173.9 -0.0043651 109.06 0.13000
256.38 19038. undefined 752.06 1012.0 2.4043 505.00 0.0019802 752.06 1012.0 2.4043 2.6123 3.0708 1175.0 -0.0043648 109.07 0.13018 505.00 0.0019802 752.06 1012.0 2.4043 2.6123 3.0708 1175.0 -0.0043648 109.07 0.13018
257.38 19111. undefined 754.67 1015.6 2.4093 505.00 0.0019802 754.67 1015.6 2.4093 2.6160 3.0737 1176.2 -0.0043645 109.09 0.13035 505.00 0.0019802 754.67 1015.6 2.4093 2.6160 3.0737 1176.2 -0.0043645 109.09 0.13035
258.38 19185. undefined 757.29 1019.2 2.4142 505.00 0.0019802 757.29 1019.2 2.4142 2.6197 3.0766 1177.3 -0.0043642 109.11 0.13052 505.00 0.0019802 757.29 1019.2 2.4142 2.6197 3.0766 1177.3 -0.0043642 109.11 0.13052
259.38 19259. undefined 759.91 1022.9 2.4191 505.00 0.0019802 759.91 1022.9 2.4191 2.6233 3.0795 1178.5 -0.0043638 109.12 0.13069 505.00 0.0019802 759.91 1022.9 2.4191 2.6233 3.0795 1178.5 -0.0043638 109.12 0.13069
260.38 19333. undefined 762.53 1026.5 2.4241 505.00 0.0019802 762.53 1026.5 2.4241 2.6270 3.0825 1179.6 -0.0043635 109.14 0.13086 505.00 0.0019802 762.53 1026.5 2.4241 2.6270 3.0825 1179.6 -0.0043635 109.14 0.13086
261.38 19406. undefined 765.16 1030.1 2.4290 505.00 0.0019802 765.16 1030.1 2.4290 2.6306 3.0854 1180.8 -0.0043631 109.16 0.13104 505.00 0.0019802 765.16 1030.1 2.4290 2.6306 3.0854 1180.8 -0.0043631 109.16 0.13104
262.38 19480. undefined 767.79 1033.8 2.4339 505.00 0.0019802 767.79 1033.8 2.4339 2.6342 3.0883 1181.9 -0.0043627 109.18 0.13121 505.00 0.0019802 767.79 1033.8 2.4339 2.6342 3.0883 1181.9 -0.0043627 109.18 0.13121
263.38 19554. undefined 770.43 1037.4 2.4388 505.00 0.0019802 770.43 1037.4 2.4388 2.6379 3.0912 1183.0 -0.0043623 109.19 0.13138 505.00 0.0019802 770.43 1037.4 2.4388 2.6379 3.0912 1183.0 -0.0043623 109.19 0.13138
264.38 19627. undefined 773.07 1041.0 2.4437 505.00 0.0019802 773.07 1041.0 2.4437 2.6415 3.0941 1184.2 -0.0043619 109.21 0.13156 505.00 0.0019802 773.07 1041.0 2.4437 2.6415 3.0941 1184.2 -0.0043619 109.21 0.13156
265.38 19701. undefined 775.71 1044.7 2.4486 505.00 0.0019802 775.71 1044.7 2.4486 2.6451 3.0971 1185.3 -0.0043615 109.23 0.13173 505.00 0.0019802 775.71 1044.7 2.4486 2.6451 3.0971 1185.3 -0.0043615 109.23 0.13173
266.38 19774. undefined 778.36 1048.3 2.4536 505.00 0.0019802 778.36 1048.3 2.4536 2.6488 3.1000 1186.4 -0.0043610 109.24 0.13190 505.00 0.0019802 778.36 1048.3 2.4536 2.6488 3.1000 1186.4 -0.0043610 109.24 0.13190
267.38 19848. undefined 781.01 1052.0 2.4585 505.00 0.0019802 781.01 1052.0 2.4585 2.6524 3.1029 1187.6 -0.0043605 109.26 0.13208 505.00 0.0019802 781.01 1052.0 2.4585 2.6524 3.1029 1187.6 -0.0043605 109.26 0.13208
268.38 19921. undefined 783.67 1055.6 2.4634 505.00 0.0019802 783.67 1055.6 2.4634 2.6560 3.1058 1188.7 -0.0043600 109.28 0.13225 505.00 0.0019802 783.67 1055.6 2.4634 2.6560 3.1058 1188.7 -0.0043600 109.28 0.13225
269.38 19994. undefined 786.32 1059.3 2.4683 505.00 0.0019802 786.32 1059.3 2.4683 2.6596 3.1087 1189.8 -0.0043595 109.29 0.13243 505.00 0.0019802 786.32 1059.3 2.4683 2.6596 3.1087 1189.8 -0.0043595 109.29 0.13243
270.38 20068. undefined 788.98 1063.0 2.4732 505.00 0.0019802 788.98 1063.0 2.4732 2.6632 3.1116 1190.9 -0.0043590 109.31 0.13260 505.00 0.0019802 788.98 1063.0 2.4732 2.6632 3.1116 1190.9 -0.0043590 109.31 0.13260
271.38 20141. undefined 791.65 1066.6 2.4781 505.00 0.0019802 791.65 1066.6 2.4781 2.6668 3.1145 1192.1 -0.0043584 109.33 0.13278 505.00 0.0019802 791.65 1066.6 2.4781 2.6668 3.1145 1192.1 -0.0043584 109.33 0.13278
272.38 20214. undefined 794.32 1070.3 2.4830 505.00 0.0019802 794.32 1070.3 2.4830 2.6704 3.1174 1193.2 -0.0043578 109.34 0.13296 505.00 0.0019802 794.32 1070.3 2.4830 2.6704 3.1174 1193.2 -0.0043578 109.34 0.13296
273.38 20287. undefined 796.99 1074.0 2.4879 505.00 0.0019802 796.99 1074.0 2.4879 2.6739 3.1203 1194.3 -0.0043573 109.36 0.13313 505.00 0.0019802 796.99 1074.0 2.4879 2.6739 3.1203 1194.3 -0.0043573 109.36 0.13313
274.38 20361. undefined 799.67 1077.6 2.4928 505.00 0.0019802 799.67 1077.6 2.4928 2.6775 3.1232 1195.4 -0.0043567 109.38 0.13331 505.00 0.0019802 799.67 1077.6 2.4928 2.6775 3.1232 1195.4 -0.0043567 109.38 0.13331
275.38 20434. undefined 802.35 1081.3 2.4976 505.00 0.0019802 802.35 1081.3 2.4976 2.6811 3.1261 1196.5 -0.0043561 109.39 0.13349 505.00 0.0019802 802.35 1081.3 2.4976 2.6811 3.1261 1196.5 -0.0043561 109.39 0.13349
276.38 20507. undefined 805.03 1085.0 2.5025 505.00 0.0019802 805.03 1085.0 2.5025 2.6847 3.1290 1197.7 -0.0043554 109.41 0.13366 505.00 0.0019802 805.03 1085.0 2.5025 2.6847 3.1290 1197.7 -0.0043554 109.41 0.13366
277.38 20580. undefined 807.71 1088.7 2.5074 505.00 0.0019802 807.71 1088.7 2.5074 2.6882 3.1319 1198.8 -0.0043548 109.43 0.13384 505.00 0.0019802 807.71 1088.7 2.5074 2.6882 3.1319 1198.8 -0.0043548 109.43 0.13384
278.38 20653. undefined 810.40 1092.4 2.5123 505.00 0.0019802 810.40 1092.4 2.5123 2.6918 3.1348 1199.9 -0.0043541 109.44 0.13402 505.00 0.0019802 810.40 1092.4 2.5123 2.6918 3.1348 1199.9 -0.0043541 109.44 0.13402
279.38 20726. undefined 813.10 1096.1 2.5172 505.00 0.0019802 813.10 1096.1 2.5172 2.6953 3.1377 1201.0 -0.0043535 109.46 0.13420 505.00 0.0019802 813.10 1096.1 2.5172 2.6953 3.1377 1201.0 -0.0043535 109.46 0.13420
280.38 20799. undefined 815.80 1099.8 2.5221 505.00 0.0019802 815.80 1099.8 2.5221 2.6989 3.1406 1202.1 -0.0043528 109.48 0.13437 505.00 0.0019802 815.80 1099.8 2.5221 2.6989 3.1406 1202.1 -0.0043528 109.48 0.13437
281.38 20872. undefined 818.50 1103.5 2.5269 505.00 0.0019802 818.50 1103.5 2.5269 2.7024 3.1435 1203.2 -0.0043521 109.50 0.13455 505.00 0.0019802 818.50 1103.5 2.5269 2.7024 3.1435 1203.2 -0.0043521 109.50 0.13455
282.38 20944. undefined 821.20 1107.2 2.5318 505.00 0.0019802 821.20 1107.2 2.5318 2.7060 3.1464 1204.3 -0.0043513 109.51 0.13442 505.00 0.0019802 821.20 1107.2 2.5318 2.7060 3.1464 1204.3 -0.0043513 109.51 0.13442
283.38 21017. undefined 823.91 1110.9 2.5367 505.00 0.0019802 823.91 1110.9 2.5367 2.7095 3.1493 1205.4 -0.0043506 109.53 0.13460 505.00 0.0019802 823.91 1110.9 2.5367 2.7095 3.1493 1205.4 -0.0043506 109.53 0.13460
284.38 21090. undefined 826.62 1114.6 2.5415 505.00 0.0019802 826.62 1114.6 2.5415 2.7130 3.1521 1206.5 -0.0043499 109.55 0.13478 505.00 0.0019802 826.62 1114.6 2.5415 2.7130 3.1521 1206.5 -0.0043499 109.55 0.13478
285.38 21163. undefined 829.33 1118.3 2.5464 505.00 0.0019802 829.33 1118.3 2.5464 2.7165 3.1550 1207.6 -0.0043491 109.56 0.13496 505.00 0.0019802 829.33 1118.3 2.5464 2.7165 3.1550 1207.6 -0.0043491 109.56 0.13496
286.38 21235. undefined 832.05 1122.0 2.5513 505.00 0.0019802 832.05 1122.0 2.5513 2.7201 3.1579 1208.7 -0.0043483 109.58 0.13514 505.00 0.0019802 832.05 1122.0 2.5513 2.7201 3.1579 1208.7 -0.0043483 109.58 0.13514
287.38 21308. undefined 834.77 1125.7 2.5561 505.00 0.0019802 834.77 1125.7 2.5561 2.7236 3.1608 1209.8 -0.0043476 109.60 0.13532 505.00 0.0019802 834.77 1125.7 2.5561 2.7236 3.1608 1209.8 -0.0043476 109.60 0.13532
288.38 21381. undefined 837.50 1129.4 2.5610 505.00 0.0019802 837.50 1129.4 2.5610 2.7271 3.1637 1210.8 -0.0043468 109.61 0.13550 505.00 0.0019802 837.50 1129.4 2.5610 2.7271 3.1637 1210.8 -0.0043468 109.61 0.13550
289.38 21453. undefined 840.23 1133.1 2.5658 505.00 0.0019802 840.23 1133.1 2.5658 2.7306 3.1665 1211.9 -0.0043459 109.63 0.13568 505.00 0.0019802 840.23 1133.1 2.5658 2.7306 3.1665 1211.9 -0.0043459 109.63 0.13568
290.38 21526. undefined 842.96 1136.9 2.5707 505.00 0.0019802 842.96 1136.9 2.5707 2.7341 3.1694 1213.0 -0.0043451 109.65 0.13586 505.00 0.0019802 842.96 1136.9 2.5707 2.7341 3.1694 1213.0 -0.0043451 109.65 0.13586
291.38 21598. undefined 845.70 1140.6 2.5755 505.00 0.0019802 845.70 1140.6 2.5755 2.7376 3.1723 1214.1 -0.0043443 109.67 0.13604 505.00 0.0019802 845.70 1140.6 2.5755 2.7376 3.1723 1214.1 -0.0043443 109.67 0.13604
292.38 21671. undefined 848.44 1144.3 2.5804 505.00 0.0019802 848.44 1144.3 2.5804 2.7411 3.1751 1215.2 -0.0043434 109.68 0.13622 505.00 0.0019802 848.44 1144.3 2.5804 2.7411 3.1751 1215.2 -0.0043434 109.68 0.13622
293.38 21743. undefined 851.18 1148.0 2.5852 505.00 0.0019802 851.18 1148.0 2.5852 2.7445 3.1780 1216.3 -0.0043426 109.70 0.13640 505.00 0.0019802 851.18 1148.0 2.5852 2.7445 3.1780 1216.3 -0.0043426 109.70 0.13640
294.38 21816. undefined 853.92 1151.8 2.5901 505.00 0.0019802 853.92 1151.8 2.5901 2.7480 3.1809 1217.3 -0.0043417 109.72 0.13658 505.00 0.0019802 853.92 1151.8 2.5901 2.7480 3.1809 1217.3 -0.0043417 109.72 0.13658
295.38 21888. undefined 856.67 1155.5 2.5949 505.00 0.0019802 856.67 1155.5 2.5949 2.7515 3.1837 1218.4 -0.0043408 109.73 0.13677 505.00 0.0019802 856.67 1155.5 2.5949 2.7515 3.1837 1218.4 -0.0043408 109.73 0.13677
296.38 21960. undefined 859.43 1159.3 2.5998 505.00 0.0019802 859.43 1159.3 2.5998 2.7550 3.1866 1219.5 -0.0043399 109.75 0.13695 505.00 0.0019802 859.43 1159.3 2.5998 2.7550 3.1866 1219.5 -0.0043399 109.75 0.13695
297.38 22033. undefined 862.18 1163.0 2.6046 505.00 0.0019802 862.18 1163.0 2.6046 2.7584 3.1894 1220.6 -0.0043390 109.77 0.13713 505.00 0.0019802 862.18 1163.0 2.6046 2.7584 3.1894 1220.6 -0.0043390 109.77 0.13713
298.38 22105. undefined 864.94 1166.7 2.6094 505.00 0.0019802 864.94 1166.7 2.6094 2.7619 3.1923 1221.6 -0.0043381 109.78 0.13731 505.00 0.0019802 864.94 1166.7 2.6094 2.7619 3.1923 1221.6 -0.0043381 109.78 0.13731
299.38 22177. undefined 867.71 1170.5 2.6143 505.00 0.0019802 867.71 1170.5 2.6143 2.7653 3.1952 1222.7 -0.0043372 109.80 0.13750 505.00 0.0019802 867.71 1170.5 2.6143 2.7653 3.1952 1222.7 -0.0043372 109.80 0.13750
300.38 22249. undefined 870.48 1174.2 2.6191 505.00 0.0019802 870.48 1174.2 2.6191 2.7688 3.1980 1223.8 -0.0043362 109.82 0.13768 505.00 0.0019802 870.48 1174.2 2.6191 2.7688 3.1980 1223.8 -0.0043362 109.82 0.13768