Temperature (C) Pressure (psia) Quality (l+v) Internal Energy (l+v, kJ/kg) Enthalpy (l+v, kJ/kg) Entropy (l+v, J/g*K) Density (l, kg/m3) Volume (l, m3/kg) Internal Energy (l, kJ/kg) Enthalpy (l, kJ/kg) Entropy (l, J/g*K) Cv (l, J/g*K) Cp (l, J/g*K) Sound Spd. (l, m/s) Joule-Thomson (l, F/psia) Viscosity (l, uPa*s) Therm. Cond. (l, W/m*K) Density (v, kg/m3) Volume (v, m3/kg) Internal Energy (v, kJ/kg) Enthalpy (v, kJ/kg) Entropy (v, J/g*K) Cv (v, J/g*K) Cp (v, J/g*K) Sound Spd. (v, m/s) Joule-Thomson (v, F/psia) Viscosity (v, uPa*s) Therm. Cond. (v, W/m*K)
-187.62 2.4953e-08 2.5176e-12 -196.64 -196.64 -1.3959 733.13 0.0013640 -196.64 -196.64 -1.3959 1.3553 1.9158 2136.4 -0.0077592 10960. 0.20792 1.0669e-08 9.3732e+07 350.13 366.26 5.1858 0.69067 0.87923 143.28 6.1051 2.3259 0.0017061
-186.62 3.7339e-08 3.6930e-12 -194.73 -194.73 -1.3736 732.08 0.0013660 -194.73 -194.73 -1.3736 1.3539 1.9166 2129.6 -0.0077546 10073. 0.20765 1.5780e-08 6.3371e+07 350.82 367.14 5.1200 0.69462 0.88317 144.03 5.9178 2.3534 0.0017533
-185.62 5.5322e-08 5.3640e-12 -192.81 -192.81 -1.3516 731.04 0.0013679 -192.81 -192.81 -1.3516 1.3525 1.9174 2122.9 -0.0077498 9276.1 0.20737 2.3112e-08 4.3267e+07 351.52 368.02 5.0561 0.69857 0.88713 144.77 5.7383 2.3808 0.0018007
-184.62 8.1182e-08 7.7171e-12 -190.89 -190.89 -1.3298 730.00 0.0013699 -190.89 -190.89 -1.3298 1.3513 1.9182 2116.1 -0.0077448 8557.8 0.20708 3.3533e-08 2.9821e+07 352.22 368.91 4.9939 0.70253 0.89108 145.51 5.5662 2.4083 0.0018485
-183.62 1.1803e-07 1.1001e-11 -188.97 -188.97 -1.3083 728.96 0.0013718 -188.97 -188.97 -1.3083 1.3501 1.9191 2109.3 -0.0077395 7909.8 0.20678 4.8211e-08 2.0742e+07 352.92 369.81 4.9333 0.70648 0.89504 146.24 5.4011 2.4357 0.0018965
-182.62 1.7009e-07 1.5543e-11 -187.05 -187.05 -1.2869 727.92 0.0013738 -187.05 -187.05 -1.2869 1.3490 1.9201 2102.5 -0.0077340 7324.3 0.20647 6.8704e-08 1.4555e+07 353.63 370.70 4.8744 0.71043 0.89899 146.97 5.2426 2.4632 0.0019448
-181.62 2.4299e-07 2.1771e-11 -185.13 -185.13 -1.2658 726.88 0.0013757 -185.13 -185.13 -1.2658 1.3480 1.9210 2095.7 -0.0077283 6794.5 0.20616 9.7079e-08 1.0301e+07 354.35 371.60 4.8170 0.71438 0.90294 147.69 5.0904 2.4906 0.0019934
-180.62 3.4425e-07 3.0244e-11 -183.21 -183.21 -1.2450 725.85 0.0013777 -183.21 -183.21 -1.2450 1.3470 1.9220 2088.9 -0.0077225 6314.4 0.20584 1.3605e-07 7.3504e+06 355.06 372.51 4.7612 0.71833 0.90688 148.41 4.9442 2.5181 0.0020423
-179.62 4.8378e-07 4.1676e-11 -181.29 -181.29 -1.2243 724.81 0.0013797 -181.29 -181.29 -1.2243 1.3461 1.9231 2082.0 -0.0077164 5878.8 0.20551 1.8915e-07 5.2868e+06 355.78 373.42 4.7068 0.72227 0.91082 149.13 4.8038 2.5456 0.0020915
-178.62 6.7459e-07 5.6986e-11 -179.37 -179.37 -1.2038 723.78 0.0013816 -179.37 -179.37 -1.2038 1.3453 1.9241 2075.2 -0.0077102 5482.9 0.20517 2.6096e-07 3.8320e+06 356.51 374.33 4.6538 0.72620 0.91475 149.84 4.6688 2.5731 0.0021410
-177.62 9.3358e-07 7.7333e-11 -177.44 -177.44 -1.1836 722.75 0.0013836 -177.44 -177.44 -1.1836 1.3445 1.9252 2068.4 -0.0077039 5122.6 0.20483 3.5737e-07 2.7982e+06 357.23 375.25 4.6022 0.73012 0.91867 150.54 4.5390 2.6005 0.0021907
-176.62 1.2826e-06 1.0418e-10 -175.52 -175.52 -1.1635 721.72 0.0013856 -175.52 -175.52 -1.1635 1.3437 1.9263 2061.5 -0.0076973 4794.1 0.20447 4.8588e-07 2.0581e+06 357.97 376.17 4.5519 0.73403 0.92258 151.25 4.4142 2.6280 0.0022408
-175.62 1.7496e-06 1.3936e-10 -173.59 -173.59 -1.1437 720.69 0.0013876 -173.59 -173.59 -1.1437 1.3430 1.9274 2054.7 -0.0076907 4494.3 0.20411 6.5601e-07 1.5244e+06 358.70 377.09 4.5029 0.73792 0.92648 151.95 4.2941 2.6555 0.0022912
-174.62 2.3705e-06 1.8515e-10 -171.66 -171.66 -1.1240 719.66 0.0013895 -171.66 -171.66 -1.1240 1.3423 1.9286 2047.9 -0.0076838 4220.2 0.20375 8.7976e-07 1.1367e+06 359.44 378.02 4.4551 0.74181 0.93036 152.64 4.1784 2.6830 0.0023418
-173.62 3.1903e-06 2.4436e-10 -169.73 -169.73 -1.1045 718.64 0.0013915 -169.73 -169.73 -1.1045 1.3417 1.9298 2041.0 -0.0076769 3969.3 0.20338 1.1721e-06 8.5314e+05 360.19 378.95 4.4085 0.74568 0.93423 153.33 4.0671 2.7105 0.0023928
-172.62 4.2661e-06 3.2042e-10 -167.80 -167.80 -1.0852 717.61 0.0013935 -167.80 -167.80 -1.0852 1.3411 1.9310 2034.2 -0.0076698 3739.3 0.20300 1.5518e-06 6.4441e+05 360.93 379.89 4.3631 0.74953 0.93809 154.02 3.9599 2.7379 0.0024440
-171.62 5.6692e-06 4.1755e-10 -165.87 -165.87 -1.0661 716.58 0.0013955 -165.87 -165.87 -1.0661 1.3405 1.9322 2027.3 -0.0076625 3528.0 0.20261 2.0419e-06 4.8974e+05 361.69 380.83 4.3188 0.75337 0.94193 154.71 3.8566 2.7654 0.0024955
-170.62 7.4884e-06 5.4082e-10 -163.94 -163.94 -1.0472 715.56 0.0013975 -163.94 -163.94 -1.0472 1.3400 1.9334 2020.5 -0.0076552 3333.8 0.20222 2.6708e-06 3.7442e+05 362.44 381.77 4.2755 0.75720 0.94575 155.39 3.7570 2.7929 0.0025473
-169.62 9.8334e-06 6.9637e-10 -162.00 -162.00 -1.0284 714.54 0.0013995 -162.00 -162.00 -1.0284 1.3395 1.9347 2013.6 -0.0076477 3154.9 0.20182 3.4733e-06 2.8791e+05 363.20 382.72 4.2334 0.76100 0.94956 156.07 3.6609 2.8204 0.0025994
-168.62 1.2839e-05 8.9154e-10 -160.07 -160.07 -1.0098 713.52 0.0014015 -160.07 -160.07 -1.0098 1.3390 1.9359 2006.8 -0.0076401 2989.9 0.20141 4.4917e-06 2.2263e+05 363.96 383.67 4.1922 0.76479 0.95335 156.74 3.5683 2.8479 0.0026518
-167.62 1.6672e-05 1.1351e-09 -158.13 -158.13 -0.99134 712.49 0.0014035 -158.13 -158.13 -0.99134 1.3386 1.9372 2000.0 -0.0076323 2837.5 0.20100 5.7771e-06 1.7310e+05 364.73 384.63 4.1521 0.76856 0.95712 157.41 3.4790 2.8754 0.0027045
-166.62 2.1533e-05 1.4374e-09 -156.19 -156.19 -0.97306 711.47 0.0014055 -156.19 -156.19 -0.97306 1.3382 1.9385 1993.1 -0.0076245 2696.5 0.20058 7.3914e-06 1.3529e+05 365.50 385.59 4.1129 0.77232 0.96087 158.08 3.3927 2.9029 0.0027575
-165.62 2.7666e-05 1.8107e-09 -154.25 -154.25 -0.95494 710.45 0.0014075 -154.25 -154.25 -0.95494 1.3378 1.9398 1986.3 -0.0076165 2566.0 0.20016 9.4084e-06 1.0629e+05 366.27 386.55 4.0746 0.77605 0.96460 158.75 3.3095 2.9304 0.0028108
-164.62 3.5367e-05 2.2692e-09 -152.31 -152.31 -0.93698 709.44 0.0014096 -152.31 -152.31 -0.93698 1.3375 1.9411 1979.4 -0.0076084 2444.9 0.19973 1.1916e-05 83918. 367.05 387.52 4.0372 0.77976 0.96832 159.41 3.2291 2.9579 0.0028643
-163.62 4.4989e-05 2.8299e-09 -150.37 -150.37 -0.91917 708.42 0.0014116 -150.37 -150.37 -0.91917 1.3371 1.9424 1972.6 -0.0076002 2332.3 0.19930 1.5020e-05 66577. 367.83 388.49 4.0008 0.78346 0.97201 160.07 3.1514 2.9854 0.0029182
-162.62 5.6956e-05 3.5120e-09 -148.43 -148.43 -0.90151 707.40 0.0014136 -148.43 -148.43 -0.90151 1.3368 1.9437 1965.8 -0.0075919 2227.7 0.19886 1.8844e-05 53068. 368.62 389.46 3.9651 0.78713 0.97569 160.72 3.0764 3.0129 0.0029723
-161.62 7.1773e-05 4.3380e-09 -146.48 -146.48 -0.88400 706.38 0.0014157 -146.48 -146.48 -0.88400 1.3365 1.9451 1959.0 -0.0075834 2130.2 0.19841 2.3533e-05 42494. 369.41 390.44 3.9304 0.79079 0.97935 161.38 3.0038 3.0404 0.0030268
-160.62 9.0036e-05 5.3339e-09 -144.54 -144.54 -0.86663 705.37 0.0014177 -144.54 -144.54 -0.86663 1.3363 1.9465 1952.1 -0.0075748 2039.2 0.19796 2.9258e-05 34178. 370.20 391.42 3.8964 0.79443 0.98298 162.03 2.9337 3.0679 0.0030815
-159.62 0.00011245 6.5291e-09 -142.59 -142.59 -0.84940 704.35 0.0014197 -142.59 -142.59 -0.84940 1.3360 1.9478 1945.3 -0.0075661 1954.2 0.19751 3.6221e-05 27609. 371.00 392.40 3.8632 0.79805 0.98660 162.68 2.8658 3.0955 0.0031365
-158.62 0.00013985 7.9574e-09 -140.64 -140.64 -0.83231 703.34 0.0014218 -140.64 -140.64 -0.83231 1.3358 1.9492 1938.5 -0.0075573 1874.8 0.19705 4.4652e-05 22395. 371.80 393.39 3.8307 0.80164 0.99020 163.32 2.8002 3.1230 0.0031918
-157.62 0.00017320 9.6572e-09 -138.69 -138.69 -0.81536 702.32 0.0014238 -138.69 -138.69 -0.81536 1.3356 1.9506 1931.7 -0.0075484 1800.3 0.19658 5.4822e-05 18241. 372.60 394.38 3.7990 0.80522 0.99378 163.96 2.7367 3.1505 0.0032474
-156.62 0.00021364 1.1672e-08 -136.74 -136.74 -0.79854 701.31 0.0014259 -136.74 -136.74 -0.79854 1.3354 1.9520 1924.9 -0.0075393 1730.5 0.19611 6.7040e-05 14916. 373.41 395.38 3.7680 0.80878 0.99734 164.60 2.6752 3.1780 0.0033033
-155.62 0.00026248 1.4050e-08 -134.79 -134.79 -0.78185 700.30 0.0014280 -134.79 -134.79 -0.78185 1.3352 1.9534 1918.1 -0.0075302 1664.9 0.19564 8.1666e-05 12245. 374.22 396.38 3.7377 0.81232 1.0009 165.24 2.6157 3.2055 0.0033595
-154.62 0.00032125 1.6845e-08 -132.83 -132.83 -0.76530 699.29 0.0014300 -132.83 -132.83 -0.76530 1.3350 1.9548 1911.3 -0.0075209 1603.3 0.19516 9.9109e-05 10090. 375.03 397.38 3.7081 0.81585 1.0044 165.87 2.5580 3.2330 0.0034160
-153.62 0.00039171 2.0120e-08 -130.88 -130.88 -0.74887 698.27 0.0014321 -130.88 -130.88 -0.74887 1.3349 1.9563 1904.5 -0.0075114 1545.3 0.19468 0.00011984 8344.6 375.85 398.39 3.6792 0.81935 1.0079 166.50 2.5022 3.2606 0.0034727
-152.62 0.00047590 2.3942e-08 -128.92 -128.92 -0.73256 697.26 0.0014342 -128.92 -128.92 -0.73256 1.3348 1.9577 1897.8 -0.0075019 1490.6 0.19419 0.00014439 6925.9 376.67 399.40 3.6509 0.82284 1.0114 167.13 2.4481 3.2881 0.0035298
-151.62 0.00057613 2.8385e-08 -126.96 -126.96 -0.71638 696.25 0.0014363 -126.96 -126.96 -0.71638 1.3346 1.9592 1891.0 -0.0074922 1438.9 0.19370 0.00017336 5768.4 377.49 400.41 3.6232 0.82631 1.0149 167.76 2.3957 3.3156 0.0035872
-150.62 0.00069507 3.3532e-08 -125.00 -125.00 -0.70032 695.24 0.0014384 -125.00 -125.00 -0.70032 1.3345 1.9606 1884.2 -0.0074824 1390.2 0.19320 0.00020744 4820.7 378.32 401.42 3.5962 0.82976 1.0183 168.38 2.3448 3.3431 0.0036448
-149.62 0.00083574 3.9473e-08 -123.04 -123.04 -0.68438 694.23 0.0014404 -123.04 -123.04 -0.68438 1.3345 1.9621 1877.4 -0.0074724 1344.0 0.19270 0.00024740 4042.0 379.15 402.44 3.5697 0.83319 1.0218 169.00 2.2956 3.3706 0.0037027
-148.62 0.0010016 4.6309e-08 -121.08 -121.08 -0.66855 693.22 0.0014425 -121.08 -121.08 -0.66855 1.3344 1.9636 1870.7 -0.0074623 1300.3 0.19220 0.00029412 3400.0 379.99 403.47 3.5438 0.83661 1.0252 169.62 2.2478 3.3982 0.0037610
-147.62 0.0011965 5.4147e-08 -119.11 -119.11 -0.65284 692.21 0.0014447 -119.11 -119.11 -0.65284 1.3343 1.9651 1863.9 -0.0074521 1258.9 0.19169 0.00034856 2869.0 380.83 404.49 3.5185 0.84001 1.0286 170.24 2.2014 3.4257 0.0038195
-146.62 0.0014249 6.3104e-08 -117.15 -117.15 -0.63724 691.20 0.0014468 -117.15 -117.15 -0.63724 1.3343 1.9666 1857.2 -0.0074417 1219.6 0.19117 0.00041181 2428.3 381.67 405.52 3.4938 0.84340 1.0320 170.85 2.1565 3.4532 0.0038783
-145.62 0.0016917 7.3306e-08 -115.18 -115.18 -0.62175 690.19 0.0014489 -115.18 -115.18 -0.62175 1.3343 1.9682 1850.4 -0.0074312 1182.3 0.19066 0.00048510 2061.4 382.51 406.56 3.4695 0.84677 1.0353 171.46 2.1128 3.4807 0.0039374
-144.62 0.0020026 8.4891e-08 -113.21 -113.21 -0.60637 689.18 0.0014510 -113.21 -113.21 -0.60637 1.3343 1.9697 1843.7 -0.0074206 1146.8 0.19014 0.00056976 1755.1 383.36 407.59 3.4458 0.85012 1.0387 172.07 2.0705 3.5082 0.0039967
-143.62 0.0023637 9.8004e-08 -111.24 -111.24 -0.59110 688.17 0.0014531 -111.24 -111.24 -0.59110 1.3343 1.9713 1836.9 -0.0074098 1113.0 0.18962 0.00066731 1498.6 384.21 408.63 3.4226 0.85346 1.0420 172.68 2.0294 3.5358 0.0040564
-142.62 0.0027820 1.1280e-07 -109.27 -109.27 -0.57593 687.16 0.0014553 -109.27 -109.27 -0.57593 1.3343 1.9728 1830.2 -0.0073988 1080.8 0.18909 0.00077939 1283.1 385.07 409.68 3.3999 0.85679 1.0454 173.28 1.9896 3.5633 0.0041164
-141.62 0.0032653 1.2945e-07 -107.30 -107.30 -0.56087 686.15 0.0014574 -107.30 -107.30 -0.56087 1.3343 1.9744 1823.5 -0.0073878 1050.1 0.18856 0.00090784 1101.5 385.93 410.72 3.3777 0.86011 1.0487 173.88 1.9508 3.5908 0.0041766
-140.62 0.0038222 1.4812e-07 -105.32 -105.32 -0.54591 685.14 0.0014596 -105.32 -105.32 -0.54591 1.3344 1.9760 1816.7 -0.0073765 1020.7 0.18803 0.0010547 948.16 386.79 411.77 3.3560 0.86341 1.0520 174.48 1.9133 3.6183 0.0042372
-139.62 0.0044623 1.6900e-07 -103.34 -103.34 -0.53105 684.13 0.0014617 -103.34 -103.34 -0.53105 1.3344 1.9776 1810.0 -0.0073651 992.74 0.18749 0.0012221 818.26 387.65 412.83 3.3347 0.86670 1.0553 175.08 1.8768 3.6459 0.0042980
-138.62 0.0051963 1.9228e-07 -101.37 -101.37 -0.51629 683.12 0.0014639 -101.37 -101.37 -0.51629 1.3345 1.9792 1803.3 -0.0073536 965.97 0.18695 0.0014125 707.94 388.52 413.88 3.3139 0.86998 1.0586 175.67 1.8413 3.6734 0.0043592
-137.62 0.0060358 2.1817e-07 -99.386 -99.386 -0.50162 682.11 0.0014660 -99.386 -99.386 -0.50162 1.3346 1.9808 1796.6 -0.0073419 940.35 0.18641 0.0016287 614.00 389.39 414.94 3.2935 0.87325 1.0619 176.26 1.8069 3.7009 0.0044206
-136.62 0.0069938 2.4687e-07 -97.404 -97.404 -0.48705 681.10 0.0014682 -97.404 -97.404 -0.48705 1.3347 1.9825 1789.9 -0.0073301 915.81 0.18586 0.0018733 533.80 390.26 416.00 3.2735 0.87650 1.0651 176.85 1.7734 3.7284 0.0044823
-135.62 0.0080843 2.7861e-07 -95.421 -95.421 -0.47258 680.09 0.0014704 -95.421 -95.421 -0.47258 1.3348 1.9841 1783.2 -0.0073180 892.30 0.18531 0.0021497 465.17 391.14 417.07 3.2540 0.87975 1.0684 177.44 1.7409 3.7559 0.0045443
-134.62 0.0093230 3.1360e-07 -93.436 -93.436 -0.45820 679.08 0.0014726 -93.436 -93.436 -0.45820 1.3350 1.9858 1776.5 -0.0073059 869.75 0.18476 0.0024613 406.30 392.02 418.14 3.2348 0.88299 1.0716 178.02 1.7093 3.7834 0.0046066
-133.62 0.010727 3.5207e-07 -91.449 -91.449 -0.44391 678.07 0.0014748 -91.450 -91.449 -0.44391 1.3351 1.9875 1769.8 -0.0072935 848.11 0.18421 0.0028116 355.67 392.91 419.21 3.2161 0.88622 1.0749 178.61 1.6786 3.8109 0.0046691
-132.62 0.012315 3.9425e-07 -89.461 -89.461 -0.42971 677.06 0.0014770 -89.461 -89.461 -0.42971 1.3353 1.9892 1763.1 -0.0072810 827.32 0.18365 0.0032049 312.03 393.79 420.29 3.1977 0.88944 1.0781 179.19 1.6488 3.8385 0.0047320
-131.62 0.014106 4.4037e-07 -87.471 -87.471 -0.41560 676.04 0.0014792 -87.471 -87.471 -0.41560 1.3354 1.9909 1756.4 -0.0072684 807.34 0.18309 0.0036453 274.33 394.68 421.36 3.1798 0.89266 1.0813 179.76 1.6197 3.8660 0.0047951
-130.62 0.016124 4.9067e-07 -85.479 -85.479 -0.40157 675.03 0.0014814 -85.479 -85.479 -0.40157 1.3356 1.9926 1749.7 -0.0072555 788.12 0.18253 0.0041375 241.69 395.58 422.44 3.1622 0.89586 1.0846 180.34 1.5915 3.8935 0.0048586
-129.62 0.018392 5.4537e-07 -83.486 -83.485 -0.38763 674.02 0.0014836 -83.486 -83.486 -0.38763 1.3358 1.9944 1743.0 -0.0072425 769.63 0.18196 0.0046867 213.37 396.47 423.53 3.1450 0.89906 1.0878 180.91 1.5641 3.9210 0.0049223
-128.62 0.020935 6.0470e-07 -81.490 -81.490 -0.37378 673.01 0.0014859 -81.491 -81.490 -0.37378 1.3360 1.9961 1736.3 -0.0072294 751.83 0.18140 0.0052981 188.75 397.37 424.62 3.1281 0.90226 1.0910 181.48 1.5374 3.9485 0.0049863
-127.62 0.023783 6.6887e-07 -79.493 -79.493 -0.36001 672.00 0.0014881 -79.494 -79.493 -0.36001 1.3363 1.9979 1729.6 -0.0072160 734.67 0.18083 0.0059776 167.29 398.27 425.71 3.1116 0.90545 1.0942 182.05 1.5114 3.9760 0.0050506
-126.62 0.026966 7.3808e-07 -77.494 -77.494 -0.34632 670.98 0.0014904 -77.495 -77.495 -0.34632 1.3365 1.9997 1722.9 -0.0072025 718.14 0.18025 0.0067313 148.56 399.18 426.80 3.0954 0.90863 1.0974 182.62 1.4861 4.0035 0.0051152
-125.62 0.030515 8.1254e-07 -75.494 -75.494 -0.33271 669.97 0.0014926 -75.494 -75.494 -0.33272 1.3368 2.0015 1716.2 -0.0071888 702.18 0.17968 0.0075660 132.17 400.09 427.89 3.0795 0.91181 1.1006 183.18 1.4615 4.0310 0.0051800
-124.62 0.034467 8.9241e-07 -73.491 -73.491 -0.31919 668.95 0.0014949 -73.492 -73.492 -0.31919 1.3371 2.0033 1709.5 -0.0071749 686.79 0.17910 0.0084885 117.81 401.00 428.99 3.0640 0.91499 1.1038 183.74 1.4375 4.0584 0.0052452
-123.62 0.038859 9.7784e-07 -71.487 -71.487 -0.30574 667.94 0.0014971 -71.488 -71.487 -0.30574 1.3374 2.0051 1702.8 -0.0071609 671.93 0.17852 0.0095065 105.19 401.91 430.10 3.0488 0.91816 1.1070 184.30 1.4141 4.0859 0.0053106
-122.62 0.043731 1.0690e-06 -69.481 -69.481 -0.29236 666.92 0.0014994 -69.482 -69.481 -0.29237 1.3377 2.0070 1696.2 -0.0071466 657.57 0.17794 0.010628 94.092 402.83 431.20 3.0339 0.92134 1.1102 184.86 1.3913 4.1134 0.0053764
-121.62 0.049128 1.1659e-06 -67.473 -67.473 -0.27907 665.91 0.0015017 -67.474 -67.473 -0.27907 1.3380 2.0089 1689.5 -0.0071322 643.70 0.17736 0.011861 84.309 403.75 432.31 3.0193 0.92451 1.1134 185.41 1.3691 4.1409 0.0054424
-120.62 0.055096 1.2687e-06 -65.463 -65.463 -0.26585 664.89 0.0015040 -65.464 -65.463 -0.26585 1.3384 2.0107 1682.8 -0.0071176 630.28 0.17678 0.013215 75.669 404.67 433.42 3.0050 0.92767 1.1166 185.96 1.3475 4.1683 0.0055087
-119.62 0.061684 1.3773e-06 -63.452 -63.451 -0.25270 663.87 0.0015063 -63.452 -63.452 -0.25271 1.3387 2.0126 1676.1 -0.0071028 617.30 0.17619 0.014700 68.027 405.60 434.53 2.9909 0.93084 1.1198 186.51 1.3264 4.1958 0.0055752
-118.62 0.068946 1.4918e-06 -61.438 -61.437 -0.23963 662.86 0.0015086 -61.439 -61.438 -0.23963 1.3391 2.0146 1669.4 -0.0070878 604.74 0.17560 0.016325 61.255 406.53 435.64 2.9772 0.93401 1.1231 187.06 1.3058 4.2233 0.0056421
-117.62 0.076937 1.6121e-06 -59.422 -59.422 -0.22663 661.84 0.0015109 -59.423 -59.422 -0.22663 1.3395 2.0165 1662.8 -0.0070726 592.58 0.17501 0.018101 55.245 407.46 436.76 2.9638 0.93718 1.1263 187.60 1.2857 4.2507 0.0057092
-116.62 0.085718 1.7380e-06 -57.405 -57.404 -0.21370 660.82 0.0015133 -57.406 -57.405 -0.21370 1.3400 2.0184 1656.1 -0.0070573 580.80 0.17442 0.020040 49.901 408.39 437.88 2.9506 0.94035 1.1295 188.14 1.2660 4.2782 0.0057767
-115.62 0.095353 1.8694e-06 -55.385 -55.384 -0.20084 659.80 0.0015156 -55.386 -55.385 -0.20084 1.3404 2.0204 1649.4 -0.0070417 569.38 0.17383 0.022152 45.142 409.33 439.01 2.9377 0.94352 1.1327 188.68 1.2468 4.3056 0.0058444
-114.62 0.10591 2.0060e-06 -53.364 -53.363 -0.18804 658.78 0.0015180 -53.365 -53.364 -0.18805 1.3409 2.0224 1642.7 -0.0070260 558.32 0.17323 0.024451 40.898 410.27 440.13 2.9250 0.94669 1.1360 189.22 1.2281 4.3330 0.0059123
-113.62 0.11746 2.1475e-06 -51.341 -51.339 -0.17532 657.76 0.0015203 -51.342 -51.340 -0.17533 1.3413 2.0244 1636.0 -0.0070100 547.59 0.17264 0.026949 37.107 411.21 441.26 2.9126 0.94987 1.1392 189.75 1.2097 4.3604 0.0059806
-112.62 0.13008 2.2933e-06 -49.315 -49.314 -0.16266 656.73 0.0015227 -49.316 -49.315 -0.16267 1.3418 2.0264 1629.3 -0.0069938 537.18 0.17204 0.029661 33.715 412.16 442.39 2.9005 0.95305 1.1424 190.28 1.1918 4.3879 0.0060491
-111.62 0.14384 2.4431e-06 -47.288 -47.286 -0.15007 655.71 0.0015251 -47.289 -47.287 -0.15008 1.3424 2.0285 1622.7 -0.0069774 527.08 0.17144 0.032600 30.675 413.10 443.53 2.8885 0.95623 1.1457 190.81 1.1742 4.4153 0.0061180
-110.62 0.15884 2.5961e-06 -45.258 -45.256 -0.13755 654.69 0.0015274 -45.259 -45.258 -0.13755 1.3429 2.0305 1616.0 -0.0069609 517.28 0.17084 0.035781 27.948 414.06 444.66 2.8769 0.95942 1.1490 191.34 1.1570 4.4427 0.0061871
-109.62 0.17516 2.7517e-06 -43.226 -43.225 -0.12508 653.66 0.0015298 -43.228 -43.226 -0.12509 1.3435 2.0326 1609.3 -0.0069441 507.76 0.17024 0.039220 25.497 415.01 445.80 2.8654 0.96261 1.1522 191.86 1.1402 4.4701 0.0062564
-108.62 0.19290 2.9090e-06 -41.193 -41.191 -0.11268 652.64 0.0015322 -41.194 -41.192 -0.11269 1.3441 2.0347 1602.6 -0.0069271 498.51 0.16964 0.042933 23.292 415.96 446.94 2.8542 0.96581 1.1555 192.38 1.1236 4.4974 0.0063261
-107.62 0.21215 3.0670e-06 -39.157 -39.155 -0.10035 651.61 0.0015347 -39.158 -39.156 -0.10036 1.3447 2.0369 1595.9 -0.0069098 489.52 0.16903 0.046937 21.305 416.92 448.09 2.8433 0.96901 1.1588 192.90 1.1075 4.5248 0.0063960
-106.62 0.23301 3.2245e-06 -37.119 -37.116 -0.088073 650.58 0.0015371 -37.120 -37.118 -0.088082 1.3453 2.0390 1589.2 -0.0068924 480.79 0.16843 0.051250 19.512 417.88 449.23 2.8325 0.97222 1.1621 193.41 1.0916 4.5522 0.0064662
-105.62 0.25561 3.3804e-06 -35.079 -35.076 -0.075859 649.55 0.0015395 -35.080 -35.078 -0.075868 1.3460 2.0412 1582.6 -0.0068747 472.30 0.16782 0.055891 17.892 418.85 450.38 2.8220 0.97544 1.1655 193.93 1.0760 4.5795 0.0065367
-104.62 0.28004 3.5332e-06 -33.037 -33.034 -0.063704 648.52 0.0015420 -33.038 -33.035 -0.063714 1.3467 2.0434 1575.9 -0.0068569 464.04 0.16721 0.060878 16.426 419.81 451.53 2.8116 0.97867 1.1688 194.44 1.0608 4.6069 0.0066074
-103.62 0.30643 3.6813e-06 -30.992 -30.989 -0.051608 647.49 0.0015444 -30.994 -30.991 -0.051619 1.3474 2.0456 1569.2 -0.0068387 456.00 0.16660 0.066231 15.099 420.78 452.68 2.8015 0.98191 1.1722 194.94 1.0458 4.6342 0.0066785
-102.62 0.33490 3.8229e-06 -28.945 -28.942 -0.039571 646.46 0.0015469 -28.947 -28.944 -0.039582 1.3481 2.0478 1562.5 -0.0068204 448.18 0.16600 0.071971 13.894 421.75 453.84 2.7916 0.98516 1.1755 195.44 1.0310 4.6615 0.0067498
-101.62 0.36558 3.9560e-06 -26.897 -26.893 -0.027591 645.43 0.0015494 -26.898 -26.894 -0.027602 1.3489 2.0501 1555.8 -0.0068018 440.57 0.16539 0.078120 12.801 422.73 454.99 2.7818 0.98841 1.1789 195.95 1.0166 4.6888 0.0068213
-100.62 0.39862 4.0785e-06 -24.845 -24.841 -0.015667 644.39 0.0015519 -24.847 -24.843 -0.015678 1.3497 2.0524 1549.1 -0.0067830 433.16 0.16478 0.084699 11.807 423.70 456.15 2.7723 0.99168 1.1823 196.44 1.0024 4.7161 0.0068932
-99.625 0.43414 4.1880e-06 -22.792 -22.787 -0.0037987 643.36 0.0015544 -22.794 -22.789 -0.0038103 1.3505 2.0547 1542.4 -0.0067639 425.95 0.16416 0.091731 10.901 424.68 457.31 2.7630 0.99496 1.1858 196.94 0.98838 4.7434 0.0069653
-98.625 0.47230 4.2818e-06 -20.736 -20.731 0.0080145 642.32 0.0015569 -20.738 -20.733 0.0080027 1.3514 2.0570 1535.7 -0.0067447 418.92 0.16355 0.099240 10.077 425.66 458.48 2.7538 0.99825 1.1892 197.43 0.97464 4.7707 0.0070377
-97.625 0.51325 4.3572e-06 -18.678 -18.672 0.019773 641.28 0.0015594 -18.680 -18.674 0.019762 1.3522 2.0594 1529.0 -0.0067251 412.07 0.16294 0.10725 9.3239 426.65 459.64 2.7448 1.0016 1.1927 197.92 0.96112 4.7979 0.0071103
-96.625 0.55714 4.4109e-06 -16.618 -16.611 0.031479 640.24 0.0015619 -16.620 -16.614 0.031467 1.3531 2.0618 1522.3 -0.0067053 405.39 0.16233 0.11579 8.6365 427.63 460.81 2.7360 1.0049 1.1962 198.40 0.94783 4.8251 0.0071832
-95.625 0.60416 4.4396e-06 -14.555 -14.548 0.043132 639.20 0.0015645 -14.557 -14.550 0.043120 1.3540 2.0642 1515.7 -0.0066853 398.88 0.16171 0.12488 8.0078 428.62 461.98 2.7274 1.0082 1.1997 198.88 0.93475 4.8524 0.0072564
-94.625 0.65446 4.4397e-06 -12.489 -12.482 0.054733 638.16 0.0015670 -12.491 -12.484 0.054721 1.3550 2.0667 1509.0 -0.0066650 392.53 0.16110 0.13455 7.4323 429.61 463.15 2.7189 1.0116 1.2032 199.36 0.92188 4.8796 0.0073299
-93.625 0.70822 4.4072e-06 -10.422 -10.414 0.066283 637.12 0.0015696 -10.424 -10.416 0.066271 1.3560 2.0691 1502.3 -0.0066444 386.34 0.16048 0.14482 6.9050 430.60 464.32 2.7107 1.0149 1.2068 199.83 0.90921 4.9068 0.0074036
-92.625 0.76564 4.3378e-06 -8.3516 -8.3432 0.077782 636.07 0.0015722 -8.3535 -8.3452 0.077771 1.3570 2.0716 1495.6 -0.0066236 380.31 0.15987 0.15573 6.4212 431.60 465.49 2.7025 1.0183 1.2104 200.30 0.89673 4.9340 0.0074776
-91.625 0.82689 4.2270e-06 -6.2790 -6.2699 0.089231 635.02 0.0015747 -6.2808 -6.2719 0.089220 1.3580 2.0742 1488.9 -0.0066025 374.41 0.15925 0.16731 5.9769 432.59 466.67 2.6946 1.0217 1.2140 200.77 0.88445 4.9611 0.0075518
-90.625 0.89218 4.0698e-06 -4.2039 -4.1940 0.10063 633.98 0.0015773 -4.2056 -4.1959 0.10062 1.3591 2.0767 1482.2 -0.0065811 368.66 0.15864 0.17958 5.5685 433.59 467.84 2.6868 1.0251 1.2177 201.24 0.87236 4.9883 0.0076263
-89.625 0.96172 3.8609e-06 -2.1262 -2.1156 0.11198 632.93 0.0015800 -2.1279 -2.1174 0.11197 1.3602 2.0793 1475.5 -0.0065595 363.05 0.15802 0.19258 5.1928 434.59 469.02 2.6791 1.0285 1.2213 201.70 0.86045 5.0154 0.0077011
-88.625 1.0357 3.5947e-06 -0.045950 -0.034525 0.12329 631.88 0.0015826 -0.047516 -0.036215 0.12328 1.3613 2.0819 1468.8 -0.0065375 357.56 0.15740 0.20633 4.8466 435.59 470.20 2.6717 1.0320 1.2250 202.15 0.84873 5.0425 0.0077761
-87.625 1.1144 3.2652e-06 2.0369 2.0492 0.13454 630.83 0.0015852 2.0355 2.0476 0.13454 1.3625 2.0846 1462.1 -0.0065153 352.21 0.15679 0.22087 4.5276 436.60 471.39 2.6643 1.0354 1.2288 202.61 0.83718 5.0696 0.0078514
-86.625 1.1979 2.8659e-06 4.1223 4.1355 0.14576 629.77 0.0015879 4.1211 4.1342 0.14575 1.3637 2.0873 1455.4 -0.0064928 346.98 0.15617 0.23623 4.2331 437.61 472.57 2.6571 1.0389 1.2325 203.06 0.82580 5.0967 0.0079270
-85.625 1.2866 2.3899e-06 6.2104 6.2246 0.15692 628.72 0.0015905 6.2094 6.2235 0.15691 1.3649 2.0900 1448.8 -0.0064701 341.87 0.15555 0.25245 3.9612 438.61 473.75 2.6501 1.0424 1.2363 203.50 0.81460 5.1237 0.0080028
-84.625 1.3806 1.8301e-06 8.3011 8.3164 0.16804 627.66 0.0015932 8.3004 8.3155 0.16803 1.3661 2.0927 1442.1 -0.0064470 336.87 0.15494 0.26956 3.7097 439.63 474.94 2.6432 1.0460 1.2402 203.95 0.80356 5.1508 0.0080789
-83.625 1.4803 1.1787e-06 10.395 10.411 0.17911 626.60 0.0015959 10.394 10.410 0.17911 1.3674 2.0955 1435.4 -0.0064236 331.99 0.15432 0.28760 3.4771 440.64 476.13 2.6364 1.0495 1.2440 204.38 0.79269 5.1778 0.0081553
-82.625 1.5858 4.2747e-07 12.491 12.508 0.19015 625.54 0.0015986 12.491 12.508 0.19014 1.3687 2.0983 1428.7 -0.0063999 327.22 0.15370 0.30659 3.2616 441.65 477.31 2.6298 1.0531 1.2479 204.82 0.78199 5.2048 0.0082319
-81.625 100.82 undefined 14.235 15.347 0.19928 625.00 0.0016000 14.235 15.347 0.19928 1.3708 2.0994 1426.5 -0.0063931 324.46 0.15347 625.00 0.0016000 14.235 15.347 0.19928 1.3708 2.0994 1426.5 -0.0063931 324.46 0.15347
-80.625 304.40 undefined 15.607 18.965 0.20642 625.00 0.0016000 15.607 18.965 0.20642 1.3737 2.0987 1429.0 -0.0064042 323.74 0.15363 625.00 0.0016000 15.607 18.965 0.20642 1.3737 2.0987 1429.0 -0.0064042 323.74 0.15363
-79.625 507.57 undefined 16.982 22.582 0.21355 625.00 0.0016000 16.982 22.582 0.21355 1.3766 2.0980 1431.5 -0.0064149 323.03 0.15380 625.00 0.0016000 16.982 22.582 0.21355 1.3766 2.0980 1431.5 -0.0064149 323.03 0.15380
-78.625 710.31 undefined 18.360 26.196 0.22065 625.00 0.0016000 18.360 26.196 0.22065 1.3795 2.0974 1434.0 -0.0064252 322.34 0.15396 625.00 0.0016000 18.360 26.196 0.22065 1.3795 2.0974 1434.0 -0.0064252 322.34 0.15396
-77.625 912.63 undefined 19.741 29.809 0.22773 625.00 0.0016000 19.741 29.809 0.22773 1.3824 2.0969 1436.5 -0.0064351 321.65 0.15413 625.00 0.0016000 19.741 29.809 0.22773 1.3824 2.0969 1436.5 -0.0064351 321.65 0.15413
-76.625 1114.5 undefined 21.125 33.420 0.23479 625.00 0.0016000 21.125 33.420 0.23479 1.3854 2.0964 1439.0 -0.0064448 320.97 0.15429 625.00 0.0016000 21.125 33.420 0.23479 1.3854 2.0964 1439.0 -0.0064448 320.97 0.15429
-75.625 1316.0 undefined 22.512 37.030 0.24183 625.00 0.0016000 22.512 37.030 0.24183 1.3883 2.0961 1441.5 -0.0064540 320.29 0.15446 625.00 0.0016000 22.512 37.030 0.24183 1.3883 2.0961 1441.5 -0.0064540 320.29 0.15446
-74.625 1517.1 undefined 23.902 40.638 0.24885 625.00 0.0016000 23.902 40.638 0.24885 1.3913 2.0957 1443.9 -0.0064630 319.63 0.15463 625.00 0.0016000 23.902 40.638 0.24885 1.3913 2.0957 1443.9 -0.0064630 319.63 0.15463
-73.625 1717.8 undefined 25.294 44.245 0.25585 625.00 0.0016000 25.294 44.245 0.25585 1.3942 2.0955 1446.3 -0.0064716 318.97 0.15479 625.00 0.0016000 25.294 44.245 0.25585 1.3942 2.0955 1446.3 -0.0064716 318.97 0.15479
-72.625 1918.1 undefined 26.690 47.850 0.26282 625.00 0.0016000 26.690 47.850 0.26282 1.3972 2.0953 1448.8 -0.0064799 318.33 0.15496 625.00 0.0016000 26.690 47.850 0.26282 1.3972 2.0953 1448.8 -0.0064799 318.33 0.15496
-71.625 2118.0 undefined 28.089 51.454 0.26978 625.00 0.0016000 28.089 51.454 0.26978 1.4002 2.0951 1451.2 -0.0064879 317.69 0.15513 625.00 0.0016000 28.089 51.454 0.26978 1.4002 2.0951 1451.2 -0.0064879 317.69 0.15513
-70.625 2317.5 undefined 29.491 55.056 0.27672 625.00 0.0016000 29.491 55.056 0.27672 1.4032 2.0950 1453.5 -0.0064955 317.06 0.15529 625.00 0.0016000 29.491 55.056 0.27672 1.4032 2.0950 1453.5 -0.0064955 317.06 0.15529
-69.625 2516.6 undefined 30.895 58.658 0.28364 625.00 0.0016000 30.895 58.658 0.28364 1.4062 2.0950 1455.9 -0.0065029 316.43 0.15546 625.00 0.0016000 30.895 58.658 0.28364 1.4062 2.0950 1455.9 -0.0065029 316.43 0.15546
-68.625 2715.3 undefined 32.303 62.258 0.29054 625.00 0.0016000 32.303 62.258 0.29054 1.4092 2.0951 1458.3 -0.0065100 315.82 0.15563 625.00 0.0016000 32.303 62.258 0.29054 1.4092 2.0951 1458.3 -0.0065100 315.82 0.15563
-67.625 2913.7 undefined 33.714 65.856 0.29742 625.00 0.0016000 33.714 65.856 0.29742 1.4123 2.0951 1460.6 -0.0065167 315.21 0.15580 625.00 0.0016000 33.714 65.856 0.29742 1.4123 2.0951 1460.6 -0.0065167 315.21 0.15580
-66.625 3111.6 undefined 35.127 69.454 0.30428 625.00 0.0016000 35.127 69.454 0.30428 1.4153 2.0953 1463.0 -0.0065232 314.61 0.15597 625.00 0.0016000 35.127 69.454 0.30428 1.4153 2.0953 1463.0 -0.0065232 314.61 0.15597
-65.625 3309.2 undefined 36.544 73.050 0.31113 625.00 0.0016000 36.544 73.050 0.31113 1.4184 2.0955 1465.3 -0.0065294 314.02 0.15614 625.00 0.0016000 36.544 73.050 0.31113 1.4184 2.0955 1465.3 -0.0065294 314.02 0.15614
-64.625 3506.4 undefined 37.964 76.646 0.31795 625.00 0.0016000 37.964 76.646 0.31795 1.4214 2.0957 1467.6 -0.0065354 313.43 0.15631 625.00 0.0016000 37.964 76.646 0.31795 1.4214 2.0957 1467.6 -0.0065354 313.43 0.15631
-63.625 3703.3 undefined 39.387 80.240 0.32476 625.00 0.0016000 39.387 80.240 0.32476 1.4245 2.0961 1469.9 -0.0065410 312.86 0.15648 625.00 0.0016000 39.387 80.240 0.32476 1.4245 2.0961 1469.9 -0.0065410 312.86 0.15648
-62.625 3899.7 undefined 40.813 83.834 0.33155 625.00 0.0016000 40.813 83.834 0.33155 1.4276 2.0964 1472.2 -0.0065464 312.28 0.15665 625.00 0.0016000 40.813 83.834 0.33155 1.4276 2.0964 1472.2 -0.0065464 312.28 0.15665
-61.625 4095.8 undefined 42.242 87.426 0.33832 625.00 0.0016000 42.242 87.426 0.33832 1.4308 2.0968 1474.4 -0.0065515 311.72 0.15682 625.00 0.0016000 42.242 87.426 0.33832 1.4308 2.0968 1474.4 -0.0065515 311.72 0.15682
-60.625 4291.6 undefined 43.675 91.018 0.34508 625.00 0.0016000 43.675 91.018 0.34508 1.4339 2.0973 1476.7 -0.0065564 311.16 0.15699 625.00 0.0016000 43.675 91.018 0.34508 1.4339 2.0973 1476.7 -0.0065564 311.16 0.15699
-59.625 4486.9 undefined 45.110 94.609 0.35182 625.00 0.0016000 45.110 94.609 0.35182 1.4370 2.0978 1478.9 -0.0065610 310.61 0.15716 625.00 0.0016000 45.110 94.609 0.35182 1.4370 2.0978 1478.9 -0.0065610 310.61 0.15716
-58.625 4682.0 undefined 46.549 98.198 0.35854 625.00 0.0016000 46.549 98.198 0.35854 1.4402 2.0983 1481.2 -0.0065654 310.07 0.15733 625.00 0.0016000 46.549 98.198 0.35854 1.4402 2.0983 1481.2 -0.0065654 310.07 0.15733
-57.625 4876.6 undefined 47.991 101.79 0.36524 625.00 0.0016000 47.991 101.79 0.36524 1.4434 2.0990 1483.4 -0.0065695 309.53 0.15750 625.00 0.0016000 47.991 101.79 0.36524 1.4434 2.0990 1483.4 -0.0065695 309.53 0.15750
-56.625 5070.9 undefined 49.436 105.38 0.37193 625.00 0.0016000 49.436 105.38 0.37193 1.4466 2.0996 1485.6 -0.0065734 309.00 0.15767 625.00 0.0016000 49.436 105.38 0.37193 1.4466 2.0996 1485.6 -0.0065734 309.00 0.15767
-55.625 5264.8 undefined 50.884 108.96 0.37860 625.00 0.0016000 50.884 108.96 0.37860 1.4498 2.1003 1487.7 -0.0065770 308.48 0.15784 625.00 0.0016000 50.884 108.96 0.37860 1.4498 2.1003 1487.7 -0.0065770 308.48 0.15784
-54.625 5458.4 undefined 52.335 112.55 0.38526 625.00 0.0016000 52.335 112.55 0.38526 1.4530 2.1010 1489.9 -0.0065804 307.96 0.15801 625.00 0.0016000 52.335 112.55 0.38526 1.4530 2.1010 1489.9 -0.0065804 307.96 0.15801
-53.625 5651.7 undefined 53.790 116.14 0.39190 625.00 0.0016000 53.790 116.14 0.39190 1.4562 2.1018 1492.1 -0.0065836 307.45 0.15819 625.00 0.0016000 53.790 116.14 0.39190 1.4562 2.1018 1492.1 -0.0065836 307.45 0.15819
-52.625 5844.6 undefined 55.248 119.72 0.39853 625.00 0.0016000 55.248 119.72 0.39853 1.4595 2.1027 1494.2 -0.0065865 306.95 0.15836 625.00 0.0016000 55.248 119.72 0.39853 1.4595 2.1027 1494.2 -0.0065865 306.95 0.15836
-51.625 6037.1 undefined 56.709 123.31 0.40514 625.00 0.0016000 56.709 123.31 0.40514 1.4627 2.1036 1496.3 -0.0065893 306.45 0.15853 625.00 0.0016000 56.709 123.31 0.40514 1.4627 2.1036 1496.3 -0.0065893 306.45 0.15853
-50.625 6229.3 undefined 58.173 126.89 0.41173 625.00 0.0016000 58.173 126.89 0.41173 1.4660 2.1045 1498.4 -0.0065918 305.96 0.15871 625.00 0.0016000 58.173 126.89 0.41173 1.4660 2.1045 1498.4 -0.0065918 305.96 0.15871
-49.625 6421.2 undefined 59.641 130.48 0.41831 625.00 0.0016000 59.641 130.48 0.41831 1.4693 2.1054 1500.5 -0.0065941 305.47 0.15888 625.00 0.0016000 59.641 130.48 0.41831 1.4693 2.1054 1500.5 -0.0065941 305.47 0.15888
-48.625 6612.7 undefined 61.112 134.06 0.42488 625.00 0.0016000 61.112 134.06 0.42488 1.4726 2.1065 1502.6 -0.0065962 304.99 0.15905 625.00 0.0016000 61.112 134.06 0.42488 1.4726 2.1065 1502.6 -0.0065962 304.99 0.15905
-47.625 6803.9 undefined 62.586 137.64 0.43143 625.00 0.0016000 62.586 137.64 0.43143 1.4760 2.1075 1504.7 -0.0065981 304.51 0.15923 625.00 0.0016000 62.586 137.64 0.43143 1.4760 2.1075 1504.7 -0.0065981 304.51 0.15923
-46.625 6994.7 undefined 64.064 141.23 0.43797 625.00 0.0016000 64.064 141.23 0.43797 1.4793 2.1086 1506.8 -0.0065998 304.05 0.15940 625.00 0.0016000 64.064 141.23 0.43797 1.4793 2.1086 1506.8 -0.0065998 304.05 0.15940
-45.625 7185.3 undefined 65.545 144.81 0.44449 625.00 0.0016000 65.545 144.81 0.44449 1.4827 2.1097 1508.8 -0.0066013 303.58 0.15958 625.00 0.0016000 65.545 144.81 0.44449 1.4827 2.1097 1508.8 -0.0066013 303.58 0.15958
-44.625 7375.4 undefined 67.029 148.39 0.45100 625.00 0.0016000 67.029 148.39 0.45100 1.4860 2.1109 1510.8 -0.0066026 303.12 0.15975 625.00 0.0016000 67.029 148.39 0.45100 1.4860 2.1109 1510.8 -0.0066026 303.12 0.15975
-43.625 7565.3 undefined 68.517 151.97 0.45750 625.00 0.0016000 68.517 151.97 0.45750 1.4894 2.1121 1512.8 -0.0066037 302.67 0.15993 625.00 0.0016000 68.517 151.97 0.45750 1.4894 2.1121 1512.8 -0.0066037 302.67 0.15993
-42.625 7754.8 undefined 70.008 155.56 0.46398 625.00 0.0016000 70.008 155.56 0.46398 1.4928 2.1134 1514.9 -0.0066046 302.22 0.16010 625.00 0.0016000 70.008 155.56 0.46398 1.4928 2.1134 1514.9 -0.0066046 302.22 0.16010
-41.625 7944.0 undefined 71.502 159.14 0.47045 625.00 0.0016000 71.502 159.14 0.47045 1.4963 2.1147 1516.8 -0.0066053 301.78 0.16028 625.00 0.0016000 71.502 159.14 0.47045 1.4963 2.1147 1516.8 -0.0066053 301.78 0.16028
-40.625 8132.9 undefined 73.000 162.72 0.47691 625.00 0.0016000 73.000 162.72 0.47691 1.4997 2.1160 1518.8 -0.0066058 301.35 0.16046 625.00 0.0016000 73.000 162.72 0.47691 1.4997 2.1160 1518.8 -0.0066058 301.35 0.16046
-39.625 8321.4 undefined 74.502 166.30 0.48335 625.00 0.0016000 74.502 166.30 0.48335 1.5032 2.1174 1520.8 -0.0066062 300.91 0.16063 625.00 0.0016000 74.502 166.30 0.48335 1.5032 2.1174 1520.8 -0.0066062 300.91 0.16063
-38.625 8509.6 undefined 76.007 169.88 0.48978 625.00 0.0016000 76.007 169.88 0.48978 1.5066 2.1188 1522.7 -0.0066064 300.49 0.16081 625.00 0.0016000 76.007 169.88 0.48978 1.5066 2.1188 1522.7 -0.0066064 300.49 0.16081
-37.625 8697.5 undefined 77.515 173.46 0.49620 625.00 0.0016000 77.515 173.46 0.49620 1.5101 2.1202 1524.7 -0.0066064 300.07 0.16099 625.00 0.0016000 77.515 173.46 0.49620 1.5101 2.1202 1524.7 -0.0066064 300.07 0.16099
-36.625 8885.1 undefined 79.027 177.04 0.50260 625.00 0.0016000 79.027 177.04 0.50260 1.5136 2.1217 1526.6 -0.0066062 299.65 0.16116 625.00 0.0016000 79.027 177.04 0.50260 1.5136 2.1217 1526.6 -0.0066062 299.65 0.16116
-35.625 9072.3 undefined 80.542 180.62 0.50900 625.00 0.0016000 80.542 180.62 0.50900 1.5171 2.1232 1528.5 -0.0066059 299.24 0.16134 625.00 0.0016000 80.542 180.62 0.50900 1.5171 2.1232 1528.5 -0.0066059 299.24 0.16134
-34.625 9259.3 undefined 82.061 184.21 0.51538 625.00 0.0016000 82.061 184.21 0.51538 1.5207 2.1248 1530.5 -0.0066054 298.83 0.16152 625.00 0.0016000 82.061 184.21 0.51538 1.5207 2.1248 1530.5 -0.0066054 298.83 0.16152
-33.625 9445.9 undefined 83.584 187.79 0.52175 625.00 0.0016000 83.584 187.79 0.52175 1.5242 2.1264 1532.3 -0.0066047 298.43 0.16170 625.00 0.0016000 83.584 187.79 0.52175 1.5242 2.1264 1532.3 -0.0066047 298.43 0.16170
-32.625 9632.2 undefined 85.110 191.37 0.52811 625.00 0.0016000 85.110 191.37 0.52811 1.5278 2.1280 1534.2 -0.0066039 298.03 0.16188 625.00 0.0016000 85.110 191.37 0.52811 1.5278 2.1280 1534.2 -0.0066039 298.03 0.16188
-31.625 9818.2 undefined 86.639 194.95 0.53445 625.00 0.0016000 86.639 194.95 0.53445 1.5314 2.1297 1536.1 -0.0066029 297.64 0.16206 625.00 0.0016000 86.639 194.95 0.53445 1.5314 2.1297 1536.1 -0.0066029 297.64 0.16206
-30.625 10004. undefined 88.172 198.53 0.54079 625.00 0.0016000 88.172 198.53 0.54079 1.5350 2.1314 1538.0 -0.0066018 297.25 0.16224 625.00 0.0016000 88.172 198.53 0.54079 1.5350 2.1314 1538.0 -0.0066018 297.25 0.16224
-29.625 10189. undefined 89.709 202.11 0.54711 625.00 0.0016000 89.709 202.11 0.54711 1.5386 2.1331 1539.8 -0.0066005 296.87 0.16242 625.00 0.0016000 89.709 202.11 0.54711 1.5386 2.1331 1539.8 -0.0066005 296.87 0.16242
-28.625 10374. undefined 91.250 205.70 0.55342 625.00 0.0016000 91.250 205.70 0.55342 1.5422 2.1349 1541.7 -0.0065991 296.49 0.16260 625.00 0.0016000 91.250 205.70 0.55342 1.5422 2.1349 1541.7 -0.0065991 296.49 0.16260
-27.625 10559. undefined 92.794 209.28 0.55972 625.00 0.0016000 92.794 209.28 0.55972 1.5459 2.1366 1543.5 -0.0065975 296.12 0.16278 625.00 0.0016000 92.794 209.28 0.55972 1.5459 2.1366 1543.5 -0.0065975 296.12 0.16278
-26.625 10744. undefined 94.341 212.86 0.56602 625.00 0.0016000 94.341 212.86 0.56602 1.5495 2.1385 1545.3 -0.0065958 295.74 0.16296 625.00 0.0016000 94.341 212.86 0.56602 1.5495 2.1385 1545.3 -0.0065958 295.74 0.16296
-25.625 10928. undefined 95.893 216.44 0.57230 625.00 0.0016000 95.893 216.44 0.57230 1.5532 2.1403 1547.1 -0.0065939 295.38 0.16314 625.00 0.0016000 95.893 216.44 0.57230 1.5532 2.1403 1547.1 -0.0065939 295.38 0.16314
-24.625 11112. undefined 97.448 220.03 0.57857 625.00 0.0016000 97.448 220.03 0.57857 1.5569 2.1422 1548.9 -0.0065919 295.02 0.16332 625.00 0.0016000 97.448 220.03 0.57857 1.5569 2.1422 1548.9 -0.0065919 295.02 0.16332
-23.625 11295. undefined 99.007 223.61 0.58482 625.00 0.0016000 99.007 223.61 0.58482 1.5606 2.1442 1550.7 -0.0065897 294.66 0.16350 625.00 0.0016000 99.007 223.61 0.58482 1.5606 2.1442 1550.7 -0.0065897 294.66 0.16350
-22.625 11478. undefined 100.57 227.19 0.59107 625.00 0.0016000 100.57 227.19 0.59107 1.5643 2.1461 1552.5 -0.0065875 294.30 0.16368 625.00 0.0016000 100.57 227.19 0.59107 1.5643 2.1461 1552.5 -0.0065875 294.30 0.16368
-21.625 11661. undefined 102.14 230.78 0.59731 625.00 0.0016000 102.14 230.78 0.59731 1.5680 2.1481 1554.3 -0.0065850 293.95 0.16386 625.00 0.0016000 102.14 230.78 0.59731 1.5680 2.1481 1554.3 -0.0065850 293.95 0.16386
-20.625 11844. undefined 103.71 234.36 0.60354 625.00 0.0016000 103.71 234.36 0.60354 1.5718 2.1501 1556.0 -0.0065825 293.61 0.16404 625.00 0.0016000 103.71 234.36 0.60354 1.5718 2.1501 1556.0 -0.0065825 293.61 0.16404
-19.625 12026. undefined 105.28 237.95 0.60976 625.00 0.0016000 105.28 237.95 0.60976 1.5755 2.1522 1557.8 -0.0065798 293.27 0.16423 625.00 0.0016000 105.28 237.95 0.60976 1.5755 2.1522 1557.8 -0.0065798 293.27 0.16423
-18.625 12208. undefined 106.86 241.53 0.61597 625.00 0.0016000 106.86 241.53 0.61597 1.5793 2.1542 1559.5 -0.0065770 292.93 0.16441 625.00 0.0016000 106.86 241.53 0.61597 1.5793 2.1542 1559.5 -0.0065770 292.93 0.16441
-17.625 12390. undefined 108.44 245.12 0.62217 625.00 0.0016000 108.44 245.12 0.62217 1.5831 2.1563 1561.2 -0.0065741 292.59 0.16459 625.00 0.0016000 108.44 245.12 0.62217 1.5831 2.1563 1561.2 -0.0065741 292.59 0.16459
-16.625 12572. undefined 110.02 248.71 0.62836 625.00 0.0016000 110.02 248.71 0.62836 1.5869 2.1585 1563.0 -0.0065711 292.26 0.16478 625.00 0.0016000 110.02 248.71 0.62836 1.5869 2.1585 1563.0 -0.0065711 292.26 0.16478
-15.625 12753. undefined 111.61 252.30 0.63454 625.00 0.0016000 111.61 252.30 0.63454 1.5907 2.1606 1564.7 -0.0065679 291.94 0.16496 625.00 0.0016000 111.61 252.30 0.63454 1.5907 2.1606 1564.7 -0.0065679 291.94 0.16496
-14.625 12934. undefined 113.20 255.88 0.64072 625.00 0.0016000 113.20 255.88 0.64072 1.5945 2.1628 1566.4 -0.0065646 291.61 0.16514 625.00 0.0016000 113.20 255.88 0.64072 1.5945 2.1628 1566.4 -0.0065646 291.61 0.16514
-13.625 13114. undefined 114.80 259.47 0.64688 625.00 0.0016000 114.80 259.47 0.64688 1.5984 2.1650 1568.1 -0.0065612 291.29 0.16533 625.00 0.0016000 114.80 259.47 0.64688 1.5984 2.1650 1568.1 -0.0065612 291.29 0.16533
-12.625 13295. undefined 116.40 263.06 0.65303 625.00 0.0016000 116.40 263.06 0.65303 1.6022 2.1673 1569.8 -0.0065577 290.98 0.16551 625.00 0.0016000 116.40 263.06 0.65303 1.6022 2.1673 1569.8 -0.0065577 290.98 0.16551
-11.625 13475. undefined 118.00 266.65 0.65918 625.00 0.0016000 118.00 266.65 0.65918 1.6061 2.1695 1571.5 -0.0065541 290.67 0.16570 625.00 0.0016000 118.00 266.65 0.65918 1.6061 2.1695 1571.5 -0.0065541 290.67 0.16570
-10.625 13654. undefined 119.61 270.24 0.66532 625.00 0.0016000 119.61 270.24 0.66532 1.6100 2.1718 1573.1 -0.0065504 290.36 0.16588 625.00 0.0016000 119.61 270.24 0.66532 1.6100 2.1718 1573.1 -0.0065504 290.36 0.16588
-9.6250 13834. undefined 121.22 273.84 0.67145 625.00 0.0016000 121.22 273.84 0.67145 1.6139 2.1742 1574.8 -0.0065465 290.05 0.16607 625.00 0.0016000 121.22 273.84 0.67145 1.6139 2.1742 1574.8 -0.0065465 290.05 0.16607
-8.6250 14013. undefined 122.84 277.43 0.67757 625.00 0.0016000 122.84 277.43 0.67757 1.6178 2.1765 1576.5 -0.0065426 289.75 0.16625 625.00 0.0016000 122.84 277.43 0.67757 1.6178 2.1765 1576.5 -0.0065426 289.75 0.16625
-7.6250 14192. undefined 124.46 281.02 0.68368 625.00 0.0016000 124.46 281.02 0.68368 1.6217 2.1789 1578.1 -0.0065386 289.45 0.16644 625.00 0.0016000 124.46 281.02 0.68368 1.6217 2.1789 1578.1 -0.0065386 289.45 0.16644
-6.6250 14371. undefined 126.08 284.62 0.68978 625.00 0.0016000 126.08 284.62 0.68978 1.6256 2.1813 1579.7 -0.0065344 289.15 0.16663 625.00 0.0016000 126.08 284.62 0.68978 1.6256 2.1813 1579.7 -0.0065344 289.15 0.16663
-5.6250 14549. undefined 127.71 288.21 0.69588 625.00 0.0016000 127.71 288.21 0.69588 1.6296 2.1837 1581.4 -0.0065302 288.86 0.16681 625.00 0.0016000 127.71 288.21 0.69588 1.6296 2.1837 1581.4 -0.0065302 288.86 0.16681
-4.6250 14727. undefined 129.34 291.81 0.70196 625.00 0.0016000 129.34 291.81 0.70196 1.6335 2.1862 1583.0 -0.0065259 288.57 0.16700 625.00 0.0016000 129.34 291.81 0.70196 1.6335 2.1862 1583.0 -0.0065259 288.57 0.16700
-3.6250 14905. undefined 130.98 295.40 0.70804 625.00 0.0016000 130.98 295.40 0.70804 1.6375 2.1886 1584.6 -0.0065214 288.29 0.16719 625.00 0.0016000 130.98 295.40 0.70804 1.6375 2.1886 1584.6 -0.0065214 288.29 0.16719
-2.6250 15083. undefined 132.62 299.00 0.71411 625.00 0.0016000 132.62 299.00 0.71411 1.6414 2.1911 1586.2 -0.0065169 288.00 0.16737 625.00 0.0016000 132.62 299.00 0.71411 1.6414 2.1911 1586.2 -0.0065169 288.00 0.16737
-1.6250 15260. undefined 134.26 302.60 0.72018 625.00 0.0016000 134.26 302.60 0.72018 1.6454 2.1937 1587.8 -0.0065123 287.72 0.16756 625.00 0.0016000 134.26 302.60 0.72018 1.6454 2.1937 1587.8 -0.0065123 287.72 0.16756
-0.62500 15437. undefined 135.91 306.20 0.72623 625.00 0.0016000 135.91 306.20 0.72623 1.6494 2.1962 1589.4 -0.0065076 287.45 0.16775 625.00 0.0016000 135.91 306.20 0.72623 1.6494 2.1962 1589.4 -0.0065076 287.45 0.16775
0.37500 15614. undefined 137.56 309.80 0.73228 625.00 0.0016000 137.56 309.80 0.73228 1.6534 2.1988 1591.0 -0.0065028 287.17 0.16794 625.00 0.0016000 137.56 309.80 0.73228 1.6534 2.1988 1591.0 -0.0065028 287.17 0.16794
1.3750 15790. undefined 139.22 313.40 0.73832 625.00 0.0016000 139.22 313.40 0.73832 1.6574 2.2014 1592.6 -0.0064980 286.90 0.16813 625.00 0.0016000 139.22 313.40 0.73832 1.6574 2.2014 1592.6 -0.0064980 286.90 0.16813
2.3750 15966. undefined 140.88 317.01 0.74436 625.00 0.0016000 140.88 317.01 0.74436 1.6615 2.2040 1594.2 -0.0064930 286.63 0.16831 625.00 0.0016000 140.88 317.01 0.74436 1.6615 2.2040 1594.2 -0.0064930 286.63 0.16831
3.3750 16142. undefined 142.54 320.61 0.75038 625.00 0.0016000 142.54 320.61 0.75038 1.6655 2.2066 1595.8 -0.0064880 286.37 0.16850 625.00 0.0016000 142.54 320.61 0.75038 1.6655 2.2066 1595.8 -0.0064880 286.37 0.16850
4.3750 16318. undefined 144.21 324.22 0.75640 625.00 0.0016000 144.21 324.22 0.75640 1.6695 2.2093 1597.3 -0.0064829 286.10 0.16869 625.00 0.0016000 144.21 324.22 0.75640 1.6695 2.2093 1597.3 -0.0064829 286.10 0.16869
5.3750 16493. undefined 145.88 327.82 0.76241 625.00 0.0016000 145.88 327.82 0.76241 1.6736 2.2119 1598.9 -0.0064777 285.84 0.16888 625.00 0.0016000 145.88 327.82 0.76241 1.6736 2.2119 1598.9 -0.0064777 285.84 0.16888
6.3750 16668. undefined 147.55 331.43 0.76842 625.00 0.0016000 147.55 331.43 0.76842 1.6776 2.2146 1600.4 -0.0064724 285.59 0.16907 625.00 0.0016000 147.55 331.43 0.76842 1.6776 2.2146 1600.4 -0.0064724 285.59 0.16907
7.3750 16843. undefined 149.23 335.04 0.77442 625.00 0.0016000 149.23 335.04 0.77442 1.6817 2.2173 1602.0 -0.0064671 285.33 0.16926 625.00 0.0016000 149.23 335.04 0.77442 1.6817 2.2173 1602.0 -0.0064671 285.33 0.16926
8.3750 17018. undefined 150.92 338.65 0.78041 625.00 0.0016000 150.92 338.65 0.78041 1.6858 2.2201 1603.5 -0.0064617 285.08 0.16945 625.00 0.0016000 150.92 338.65 0.78041 1.6858 2.2201 1603.5 -0.0064617 285.08 0.16945
9.3750 17192. undefined 152.60 342.26 0.78639 625.00 0.0016000 152.60 342.26 0.78639 1.6899 2.2228 1605.0 -0.0064562 284.83 0.16965 625.00 0.0016000 152.60 342.26 0.78639 1.6899 2.2228 1605.0 -0.0064562 284.83 0.16965
10.375 17366. undefined 154.30 345.87 0.79237 625.00 0.0016000 154.30 345.87 0.79237 1.6940 2.2256 1606.6 -0.0064507 284.59 0.16984 625.00 0.0016000 154.30 345.87 0.79237 1.6940 2.2256 1606.6 -0.0064507 284.59 0.16984
11.375 17540. undefined 155.99 349.49 0.79834 625.00 0.0016000 155.99 349.49 0.79834 1.6981 2.2284 1608.1 -0.0064450 284.34 0.17003 625.00 0.0016000 155.99 349.49 0.79834 1.6981 2.2284 1608.1 -0.0064450 284.34 0.17003
12.375 17714. undefined 157.69 353.10 0.80431 625.00 0.0016000 157.69 353.10 0.80431 1.7022 2.2312 1609.6 -0.0064394 284.10 0.17022 625.00 0.0016000 157.69 353.10 0.80431 1.7022 2.2312 1609.6 -0.0064394 284.10 0.17022
13.375 17887. undefined 159.40 356.72 0.81027 625.00 0.0016000 159.40 356.72 0.81027 1.7063 2.2341 1611.1 -0.0064336 283.86 0.17041 625.00 0.0016000 159.40 356.72 0.81027 1.7063 2.2341 1611.1 -0.0064336 283.86 0.17041
14.375 18060. undefined 161.11 360.34 0.81622 625.00 0.0016000 161.11 360.34 0.81622 1.7105 2.2369 1612.6 -0.0064278 283.63 0.17060 625.00 0.0016000 161.11 360.34 0.81622 1.7105 2.2369 1612.6 -0.0064278 283.63 0.17060
15.375 18233. undefined 162.82 363.96 0.82217 625.00 0.0016000 162.82 363.96 0.82217 1.7146 2.2398 1614.1 -0.0064219 283.40 0.17080 625.00 0.0016000 162.82 363.96 0.82217 1.7146 2.2398 1614.1 -0.0064219 283.40 0.17080
16.375 18406. undefined 164.53 367.58 0.82810 625.00 0.0016000 164.53 367.58 0.82810 1.7188 2.2427 1615.6 -0.0064160 283.16 0.17099 625.00 0.0016000 164.53 367.58 0.82810 1.7188 2.2427 1615.6 -0.0064160 283.16 0.17099
17.375 18578. undefined 166.26 371.20 0.83404 625.00 0.0016000 166.26 371.20 0.83404 1.7229 2.2456 1617.1 -0.0064100 282.94 0.17118 625.00 0.0016000 166.26 371.20 0.83404 1.7229 2.2456 1617.1 -0.0064100 282.94 0.17118
18.375 18750. undefined 167.98 374.82 0.83997 625.00 0.0016000 167.98 374.82 0.83997 1.7271 2.2485 1618.6 -0.0064040 282.71 0.17138 625.00 0.0016000 167.98 374.82 0.83997 1.7271 2.2485 1618.6 -0.0064040 282.71 0.17138
19.375 18922. undefined 169.71 378.45 0.84589 625.00 0.0016000 169.71 378.45 0.84589 1.7312 2.2514 1620.1 -0.0063979 282.49 0.17157 625.00 0.0016000 169.71 378.45 0.84589 1.7312 2.2514 1620.1 -0.0063979 282.49 0.17157
20.375 19093. undefined 171.44 382.07 0.85180 625.00 0.0016000 171.44 382.07 0.85180 1.7354 2.2544 1621.5 -0.0063917 282.26 0.17176 625.00 0.0016000 171.44 382.07 0.85180 1.7354 2.2544 1621.5 -0.0063917 282.26 0.17176
21.375 19265. undefined 173.18 385.70 0.85771 625.00 0.0016000 173.18 385.70 0.85771 1.7396 2.2574 1623.0 -0.0063855 282.04 0.17196 625.00 0.0016000 173.18 385.70 0.85771 1.7396 2.2574 1623.0 -0.0063855 282.04 0.17196
22.375 19436. undefined 174.92 389.33 0.86361 625.00 0.0016000 174.92 389.33 0.86361 1.7438 2.2603 1624.5 -0.0063793 281.83 0.17215 625.00 0.0016000 174.92 389.33 0.86361 1.7438 2.2603 1624.5 -0.0063793 281.83 0.17215
23.375 19607. undefined 176.67 392.96 0.86951 625.00 0.0016000 176.67 392.96 0.86951 1.7480 2.2634 1625.9 -0.0063730 281.61 0.17235 625.00 0.0016000 176.67 392.96 0.86951 1.7480 2.2634 1625.9 -0.0063730 281.61 0.17235
24.375 19777. undefined 178.42 396.60 0.87540 625.00 0.0016000 178.42 396.60 0.87540 1.7522 2.2664 1627.4 -0.0063666 281.40 0.17254 625.00 0.0016000 178.42 396.60 0.87540 1.7522 2.2664 1627.4 -0.0063666 281.40 0.17254
25.375 19948. undefined 180.17 400.23 0.88129 625.00 0.0016000 180.17 400.23 0.88129 1.7564 2.2694 1628.8 -0.0063602 281.19 0.17274 625.00 0.0016000 180.17 400.23 0.88129 1.7564 2.2694 1628.8 -0.0063602 281.19 0.17274
26.375 20118. undefined 181.93 403.87 0.88717 625.00 0.0016000 181.93 403.87 0.88717 1.7606 2.2725 1630.3 -0.0063538 280.98 0.17294 625.00 0.0016000 181.93 403.87 0.88717 1.7606 2.2725 1630.3 -0.0063538 280.98 0.17294
27.375 20288. undefined 183.69 407.50 0.89305 625.00 0.0016000 183.69 407.50 0.89305 1.7648 2.2755 1631.7 -0.0063473 280.78 0.17313 625.00 0.0016000 183.69 407.50 0.89305 1.7648 2.2755 1631.7 -0.0063473 280.78 0.17313
28.375 20458. undefined 185.46 411.14 0.89892 625.00 0.0016000 185.46 411.14 0.89892 1.7691 2.2786 1633.1 -0.0063407 280.57 0.17333 625.00 0.0016000 185.46 411.14 0.89892 1.7691 2.2786 1633.1 -0.0063407 280.57 0.17333
29.375 20627. undefined 187.23 414.78 0.90478 625.00 0.0016000 187.23 414.78 0.90478 1.7733 2.2817 1634.6 -0.0063341 280.37 0.17353 625.00 0.0016000 187.23 414.78 0.90478 1.7733 2.2817 1634.6 -0.0063341 280.37 0.17353
30.375 20796. undefined 189.01 418.42 0.91064 625.00 0.0016000 189.01 418.42 0.91064 1.7775 2.2848 1636.0 -0.0063275 280.17 0.17372 625.00 0.0016000 189.01 418.42 0.91064 1.7775 2.2848 1636.0 -0.0063275 280.17 0.17372
31.375 20965. undefined 190.79 422.07 0.91649 625.00 0.0016000 190.79 422.07 0.91649 1.7818 2.2879 1637.4 -0.0063209 279.97 0.17392 625.00 0.0016000 190.79 422.07 0.91649 1.7818 2.2879 1637.4 -0.0063209 279.97 0.17392
32.375 21134. undefined 192.57 425.71 0.92234 625.00 0.0016000 192.57 425.71 0.92234 1.7860 2.2911 1638.8 -0.0063142 279.78 0.17412 625.00 0.0016000 192.57 425.71 0.92234 1.7860 2.2911 1638.8 -0.0063142 279.78 0.17412
33.375 21303. undefined 194.36 429.36 0.92819 625.00 0.0016000 194.36 429.36 0.92819 1.7903 2.2942 1640.2 -0.0063074 279.58 0.17432 625.00 0.0016000 194.36 429.36 0.92819 1.7903 2.2942 1640.2 -0.0063074 279.58 0.17432
34.375 21471. undefined 196.15 433.01 0.93402 625.00 0.0016000 196.15 433.01 0.93402 1.7945 2.2974 1641.6 -0.0063007 279.39 0.17451 625.00 0.0016000 196.15 433.01 0.93402 1.7945 2.2974 1641.6 -0.0063007 279.39 0.17451
35.375 21639. undefined 197.95 436.66 0.93986 625.00 0.0016000 197.95 436.66 0.93986 1.7988 2.3005 1643.0 -0.0062939 279.20 0.17471 625.00 0.0016000 197.95 436.66 0.93986 1.7988 2.3005 1643.0 -0.0062939 279.20 0.17471
36.375 21807. undefined 199.75 440.31 0.94568 625.00 0.0016000 199.75 440.31 0.94568 1.8030 2.3037 1644.4 -0.0062870 279.01 0.17491 625.00 0.0016000 199.75 440.31 0.94568 1.8030 2.3037 1644.4 -0.0062870 279.01 0.17491
37.375 21974. undefined 201.55 443.97 0.95151 625.00 0.0016000 201.55 443.97 0.95151 1.8073 2.3069 1645.8 -0.0062802 278.82 0.17511 625.00 0.0016000 201.55 443.97 0.95151 1.8073 2.3069 1645.8 -0.0062802 278.82 0.17511
38.375 22142. undefined 203.36 447.62 0.95732 625.00 0.0016000 203.36 447.62 0.95732 1.8116 2.3101 1647.2 -0.0062733 278.64 0.17531 625.00 0.0016000 203.36 447.62 0.95732 1.8116 2.3101 1647.2 -0.0062733 278.64 0.17531
39.375 22309. undefined 205.18 451.28 0.96314 625.00 0.0016000 205.18 451.28 0.96314 1.8159 2.3134 1648.6 -0.0062663 278.46 0.17551 625.00 0.0016000 205.18 451.28 0.96314 1.8159 2.3134 1648.6 -0.0062663 278.46 0.17551
40.375 22476. undefined 206.99 454.94 0.96894 625.00 0.0016000 206.99 454.94 0.96894 1.8202 2.3166 1650.0 -0.0062594 278.28 0.17571 625.00 0.0016000 206.99 454.94 0.96894 1.8202 2.3166 1650.0 -0.0062594 278.28 0.17571
41.375 22643. undefined 208.82 458.60 0.97475 625.00 0.0016000 208.82 458.60 0.97475 1.8244 2.3199 1651.4 -0.0062524 278.10 0.17591 625.00 0.0016000 208.82 458.60 0.97475 1.8244 2.3199 1651.4 -0.0062524 278.10 0.17591
42.375 22809. undefined 210.64 462.27 0.98055 625.00 0.0016000 210.64 462.27 0.98055 1.8287 2.3231 1652.8 -0.0062454 277.92 0.17611 625.00 0.0016000 210.64 462.27 0.98055 1.8287 2.3231 1652.8 -0.0062454 277.92 0.17611
43.375 22975. undefined 212.47 465.93 0.98634 625.00 0.0016000 212.47 465.93 0.98634 1.8330 2.3264 1654.1 -0.0062383 277.75 0.17631 625.00 0.0016000 212.47 465.93 0.98634 1.8330 2.3264 1654.1 -0.0062383 277.75 0.17631
44.375 23141. undefined 214.31 469.60 0.99213 625.00 0.0016000 214.31 469.60 0.99213 1.8373 2.3297 1655.5 -0.0062313 277.57 0.17651 625.00 0.0016000 214.31 469.60 0.99213 1.8373 2.3297 1655.5 -0.0062313 277.57 0.17651
45.375 23307. undefined 216.15 473.27 0.99791 625.00 0.0016000 216.15 473.27 0.99791 1.8416 2.3330 1656.9 -0.0062242 277.40 0.17671 625.00 0.0016000 216.15 473.27 0.99791 1.8416 2.3330 1656.9 -0.0062242 277.40 0.17671
46.375 23473. undefined 217.99 476.94 1.0037 625.00 0.0016000 217.99 476.94 1.0037 1.8459 2.3363 1658.2 -0.0062170 277.23 0.17692 625.00 0.0016000 217.99 476.94 1.0037 1.8459 2.3363 1658.2 -0.0062170 277.23 0.17692
47.375 23638. undefined 219.84 480.61 1.0095 625.00 0.0016000 219.84 480.61 1.0095 1.8502 2.3396 1659.6 -0.0062099 277.06 0.17712 625.00 0.0016000 219.84 480.61 1.0095 1.8502 2.3396 1659.6 -0.0062099 277.06 0.17712
48.375 23804. undefined 221.69 484.29 1.0152 625.00 0.0016000 221.69 484.29 1.0152 1.8545 2.3429 1660.9 -0.0062027 276.89 0.17732 625.00 0.0016000 221.69 484.29 1.0152 1.8545 2.3429 1660.9 -0.0062027 276.89 0.17732
49.375 23969. undefined 223.55 487.96 1.0210 625.00 0.0016000 223.55 487.96 1.0210 1.8589 2.3462 1662.3 -0.0061956 276.73 0.17752 625.00 0.0016000 223.55 487.96 1.0210 1.8589 2.3462 1662.3 -0.0061956 276.73 0.17752
50.375 24133. undefined 225.41 491.64 1.0268 625.00 0.0016000 225.41 491.64 1.0268 1.8632 2.3496 1663.6 -0.0061884 276.56 0.17773 625.00 0.0016000 225.41 491.64 1.0268 1.8632 2.3496 1663.6 -0.0061884 276.56 0.17773
51.375 24298. undefined 227.28 495.32 1.0325 625.00 0.0016000 227.28 495.32 1.0325 1.8675 2.3529 1665.0 -0.0061811 276.40 0.17793 625.00 0.0016000 227.28 495.32 1.0325 1.8675 2.3529 1665.0 -0.0061811 276.40 0.17793
52.375 24462. undefined 229.15 499.00 1.0383 625.00 0.0016000 229.15 499.00 1.0383 1.8718 2.3563 1666.3 -0.0061739 276.24 0.17813 625.00 0.0016000 229.15 499.00 1.0383 1.8718 2.3563 1666.3 -0.0061739 276.24 0.17813
53.375 24626. undefined 231.02 502.69 1.0440 625.00 0.0016000 231.02 502.69 1.0440 1.8761 2.3596 1667.6 -0.0061666 276.08 0.17834 625.00 0.0016000 231.02 502.69 1.0440 1.8761 2.3596 1667.6 -0.0061666 276.08 0.17834
54.375 24790. undefined 232.90 506.37 1.0498 625.00 0.0016000 232.90 506.37 1.0498 1.8805 2.3630 1669.0 -0.0061594 275.93 0.17854 625.00 0.0016000 232.90 506.37 1.0498 1.8805 2.3630 1669.0 -0.0061594 275.93 0.17854
55.375 24954. undefined 234.78 510.06 1.0555 625.00 0.0016000 234.78 510.06 1.0555 1.8848 2.3664 1670.3 -0.0061521 275.77 0.17874 625.00 0.0016000 234.78 510.06 1.0555 1.8848 2.3664 1670.3 -0.0061521 275.77 0.17874
56.375 25117. undefined 236.67 513.75 1.0612 625.00 0.0016000 236.67 513.75 1.0612 1.8891 2.3698 1671.6 -0.0061448 275.62 0.17895 625.00 0.0016000 236.67 513.75 1.0612 1.8891 2.3698 1671.6 -0.0061448 275.62 0.17895
57.375 25281. undefined 238.56 517.45 1.0670 625.00 0.0016000 238.56 517.45 1.0670 1.8935 2.3732 1672.9 -0.0061375 275.46 0.17915 625.00 0.0016000 238.56 517.45 1.0670 1.8935 2.3732 1672.9 -0.0061375 275.46 0.17915
58.375 25444. undefined 240.46 521.14 1.0727 625.00 0.0016000 240.46 521.14 1.0727 1.8978 2.3766 1674.3 -0.0061301 275.31 0.17936 625.00 0.0016000 240.46 521.14 1.0727 1.8978 2.3766 1674.3 -0.0061301 275.31 0.17936
59.375 25607. undefined 242.36 524.84 1.0784 625.00 0.0016000 242.36 524.84 1.0784 1.9021 2.3800 1675.6 -0.0061228 275.16 0.17956 625.00 0.0016000 242.36 524.84 1.0784 1.9021 2.3800 1675.6 -0.0061228 275.16 0.17956
60.375 25769. undefined 244.26 528.54 1.0841 625.00 0.0016000 244.26 528.54 1.0841 1.9065 2.3835 1676.9 -0.0061154 275.01 0.17977 625.00 0.0016000 244.26 528.54 1.0841 1.9065 2.3835 1676.9 -0.0061154 275.01 0.17977
61.375 25932. undefined 246.17 532.24 1.0899 625.00 0.0016000 246.17 532.24 1.0899 1.9108 2.3869 1678.2 -0.0061081 274.87 0.17998 625.00 0.0016000 246.17 532.24 1.0899 1.9108 2.3869 1678.2 -0.0061081 274.87 0.17998
62.375 26094. undefined 248.08 535.94 1.0956 625.00 0.0016000 248.08 535.94 1.0956 1.9151 2.3903 1679.5 -0.0061007 274.72 0.18018 625.00 0.0016000 248.08 535.94 1.0956 1.9151 2.3903 1679.5 -0.0061007 274.72 0.18018
63.375 26256. undefined 250.00 539.65 1.1013 625.00 0.0016000 250.00 539.65 1.1013 1.9195 2.3938 1680.8 -0.0060933 274.58 0.18039 625.00 0.0016000 250.00 539.65 1.1013 1.9195 2.3938 1680.8 -0.0060933 274.58 0.18039
64.375 26418. undefined 251.92 543.35 1.1070 625.00 0.0016000 251.92 543.35 1.1070 1.9238 2.3972 1682.1 -0.0060859 274.43 0.18060 625.00 0.0016000 251.92 543.35 1.1070 1.9238 2.3972 1682.1 -0.0060859 274.43 0.18060
65.375 26580. undefined 253.85 547.06 1.1127 625.00 0.0016000 253.85 547.06 1.1127 1.9282 2.4007 1683.4 -0.0060785 274.29 0.18080 625.00 0.0016000 253.85 547.06 1.1127 1.9282 2.4007 1683.4 -0.0060785 274.29 0.18080
66.375 26741. undefined 255.78 550.78 1.1184 625.00 0.0016000 255.78 550.78 1.1184 1.9325 2.4042 1684.7 -0.0060711 274.15 0.18101 625.00 0.0016000 255.78 550.78 1.1184 1.9325 2.4042 1684.7 -0.0060711 274.15 0.18101
67.375 26903. undefined 257.71 554.49 1.1240 625.00 0.0016000 257.71 554.49 1.1240 1.9369 2.4077 1686.0 -0.0060637 274.01 0.18122 625.00 0.0016000 257.71 554.49 1.1240 1.9369 2.4077 1686.0 -0.0060637 274.01 0.18122
68.375 27064. undefined 259.65 558.21 1.1297 625.00 0.0016000 259.65 558.21 1.1297 1.9412 2.4111 1687.3 -0.0060562 273.87 0.18143 625.00 0.0016000 259.65 558.21 1.1297 1.9412 2.4111 1687.3 -0.0060562 273.87 0.18143
69.375 27225. undefined 261.59 561.92 1.1354 625.00 0.0016000 261.59 561.92 1.1354 1.9456 2.4146 1688.6 -0.0060488 273.74 0.18164 625.00 0.0016000 261.59 561.92 1.1354 1.9456 2.4146 1688.6 -0.0060488 273.74 0.18164
70.375 27385. undefined 263.54 565.64 1.1411 625.00 0.0016000 263.54 565.64 1.1411 1.9499 2.4181 1689.8 -0.0060414 273.60 0.18185 625.00 0.0016000 263.54 565.64 1.1411 1.9499 2.4181 1689.8 -0.0060414 273.60 0.18185
71.375 27546. undefined 265.49 569.37 1.1468 625.00 0.0016000 265.49 569.37 1.1468 1.9542 2.4216 1691.1 -0.0060339 273.47 0.18205 625.00 0.0016000 265.49 569.37 1.1468 1.9542 2.4216 1691.1 -0.0060339 273.47 0.18205
72.375 27706. undefined 267.45 573.09 1.1524 625.00 0.0016000 267.45 573.09 1.1524 1.9586 2.4251 1692.4 -0.0060265 273.34 0.18226 625.00 0.0016000 267.45 573.09 1.1524 1.9586 2.4251 1692.4 -0.0060265 273.34 0.18226
73.375 27866. undefined 269.41 576.82 1.1581 625.00 0.0016000 269.41 576.82 1.1581 1.9629 2.4286 1693.7 -0.0060190 273.21 0.18247 625.00 0.0016000 269.41 576.82 1.1581 1.9629 2.4286 1693.7 -0.0060190 273.21 0.18247
74.375 28026. undefined 271.38 580.55 1.1638 625.00 0.0016000 271.38 580.55 1.1638 1.9673 2.4322 1694.9 -0.0060116 273.08 0.18268 625.00 0.0016000 271.38 580.55 1.1638 1.9673 2.4322 1694.9 -0.0060116 273.08 0.18268
75.375 28186. undefined 273.34 584.28 1.1694 625.00 0.0016000 273.34 584.28 1.1694 1.9716 2.4357 1696.2 -0.0060041 272.95 0.18289 625.00 0.0016000 273.34 584.28 1.1694 1.9716 2.4357 1696.2 -0.0060041 272.95 0.18289
76.375 28345. undefined 275.32 588.01 1.1751 625.00 0.0016000 275.32 588.01 1.1751 1.9760 2.4392 1697.5 -0.0059967 272.82 0.18310 625.00 0.0016000 275.32 588.01 1.1751 1.9760 2.4392 1697.5 -0.0059967 272.82 0.18310
77.375 28505. undefined 277.30 591.75 1.1807 625.00 0.0016000 277.30 591.75 1.1807 1.9803 2.4428 1698.7 -0.0059892 272.69 0.18331 625.00 0.0016000 277.30 591.75 1.1807 1.9803 2.4428 1698.7 -0.0059892 272.69 0.18331
78.375 28664. undefined 279.28 595.49 1.1864 625.00 0.0016000 279.28 595.49 1.1864 1.9847 2.4463 1700.0 -0.0059817 272.57 0.18353 625.00 0.0016000 279.28 595.49 1.1864 1.9847 2.4463 1700.0 -0.0059817 272.57 0.18353
79.375 28823. undefined 281.27 599.23 1.1920 625.00 0.0016000 281.27 599.23 1.1920 1.9890 2.4498 1701.2 -0.0059743 272.44 0.18374 625.00 0.0016000 281.27 599.23 1.1920 1.9890 2.4498 1701.2 -0.0059743 272.44 0.18374
80.375 28982. undefined 283.26 602.97 1.1977 625.00 0.0016000 283.26 602.97 1.1977 1.9934 2.4534 1702.5 -0.0059668 272.32 0.18395 625.00 0.0016000 283.26 602.97 1.1977 1.9934 2.4534 1702.5 -0.0059668 272.32 0.18395
81.375 29140. undefined 285.25 606.72 1.2033 625.00 0.0016000 285.25 606.72 1.2033 1.9977 2.4569 1703.7 -0.0059594 272.20 0.18416 625.00 0.0016000 285.25 606.72 1.2033 1.9977 2.4569 1703.7 -0.0059594 272.20 0.18416
82.375 29298. undefined 287.25 610.46 1.2089 625.00 0.0016000 287.25 610.46 1.2089 2.0021 2.4605 1705.0 -0.0059519 272.08 0.18437 625.00 0.0016000 287.25 610.46 1.2089 2.0021 2.4605 1705.0 -0.0059519 272.08 0.18437
83.375 29457. undefined 289.26 614.21 1.2146 625.00 0.0016000 289.26 614.21 1.2146 2.0064 2.4641 1706.2 -0.0059444 271.96 0.18459 625.00 0.0016000 289.26 614.21 1.2146 2.0064 2.4641 1706.2 -0.0059444 271.96 0.18459
84.375 29615. undefined 291.27 617.96 1.2202 625.00 0.0016000 291.27 617.96 1.2202 2.0108 2.4676 1707.5 -0.0059370 271.84 0.18480 625.00 0.0016000 291.27 617.96 1.2202 2.0108 2.4676 1707.5 -0.0059370 271.84 0.18480
85.375 29773. undefined 293.28 621.72 1.2258 625.00 0.0016000 293.28 621.72 1.2258 2.0151 2.4712 1708.7 -0.0059295 271.73 0.18501 625.00 0.0016000 293.28 621.72 1.2258 2.0151 2.4712 1708.7 -0.0059295 271.73 0.18501
86.375 29930. undefined 295.30 625.48 1.2314 625.00 0.0016000 295.30 625.48 1.2314 2.0195 2.4748 1710.0 -0.0059221 271.61 0.18523 625.00 0.0016000 295.30 625.48 1.2314 2.0195 2.4748 1710.0 -0.0059221 271.61 0.18523
87.375 30088. undefined 297.32 629.23 1.2370 625.00 0.0016000 297.32 629.23 1.2370 2.0238 2.4783 1711.2 -0.0059147 271.49 0.18544 625.00 0.0016000 297.32 629.23 1.2370 2.0238 2.4783 1711.2 -0.0059147 271.49 0.18544
88.375 30245. undefined 299.34 633.00 1.2427 625.00 0.0016000 299.34 633.00 1.2427 2.0281 2.4819 1712.4 -0.0059072 271.38 0.18565 625.00 0.0016000 299.34 633.00 1.2427 2.0281 2.4819 1712.4 -0.0059072 271.38 0.18565
89.375 30402. undefined 301.37 636.76 1.2483 625.00 0.0016000 301.37 636.76 1.2483 2.0325 2.4855 1713.7 -0.0058998 271.27 0.18587 625.00 0.0016000 301.37 636.76 1.2483 2.0325 2.4855 1713.7 -0.0058998 271.27 0.18587
90.375 30559. undefined 303.41 640.52 1.2539 625.00 0.0016000 303.41 640.52 1.2539 2.0368 2.4891 1714.9 -0.0058923 271.16 0.18608 625.00 0.0016000 303.41 640.52 1.2539 2.0368 2.4891 1714.9 -0.0058923 271.16 0.18608
91.375 30716. undefined 305.45 644.29 1.2595 625.00 0.0016000 305.45 644.29 1.2595 2.0412 2.4927 1716.1 -0.0058849 271.04 0.18630 625.00 0.0016000 305.45 644.29 1.2595 2.0412 2.4927 1716.1 -0.0058849 271.04 0.18630
92.375 30872. undefined 307.49 648.06 1.2651 625.00 0.0016000 307.49 648.06 1.2651 2.0455 2.4963 1717.3 -0.0058775 270.93 0.18651 625.00 0.0016000 307.49 648.06 1.2651 2.0455 2.4963 1717.3 -0.0058775 270.93 0.18651
93.375 31029. undefined 309.54 651.84 1.2707 625.00 0.0016000 309.54 651.84 1.2707 2.0498 2.4999 1718.5 -0.0058701 270.83 0.18673 625.00 0.0016000 309.54 651.84 1.2707 2.0498 2.4999 1718.5 -0.0058701 270.83 0.18673
94.375 31185. undefined 311.59 655.61 1.2763 625.00 0.0016000 311.59 655.61 1.2763 2.0542 2.5035 1719.8 -0.0058627 270.72 0.18694 625.00 0.0016000 311.59 655.61 1.2763 2.0542 2.5035 1719.8 -0.0058627 270.72 0.18694
95.375 31341. undefined 313.65 659.39 1.2818 625.00 0.0016000 313.65 659.39 1.2818 2.0585 2.5071 1721.0 -0.0058553 270.61 0.18716 625.00 0.0016000 313.65 659.39 1.2818 2.0585 2.5071 1721.0 -0.0058553 270.61 0.18716
96.375 31497. undefined 315.71 663.17 1.2874 625.00 0.0016000 315.71 663.17 1.2874 2.0628 2.5107 1722.2 -0.0058479 270.51 0.18738 625.00 0.0016000 315.71 663.17 1.2874 2.0628 2.5107 1722.2 -0.0058479 270.51 0.18738
97.375 31653. undefined 317.77 666.95 1.2930 625.00 0.0016000 317.77 666.95 1.2930 2.0672 2.5143 1723.4 -0.0058405 270.40 0.18759 625.00 0.0016000 317.77 666.95 1.2930 2.0672 2.5143 1723.4 -0.0058405 270.40 0.18759
98.375 31808. undefined 319.84 670.74 1.2986 625.00 0.0016000 319.84 670.74 1.2986 2.0715 2.5179 1724.6 -0.0058331 270.30 0.18781 625.00 0.0016000 319.84 670.74 1.2986 2.0715 2.5179 1724.6 -0.0058331 270.30 0.18781
99.375 31964. undefined 321.92 674.53 1.3042 625.00 0.0016000 321.92 674.53 1.3042 2.0758 2.5215 1725.8 -0.0058257 270.19 0.18803 625.00 0.0016000 321.92 674.53 1.3042 2.0758 2.5215 1725.8 -0.0058257 270.19 0.18803
100.38 32119. undefined 323.99 678.32 1.3097 625.00 0.0016000 323.99 678.32 1.3097 2.0801 2.5251 1727.0 -0.0058183 270.09 0.18824 625.00 0.0016000 323.99 678.32 1.3097 2.0801 2.5251 1727.0 -0.0058183 270.09 0.18824
101.38 32274. undefined 326.08 682.11 1.3153 625.00 0.0016000 326.08 682.11 1.3153 2.0845 2.5288 1728.2 -0.0058110 269.99 0.18846 625.00 0.0016000 326.08 682.11 1.3153 2.0845 2.5288 1728.2 -0.0058110 269.99 0.18846
102.38 32429. undefined 328.16 685.90 1.3209 625.00 0.0016000 328.16 685.90 1.3209 2.0888 2.5324 1729.4 -0.0058036 269.89 0.18868 625.00 0.0016000 328.16 685.90 1.3209 2.0888 2.5324 1729.4 -0.0058036 269.89 0.18868
103.38 32583. undefined 330.25 689.70 1.3264 625.00 0.0016000 330.25 689.70 1.3264 2.0931 2.5360 1730.6 -0.0057963 269.79 0.18890 625.00 0.0016000 330.25 689.70 1.3264 2.0931 2.5360 1730.6 -0.0057963 269.79 0.18890
104.38 32738. undefined 332.35 693.50 1.3320 625.00 0.0016000 332.35 693.50 1.3320 2.0974 2.5396 1731.8 -0.0057890 269.69 0.18912 625.00 0.0016000 332.35 693.50 1.3320 2.0974 2.5396 1731.8 -0.0057890 269.69 0.18912
105.38 32892. undefined 334.45 697.30 1.3375 625.00 0.0016000 334.45 697.30 1.3375 2.1017 2.5433 1733.0 -0.0057817 269.60 0.18934 625.00 0.0016000 334.45 697.30 1.3375 2.1017 2.5433 1733.0 -0.0057817 269.60 0.18934
106.38 33046. undefined 336.55 701.10 1.3431 625.00 0.0016000 336.55 701.10 1.3431 2.1061 2.5469 1734.2 -0.0057743 269.50 0.18956 625.00 0.0016000 336.55 701.10 1.3431 2.1061 2.5469 1734.2 -0.0057743 269.50 0.18956
107.38 33200. undefined 338.66 704.91 1.3486 625.00 0.0016000 338.66 704.91 1.3486 2.1104 2.5505 1735.4 -0.0057670 269.40 0.18978 625.00 0.0016000 338.66 704.91 1.3486 2.1104 2.5505 1735.4 -0.0057670 269.40 0.18978
108.38 33354. undefined 340.77 708.72 1.3542 625.00 0.0016000 340.77 708.72 1.3542 2.1147 2.5541 1736.6 -0.0057597 269.31 0.19000 625.00 0.0016000 340.77 708.72 1.3542 2.1147 2.5541 1736.6 -0.0057597 269.31 0.19000
109.38 33508. undefined 342.89 712.53 1.3597 625.00 0.0016000 342.89 712.53 1.3597 2.1190 2.5578 1737.7 -0.0057525 269.21 0.19022 625.00 0.0016000 342.89 712.53 1.3597 2.1190 2.5578 1737.7 -0.0057525 269.21 0.19022
110.38 33661. undefined 345.01 716.35 1.3653 625.00 0.0016000 345.01 716.35 1.3653 2.1233 2.5614 1738.9 -0.0057452 269.12 0.19044 625.00 0.0016000 345.01 716.35 1.3653 2.1233 2.5614 1738.9 -0.0057452 269.12 0.19044
111.38 33814. undefined 347.14 720.16 1.3708 625.00 0.0016000 347.14 720.16 1.3708 2.1276 2.5650 1740.1 -0.0057379 269.03 0.19066 625.00 0.0016000 347.14 720.16 1.3708 2.1276 2.5650 1740.1 -0.0057379 269.03 0.19066
112.38 33968. undefined 349.27 723.98 1.3763 625.00 0.0016000 349.27 723.98 1.3763 2.1319 2.5687 1741.3 -0.0057307 268.94 0.19088 625.00 0.0016000 349.27 723.98 1.3763 2.1319 2.5687 1741.3 -0.0057307 268.94 0.19088
113.38 34121. undefined 351.40 727.80 1.3819 625.00 0.0016000 351.40 727.80 1.3819 2.1362 2.5723 1742.4 -0.0057235 268.85 0.19110 625.00 0.0016000 351.40 727.80 1.3819 2.1362 2.5723 1742.4 -0.0057235 268.85 0.19110
114.38 34273. undefined 353.54 731.63 1.3874 625.00 0.0016000 353.54 731.63 1.3874 2.1405 2.5759 1743.6 -0.0057162 268.76 0.19132 625.00 0.0016000 353.54 731.63 1.3874 2.1405 2.5759 1743.6 -0.0057162 268.76 0.19132
115.38 34426. undefined 355.68 735.46 1.3929 625.00 0.0016000 355.68 735.46 1.3929 2.1448 2.5796 1744.8 -0.0057090 268.67 0.19154 625.00 0.0016000 355.68 735.46 1.3929 2.1448 2.5796 1744.8 -0.0057090 268.67 0.19154
116.38 34578. undefined 357.83 739.28 1.3984 625.00 0.0016000 357.83 739.28 1.3984 2.1490 2.5832 1746.0 -0.0057018 268.58 0.19176 625.00 0.0016000 357.83 739.28 1.3984 2.1490 2.5832 1746.0 -0.0057018 268.58 0.19176
117.38 34731. undefined 359.98 743.12 1.4039 625.00 0.0016000 359.98 743.12 1.4039 2.1533 2.5869 1747.1 -0.0056946 268.49 0.19199 625.00 0.0016000 359.98 743.12 1.4039 2.1533 2.5869 1747.1 -0.0056946 268.49 0.19199
118.38 34883. undefined 362.13 746.95 1.4094 625.00 0.0016000 362.13 746.95 1.4094 2.1576 2.5905 1748.3 -0.0056875 268.41 0.19221 625.00 0.0016000 362.13 746.95 1.4094 2.1576 2.5905 1748.3 -0.0056875 268.41 0.19221
119.38 35035. undefined 364.29 750.79 1.4150 625.00 0.0016000 364.29 750.79 1.4150 2.1619 2.5941 1749.4 -0.0056803 268.32 0.19243 625.00 0.0016000 364.29 750.79 1.4150 2.1619 2.5941 1749.4 -0.0056803 268.32 0.19243
120.38 35187. undefined 366.46 754.63 1.4205 625.00 0.0016000 366.46 754.63 1.4205 2.1662 2.5978 1750.6 -0.0056732 268.24 0.19266 625.00 0.0016000 366.46 754.63 1.4205 2.1662 2.5978 1750.6 -0.0056732 268.24 0.19266
121.38 35338. undefined 368.63 758.47 1.4260 625.00 0.0016000 368.63 758.47 1.4260 2.1704 2.6014 1751.8 -0.0056660 268.15 0.19288 625.00 0.0016000 368.63 758.47 1.4260 2.1704 2.6014 1751.8 -0.0056660 268.15 0.19288
122.38 35490. undefined 370.80 762.31 1.4315 625.00 0.0016000 370.80 762.31 1.4315 2.1747 2.6051 1752.9 -0.0056589 268.07 0.19310 625.00 0.0016000 370.80 762.31 1.4315 2.1747 2.6051 1752.9 -0.0056589 268.07 0.19310
123.38 35641. undefined 372.98 766.16 1.4370 625.00 0.0016000 372.98 766.16 1.4370 2.1790 2.6087 1754.1 -0.0056518 267.98 0.19333 625.00 0.0016000 372.98 766.16 1.4370 2.1790 2.6087 1754.1 -0.0056518 267.98 0.19333
124.38 35793. undefined 375.16 770.01 1.4425 625.00 0.0016000 375.16 770.01 1.4425 2.1832 2.6123 1755.2 -0.0056447 267.90 0.19355 625.00 0.0016000 375.16 770.01 1.4425 2.1832 2.6123 1755.2 -0.0056447 267.90 0.19355
125.38 35944. undefined 377.34 773.86 1.4479 625.00 0.0016000 377.34 773.86 1.4479 2.1875 2.6160 1756.4 -0.0056376 267.82 0.19378 625.00 0.0016000 377.34 773.86 1.4479 2.1875 2.6160 1756.4 -0.0056376 267.82 0.19378
126.38 36094. undefined 379.53 777.71 1.4534 625.00 0.0016000 379.53 777.71 1.4534 2.1917 2.6196 1757.5 -0.0056306 267.74 0.19400 625.00 0.0016000 379.53 777.71 1.4534 2.1917 2.6196 1757.5 -0.0056306 267.74 0.19400
127.38 36245. undefined 381.73 781.57 1.4589 625.00 0.0016000 381.73 781.57 1.4589 2.1960 2.6233 1758.7 -0.0056235 267.66 0.19423 625.00 0.0016000 381.73 781.57 1.4589 2.1960 2.6233 1758.7 -0.0056235 267.66 0.19423
128.38 36396. undefined 383.92 785.43 1.4644 625.00 0.0016000 383.92 785.43 1.4644 2.2003 2.6269 1759.8 -0.0056165 267.58 0.19445 625.00 0.0016000 383.92 785.43 1.4644 2.2003 2.6269 1759.8 -0.0056165 267.58 0.19445
129.38 36546. undefined 386.13 789.29 1.4699 625.00 0.0016000 386.13 789.29 1.4699 2.2045 2.6305 1760.9 -0.0056095 267.50 0.19468 625.00 0.0016000 386.13 789.29 1.4699 2.2045 2.6305 1760.9 -0.0056095 267.50 0.19468
130.38 36696. undefined 388.33 793.15 1.4754 625.00 0.0016000 388.33 793.15 1.4754 2.2087 2.6342 1762.1 -0.0056024 267.43 0.19491 625.00 0.0016000 388.33 793.15 1.4754 2.2087 2.6342 1762.1 -0.0056024 267.43 0.19491
131.38 36847. undefined 390.54 797.02 1.4808 625.00 0.0016000 390.54 797.02 1.4808 2.2130 2.6378 1763.2 -0.0055955 267.35 0.19513 625.00 0.0016000 390.54 797.02 1.4808 2.2130 2.6378 1763.2 -0.0055955 267.35 0.19513
132.38 36997. undefined 392.76 800.89 1.4863 625.00 0.0016000 392.76 800.89 1.4863 2.2172 2.6415 1764.3 -0.0055885 267.27 0.19536 625.00 0.0016000 392.76 800.89 1.4863 2.2172 2.6415 1764.3 -0.0055885 267.27 0.19536
133.38 37146. undefined 394.98 804.76 1.4918 625.00 0.0016000 394.98 804.76 1.4918 2.2214 2.6451 1765.5 -0.0055815 267.20 0.19559 625.00 0.0016000 394.98 804.76 1.4918 2.2214 2.6451 1765.5 -0.0055815 267.20 0.19559
134.38 37296. undefined 397.20 808.64 1.4972 625.00 0.0016000 397.20 808.64 1.4972 2.2257 2.6487 1766.6 -0.0055746 267.12 0.19581 625.00 0.0016000 397.20 808.64 1.4972 2.2257 2.6487 1766.6 -0.0055746 267.12 0.19581
135.38 37445. undefined 399.43 812.51 1.5027 625.00 0.0016000 399.43 812.51 1.5027 2.2299 2.6524 1767.7 -0.0055676 267.05 0.19604 625.00 0.0016000 399.43 812.51 1.5027 2.2299 2.6524 1767.7 -0.0055676 267.05 0.19604
136.38 37595. undefined 401.66 816.39 1.5081 625.00 0.0016000 401.66 816.39 1.5081 2.2341 2.6560 1768.9 -0.0055607 266.97 0.19627 625.00 0.0016000 401.66 816.39 1.5081 2.2341 2.6560 1768.9 -0.0055607 266.97 0.19627
137.38 37744. undefined 403.90 820.27 1.5136 625.00 0.0016000 403.90 820.27 1.5136 2.2383 2.6596 1770.0 -0.0055538 266.90 0.19650 625.00 0.0016000 403.90 820.27 1.5136 2.2383 2.6596 1770.0 -0.0055538 266.90 0.19650
138.38 37893. undefined 406.14 824.16 1.5190 625.00 0.0016000 406.14 824.16 1.5190 2.2426 2.6633 1771.1 -0.0055469 266.83 0.19673 625.00 0.0016000 406.14 824.16 1.5190 2.2426 2.6633 1771.1 -0.0055469 266.83 0.19673
139.38 38042. undefined 408.38 828.05 1.5245 625.00 0.0016000 408.38 828.05 1.5245 2.2468 2.6669 1772.2 -0.0055401 266.76 0.19696 625.00 0.0016000 408.38 828.05 1.5245 2.2468 2.6669 1772.2 -0.0055401 266.76 0.19696
140.38 38191. undefined 410.63 831.94 1.5299 625.00 0.0016000 410.63 831.94 1.5299 2.2510 2.6705 1773.4 -0.0055332 266.68 0.19719 625.00 0.0016000 410.63 831.94 1.5299 2.2510 2.6705 1773.4 -0.0055332 266.68 0.19719
141.38 38339. undefined 412.89 835.83 1.5354 625.00 0.0016000 412.89 835.83 1.5354 2.2552 2.6742 1774.5 -0.0055264 266.61 0.19742 625.00 0.0016000 412.89 835.83 1.5354 2.2552 2.6742 1774.5 -0.0055264 266.61 0.19742
142.38 38488. undefined 415.14 839.72 1.5408 625.00 0.0016000 415.14 839.72 1.5408 2.2594 2.6778 1775.6 -0.0055196 266.54 0.19764 625.00 0.0016000 415.14 839.72 1.5408 2.2594 2.6778 1775.6 -0.0055196 266.54 0.19764
143.38 38636. undefined 417.40 843.62 1.5463 625.00 0.0016000 417.40 843.62 1.5463 2.2636 2.6814 1776.7 -0.0055128 266.48 0.19787 625.00 0.0016000 417.40 843.62 1.5463 2.2636 2.6814 1776.7 -0.0055128 266.48 0.19787
144.38 38784. undefined 419.67 847.52 1.5517 625.00 0.0016000 419.67 847.52 1.5517 2.2677 2.6851 1777.8 -0.0055060 266.41 0.19811 625.00 0.0016000 419.67 847.52 1.5517 2.2677 2.6851 1777.8 -0.0055060 266.41 0.19811
145.38 38932. undefined 421.94 851.42 1.5571 625.00 0.0016000 421.94 851.42 1.5571 2.2719 2.6887 1778.9 -0.0054992 266.34 0.19834 625.00 0.0016000 421.94 851.42 1.5571 2.2719 2.6887 1778.9 -0.0054992 266.34 0.19834
146.38 39080. undefined 424.21 855.33 1.5625 625.00 0.0016000 424.21 855.33 1.5625 2.2761 2.6923 1780.0 -0.0054924 266.27 0.19857 625.00 0.0016000 424.21 855.33 1.5625 2.2761 2.6923 1780.0 -0.0054924 266.27 0.19857
147.38 39228. undefined 426.49 859.24 1.5680 625.00 0.0016000 426.49 859.24 1.5680 2.2803 2.6959 1781.1 -0.0054857 266.20 0.19880 625.00 0.0016000 426.49 859.24 1.5680 2.2803 2.6959 1781.1 -0.0054857 266.20 0.19880
148.38 39375. undefined 428.77 863.15 1.5734 625.00 0.0016000 428.77 863.15 1.5734 2.2845 2.6995 1782.2 -0.0054790 266.14 0.19903 625.00 0.0016000 428.77 863.15 1.5734 2.2845 2.6995 1782.2 -0.0054790 266.14 0.19903
149.38 39523. undefined 431.06 867.06 1.5788 625.00 0.0016000 431.06 867.06 1.5788 2.2886 2.7032 1783.3 -0.0054723 266.07 0.19926 625.00 0.0016000 431.06 867.06 1.5788 2.2886 2.7032 1783.3 -0.0054723 266.07 0.19926
150.38 39670. undefined 433.35 870.97 1.5842 625.00 0.0016000 433.35 870.97 1.5842 2.2928 2.7068 1784.4 -0.0054656 266.01 0.19949 625.00 0.0016000 433.35 870.97 1.5842 2.2928 2.7068 1784.4 -0.0054656 266.01 0.19949
151.38 39817. undefined 435.65 874.89 1.5896 625.00 0.0016000 435.65 874.89 1.5896 2.2970 2.7104 1785.5 -0.0054589 265.94 0.19973 625.00 0.0016000 435.65 874.89 1.5896 2.2970 2.7104 1785.5 -0.0054589 265.94 0.19973
152.38 39964. undefined 437.95 878.81 1.5950 625.00 0.0016000 437.95 878.81 1.5950 2.3011 2.7140 1786.6 -0.0054523 265.88 0.19996 625.00 0.0016000 437.95 878.81 1.5950 2.3011 2.7140 1786.6 -0.0054523 265.88 0.19996
153.38 40111. undefined 440.25 882.73 1.6004 625.00 0.0016000 440.25 882.73 1.6004 2.3053 2.7176 1787.7 -0.0054456 265.82 0.20019 625.00 0.0016000 440.25 882.73 1.6004 2.3053 2.7176 1787.7 -0.0054456 265.82 0.20019
154.38 40257. undefined 442.56 886.66 1.6058 625.00 0.0016000 442.56 886.66 1.6058 2.3094 2.7212 1788.8 -0.0054390 265.75 0.20043 625.00 0.0016000 442.56 886.66 1.6058 2.3094 2.7212 1788.8 -0.0054390 265.75 0.20043
155.38 40404. undefined 444.87 890.59 1.6113 625.00 0.0016000 444.87 890.59 1.6113 2.3136 2.7249 1789.9 -0.0054324 265.69 0.20066 625.00 0.0016000 444.87 890.59 1.6113 2.3136 2.7249 1789.9 -0.0054324 265.69 0.20066
156.38 40550. undefined 447.18 894.52 1.6166 625.00 0.0016000 447.18 894.52 1.6166 2.3177 2.7285 1791.0 -0.0054258 265.63 0.20089 625.00 0.0016000 447.18 894.52 1.6166 2.3177 2.7285 1791.0 -0.0054258 265.63 0.20089
157.38 40697. undefined 449.50 898.45 1.6220 625.00 0.0016000 449.50 898.45 1.6220 2.3218 2.7321 1792.1 -0.0054193 265.57 0.20113 625.00 0.0016000 449.50 898.45 1.6220 2.3218 2.7321 1792.1 -0.0054193 265.57 0.20113
158.38 40843. undefined 451.83 902.39 1.6274 625.00 0.0016000 451.83 902.39 1.6274 2.3260 2.7357 1793.2 -0.0054127 265.51 0.20136 625.00 0.0016000 451.83 902.39 1.6274 2.3260 2.7357 1793.2 -0.0054127 265.51 0.20136
159.38 40989. undefined 454.15 906.33 1.6328 625.00 0.0016000 454.15 906.33 1.6328 2.3301 2.7393 1794.3 -0.0054062 265.45 0.20160 625.00 0.0016000 454.15 906.33 1.6328 2.3301 2.7393 1794.3 -0.0054062 265.45 0.20160
160.38 41135. undefined 456.49 910.27 1.6382 625.00 0.0016000 456.49 910.27 1.6382 2.3342 2.7429 1795.4 -0.0053997 265.39 0.20183 625.00 0.0016000 456.49 910.27 1.6382 2.3342 2.7429 1795.4 -0.0053997 265.39 0.20183
161.38 41280. undefined 458.82 914.21 1.6436 625.00 0.0016000 458.82 914.21 1.6436 2.3383 2.7465 1796.4 -0.0053932 265.33 0.20207 625.00 0.0016000 458.82 914.21 1.6436 2.3383 2.7465 1796.4 -0.0053932 265.33 0.20207
162.38 41426. undefined 461.16 918.16 1.6490 625.00 0.0016000 461.16 918.16 1.6490 2.3424 2.7501 1797.5 -0.0053867 265.27 0.20230 625.00 0.0016000 461.16 918.16 1.6490 2.3424 2.7501 1797.5 -0.0053867 265.27 0.20230
163.38 41571. undefined 463.51 922.11 1.6543 625.00 0.0016000 463.51 922.11 1.6543 2.3466 2.7537 1798.6 -0.0053802 265.21 0.20254 625.00 0.0016000 463.51 922.11 1.6543 2.3466 2.7537 1798.6 -0.0053802 265.21 0.20254
164.38 41716. undefined 465.86 926.06 1.6597 625.00 0.0016000 465.86 926.06 1.6597 2.3507 2.7572 1799.7 -0.0053738 265.15 0.20277 625.00 0.0016000 465.86 926.06 1.6597 2.3507 2.7572 1799.7 -0.0053738 265.15 0.20277
165.38 41862. undefined 468.21 930.01 1.6651 625.00 0.0016000 468.21 930.01 1.6651 2.3548 2.7608 1800.8 -0.0053673 265.10 0.20301 625.00 0.0016000 468.21 930.01 1.6651 2.3548 2.7608 1800.8 -0.0053673 265.10 0.20301
166.38 42007. undefined 470.57 933.97 1.6705 625.00 0.0016000 470.57 933.97 1.6705 2.3588 2.7644 1801.8 -0.0053609 265.04 0.20325 625.00 0.0016000 470.57 933.97 1.6705 2.3588 2.7644 1801.8 -0.0053609 265.04 0.20325
167.38 42151. undefined 472.93 937.93 1.6758 625.00 0.0016000 472.93 937.93 1.6758 2.3629 2.7680 1802.9 -0.0053545 264.98 0.20349 625.00 0.0016000 472.93 937.93 1.6758 2.3629 2.7680 1802.9 -0.0053545 264.98 0.20349
168.38 42296. undefined 475.29 941.89 1.6812 625.00 0.0016000 475.29 941.89 1.6812 2.3670 2.7716 1804.0 -0.0053481 264.93 0.20372 625.00 0.0016000 475.29 941.89 1.6812 2.3670 2.7716 1804.0 -0.0053481 264.93 0.20372
169.38 42441. undefined 477.66 945.85 1.6865 625.00 0.0016000 477.66 945.85 1.6865 2.3711 2.7752 1805.0 -0.0053418 264.87 0.20396 625.00 0.0016000 477.66 945.85 1.6865 2.3711 2.7752 1805.0 -0.0053418 264.87 0.20396
170.38 42585. undefined 480.03 949.82 1.6919 625.00 0.0016000 480.03 949.82 1.6919 2.3752 2.7787 1806.1 -0.0053354 264.82 0.20420 625.00 0.0016000 480.03 949.82 1.6919 2.3752 2.7787 1806.1 -0.0053354 264.82 0.20420
171.38 42730. undefined 482.41 953.79 1.6973 625.00 0.0016000 482.41 953.79 1.6973 2.3792 2.7823 1807.2 -0.0053291 264.76 0.20444 625.00 0.0016000 482.41 953.79 1.6973 2.3792 2.7823 1807.2 -0.0053291 264.76 0.20444
172.38 42874. undefined 484.79 957.76 1.7026 625.00 0.0016000 484.79 957.76 1.7026 2.3833 2.7859 1808.2 -0.0053228 264.71 0.20468 625.00 0.0016000 484.79 957.76 1.7026 2.3833 2.7859 1808.2 -0.0053228 264.71 0.20468
173.38 43018. undefined 487.18 961.73 1.7080 625.00 0.0016000 487.18 961.73 1.7080 2.3874 2.7895 1809.3 -0.0053165 264.66 0.20491 625.00 0.0016000 487.18 961.73 1.7080 2.3874 2.7895 1809.3 -0.0053165 264.66 0.20491
174.38 43162. undefined 489.57 965.71 1.7133 625.00 0.0016000 489.57 965.71 1.7133 2.3914 2.7930 1810.4 -0.0053103 264.61 0.20515 625.00 0.0016000 489.57 965.71 1.7133 2.3914 2.7930 1810.4 -0.0053103 264.61 0.20515
175.38 43305. undefined 491.96 969.69 1.7186 625.00 0.0016000 491.96 969.69 1.7186 2.3955 2.7966 1811.4 -0.0053040 264.55 0.20539 625.00 0.0016000 491.96 969.69 1.7186 2.3955 2.7966 1811.4 -0.0053040 264.55 0.20539
176.38 43449. undefined 494.36 973.67 1.7240 625.00 0.0016000 494.36 973.67 1.7240 2.3995 2.8001 1812.5 -0.0052978 264.50 0.20563 625.00 0.0016000 494.36 973.67 1.7240 2.3995 2.8001 1812.5 -0.0052978 264.50 0.20563
177.38 43593. undefined 496.76 977.66 1.7293 625.00 0.0016000 496.76 977.66 1.7293 2.4036 2.8037 1813.5 -0.0052915 264.45 0.20587 625.00 0.0016000 496.76 977.66 1.7293 2.4036 2.8037 1813.5 -0.0052915 264.45 0.20587
178.38 43736. undefined 499.17 981.64 1.7347 625.00 0.0016000 499.17 981.64 1.7347 2.4076 2.8073 1814.6 -0.0052853 264.40 0.20611 625.00 0.0016000 499.17 981.64 1.7347 2.4076 2.8073 1814.6 -0.0052853 264.40 0.20611
179.38 43879. undefined 501.57 985.63 1.7400 625.00 0.0016000 501.57 985.63 1.7400 2.4116 2.8108 1815.6 -0.0052792 264.35 0.20635 625.00 0.0016000 501.57 985.63 1.7400 2.4116 2.8108 1815.6 -0.0052792 264.35 0.20635
180.38 44022. undefined 503.99 989.63 1.7453 625.00 0.0016000 503.99 989.63 1.7453 2.4157 2.8144 1816.7 -0.0052730 264.30 0.20659 625.00 0.0016000 503.99 989.63 1.7453 2.4157 2.8144 1816.7 -0.0052730 264.30 0.20659
181.38 44165. undefined 506.41 993.62 1.7506 625.00 0.0016000 506.41 993.62 1.7506 2.4197 2.8179 1817.7 -0.0052668 264.25 0.20684 625.00 0.0016000 506.41 993.62 1.7506 2.4197 2.8179 1817.7 -0.0052668 264.25 0.20684
182.38 44308. undefined 508.83 997.62 1.7560 625.00 0.0016000 508.83 997.62 1.7560 2.4237 2.8215 1818.8 -0.0052607 264.20 0.20708 625.00 0.0016000 508.83 997.62 1.7560 2.4237 2.8215 1818.8 -0.0052607 264.20 0.20708
183.38 44451. undefined 511.25 1001.6 1.7613 625.00 0.0016000 511.25 1001.6 1.7613 2.4277 2.8250 1819.8 -0.0052546 264.15 0.20732 625.00 0.0016000 511.25 1001.6 1.7613 2.4277 2.8250 1819.8 -0.0052546 264.15 0.20732
184.38 44594. undefined 513.68 1005.6 1.7666 625.00 0.0016000 513.68 1005.6 1.7666 2.4317 2.8285 1820.9 -0.0052485 264.10 0.20756 625.00 0.0016000 513.68 1005.6 1.7666 2.4317 2.8285 1820.9 -0.0052485 264.10 0.20756
185.38 44736. undefined 516.12 1009.6 1.7719 625.00 0.0016000 516.12 1009.6 1.7719 2.4357 2.8321 1821.9 -0.0052424 264.06 0.20780 625.00 0.0016000 516.12 1009.6 1.7719 2.4357 2.8321 1821.9 -0.0052424 264.06 0.20780
186.38 44878. undefined 518.55 1013.6 1.7772 625.00 0.0016000 518.55 1013.6 1.7772 2.4397 2.8356 1823.0 -0.0052364 264.01 0.20805 625.00 0.0016000 518.55 1013.6 1.7772 2.4397 2.8356 1823.0 -0.0052364 264.01 0.20805
187.38 45021. undefined 521.00 1017.6 1.7825 625.00 0.0016000 521.00 1017.6 1.7825 2.4437 2.8391 1824.0 -0.0052303 263.96 0.20829 625.00 0.0016000 521.00 1017.6 1.7825 2.4437 2.8391 1824.0 -0.0052303 263.96 0.20829
188.38 45163. undefined 523.44 1021.7 1.7878 625.00 0.0016000 523.44 1021.7 1.7878 2.4477 2.8427 1825.0 -0.0052243 263.91 0.20853 625.00 0.0016000 523.44 1021.7 1.7878 2.4477 2.8427 1825.0 -0.0052243 263.91 0.20853
189.38 45305. undefined 525.89 1025.7 1.7931 625.00 0.0016000 525.89 1025.7 1.7931 2.4517 2.8462 1826.1 -0.0052183 263.87 0.20878 625.00 0.0016000 525.89 1025.7 1.7931 2.4517 2.8462 1826.1 -0.0052183 263.87 0.20878
190.38 45446. undefined 528.35 1029.7 1.7984 625.00 0.0016000 528.35 1029.7 1.7984 2.4557 2.8497 1827.1 -0.0052123 263.82 0.20902 625.00 0.0016000 528.35 1029.7 1.7984 2.4557 2.8497 1827.1 -0.0052123 263.82 0.20902
191.38 45588. undefined 530.80 1033.7 1.8037 625.00 0.0016000 530.80 1033.7 1.8037 2.4596 2.8532 1828.1 -0.0052063 263.78 0.20926 625.00 0.0016000 530.80 1033.7 1.8037 2.4596 2.8532 1828.1 -0.0052063 263.78 0.20926
192.38 45730. undefined 533.26 1037.7 1.8090 625.00 0.0016000 533.26 1037.7 1.8090 2.4636 2.8567 1829.2 -0.0052004 263.73 0.20951 625.00 0.0016000 533.26 1037.7 1.8090 2.4636 2.8567 1829.2 -0.0052004 263.73 0.20951
193.38 45871. undefined 535.73 1041.8 1.8143 625.00 0.0016000 535.73 1041.8 1.8143 2.4676 2.8602 1830.2 -0.0051944 263.69 0.20975 625.00 0.0016000 535.73 1041.8 1.8143 2.4676 2.8602 1830.2 -0.0051944 263.69 0.20975
194.38 46012. undefined 538.20 1045.8 1.8196 625.00 0.0016000 538.20 1045.8 1.8196 2.4715 2.8637 1831.2 -0.0051885 263.64 0.21000 625.00 0.0016000 538.20 1045.8 1.8196 2.4715 2.8637 1831.2 -0.0051885 263.64 0.21000
195.38 46154. undefined 540.67 1049.8 1.8249 625.00 0.0016000 540.67 1049.8 1.8249 2.4755 2.8672 1832.3 -0.0051826 263.60 0.21024 625.00 0.0016000 540.67 1049.8 1.8249 2.4755 2.8672 1832.3 -0.0051826 263.60 0.21024
196.38 46295. undefined 543.15 1053.9 1.8302 625.00 0.0016000 543.15 1053.9 1.8302 2.4794 2.8707 1833.3 -0.0051767 263.56 0.21049 625.00 0.0016000 543.15 1053.9 1.8302 2.4794 2.8707 1833.3 -0.0051767 263.56 0.21049
197.38 46436. undefined 545.63 1057.9 1.8354 625.00 0.0016000 545.63 1057.9 1.8354 2.4834 2.8742 1834.3 -0.0051709 263.51 0.21073 625.00 0.0016000 545.63 1057.9 1.8354 2.4834 2.8742 1834.3 -0.0051709 263.51 0.21073
198.38 46576. undefined 548.12 1061.9 1.8407 625.00 0.0016000 548.12 1061.9 1.8407 2.4873 2.8777 1835.3 -0.0051650 263.47 0.21098 625.00 0.0016000 548.12 1061.9 1.8407 2.4873 2.8777 1835.3 -0.0051650 263.47 0.21098
199.38 46717. undefined 550.61 1066.0 1.8460 625.00 0.0016000 550.61 1066.0 1.8460 2.4912 2.8812 1836.4 -0.0051592 263.43 0.21123 625.00 0.0016000 550.61 1066.0 1.8460 2.4912 2.8812 1836.4 -0.0051592 263.43 0.21123
200.38 46858. undefined 553.10 1070.0 1.8513 625.00 0.0016000 553.10 1070.0 1.8513 2.4951 2.8847 1837.4 -0.0051534 263.39 0.21147 625.00 0.0016000 553.10 1070.0 1.8513 2.4951 2.8847 1837.4 -0.0051534 263.39 0.21147
201.38 46998. undefined 555.60 1074.1 1.8565 625.00 0.0016000 555.60 1074.1 1.8565 2.4991 2.8882 1838.4 -0.0051476 263.34 0.21172 625.00 0.0016000 555.60 1074.1 1.8565 2.4991 2.8882 1838.4 -0.0051476 263.34 0.21172
202.38 47138. undefined 558.10 1078.1 1.8618 625.00 0.0016000 558.10 1078.1 1.8618 2.5030 2.8917 1839.4 -0.0051418 263.30 0.21197 625.00 0.0016000 558.10 1078.1 1.8618 2.5030 2.8917 1839.4 -0.0051418 263.30 0.21197
203.38 47279. undefined 560.60 1082.2 1.8671 625.00 0.0016000 560.60 1082.2 1.8671 2.5069 2.8952 1840.4 -0.0051360 263.26 0.21222 625.00 0.0016000 560.60 1082.2 1.8671 2.5069 2.8952 1840.4 -0.0051360 263.26 0.21222
204.38 47419. undefined 563.11 1086.2 1.8723 625.00 0.0016000 563.11 1086.2 1.8723 2.5108 2.8986 1841.5 -0.0051303 263.22 0.21246 625.00 0.0016000 563.11 1086.2 1.8723 2.5108 2.8986 1841.5 -0.0051303 263.22 0.21246
205.38 47559. undefined 565.62 1090.3 1.8776 625.00 0.0016000 565.62 1090.3 1.8776 2.5147 2.9021 1842.5 -0.0051246 263.18 0.21271 625.00 0.0016000 565.62 1090.3 1.8776 2.5147 2.9021 1842.5 -0.0051246 263.18 0.21271
206.38 47698. undefined 568.14 1094.3 1.8828 625.00 0.0016000 568.14 1094.3 1.8828 2.5186 2.9056 1843.5 -0.0051189 263.14 0.21296 625.00 0.0016000 568.14 1094.3 1.8828 2.5186 2.9056 1843.5 -0.0051189 263.14 0.21296
207.38 47838. undefined 570.66 1098.4 1.8881 625.00 0.0016000 570.66 1098.4 1.8881 2.5225 2.9090 1844.5 -0.0051132 263.10 0.21321 625.00 0.0016000 570.66 1098.4 1.8881 2.5225 2.9090 1844.5 -0.0051132 263.10 0.21321
208.38 47978. undefined 573.19 1102.5 1.8933 625.00 0.0016000 573.19 1102.5 1.8933 2.5264 2.9125 1845.5 -0.0051075 263.06 0.21346 625.00 0.0016000 573.19 1102.5 1.8933 2.5264 2.9125 1845.5 -0.0051075 263.06 0.21346
209.38 48117. undefined 575.71 1106.5 1.8986 625.00 0.0016000 575.71 1106.5 1.8986 2.5302 2.9159 1846.5 -0.0051018 263.03 0.21371 625.00 0.0016000 575.71 1106.5 1.8986 2.5302 2.9159 1846.5 -0.0051018 263.03 0.21371
210.38 48257. undefined 578.25 1110.6 1.9038 625.00 0.0016000 578.25 1110.6 1.9038 2.5341 2.9194 1847.5 -0.0050962 262.99 0.21396 625.00 0.0016000 578.25 1110.6 1.9038 2.5341 2.9194 1847.5 -0.0050962 262.99 0.21396
211.38 48396. undefined 580.78 1114.7 1.9091 625.00 0.0016000 580.78 1114.7 1.9091 2.5380 2.9228 1848.5 -0.0050906 262.95 0.21421 625.00 0.0016000 580.78 1114.7 1.9091 2.5380 2.9228 1848.5 -0.0050906 262.95 0.21421
212.38 48535. undefined 583.32 1118.7 1.9143 625.00 0.0016000 583.32 1118.7 1.9143 2.5418 2.9263 1849.5 -0.0050850 262.91 0.21446 625.00 0.0016000 583.32 1118.7 1.9143 2.5418 2.9263 1849.5 -0.0050850 262.91 0.21446
213.38 48674. undefined 585.87 1122.8 1.9195 625.00 0.0016000 585.87 1122.8 1.9195 2.5457 2.9297 1850.5 -0.0050794 262.87 0.21471 625.00 0.0016000 585.87 1122.8 1.9195 2.5457 2.9297 1850.5 -0.0050794 262.87 0.21471
214.38 48813. undefined 588.41 1126.9 1.9248 625.00 0.0016000 588.41 1126.9 1.9248 2.5496 2.9332 1851.5 -0.0050738 262.84 0.21496 625.00 0.0016000 588.41 1126.9 1.9248 2.5496 2.9332 1851.5 -0.0050738 262.84 0.21496
215.38 48951. undefined 590.97 1131.0 1.9300 625.00 0.0016000 590.97 1131.0 1.9300 2.5534 2.9366 1852.5 -0.0050682 262.80 0.21521 625.00 0.0016000 590.97 1131.0 1.9300 2.5534 2.9366 1852.5 -0.0050682 262.80 0.21521
216.38 49090. undefined 593.52 1135.1 1.9352 625.00 0.0016000 593.52 1135.1 1.9352 2.5572 2.9400 1853.5 -0.0050627 262.76 0.21546 625.00 0.0016000 593.52 1135.1 1.9352 2.5572 2.9400 1853.5 -0.0050627 262.76 0.21546
217.38 49229. undefined 596.08 1139.2 1.9404 625.00 0.0016000 596.08 1139.2 1.9404 2.5611 2.9435 1854.5 -0.0050572 262.73 0.21571 625.00 0.0016000 596.08 1139.2 1.9404 2.5611 2.9435 1854.5 -0.0050572 262.73 0.21571
218.38 49367. undefined 598.64 1143.2 1.9457 625.00 0.0016000 598.64 1143.2 1.9457 2.5649 2.9469 1855.5 -0.0050517 262.69 0.21597 625.00 0.0016000 598.64 1143.2 1.9457 2.5649 2.9469 1855.5 -0.0050517 262.69 0.21597
219.38 49505. undefined 601.21 1147.3 1.9509 625.00 0.0016000 601.21 1147.3 1.9509 2.5687 2.9503 1856.5 -0.0050462 262.66 0.21622 625.00 0.0016000 601.21 1147.3 1.9509 2.5687 2.9503 1856.5 -0.0050462 262.66 0.21622
220.38 49643. undefined 603.78 1151.4 1.9561 625.00 0.0016000 603.78 1151.4 1.9561 2.5726 2.9537 1857.5 -0.0050407 262.62 0.21647 625.00 0.0016000 603.78 1151.4 1.9561 2.5726 2.9537 1857.5 -0.0050407 262.62 0.21647
221.38 49781. undefined 606.36 1155.5 1.9613 625.00 0.0016000 606.36 1155.5 1.9613 2.5764 2.9571 1858.5 -0.0050353 262.59 0.21672 625.00 0.0016000 606.36 1155.5 1.9613 2.5764 2.9571 1858.5 -0.0050353 262.59 0.21672
222.38 49919. undefined 608.93 1159.6 1.9665 625.00 0.0016000 608.93 1159.6 1.9665 2.5802 2.9605 1859.5 -0.0050298 262.55 0.21698 625.00 0.0016000 608.93 1159.6 1.9665 2.5802 2.9605 1859.5 -0.0050298 262.55 0.21698
223.38 50057. undefined 611.52 1163.7 1.9717 625.00 0.0016000 611.52 1163.7 1.9717 2.5840 2.9639 1860.5 -0.0050244 262.52 0.21723 625.00 0.0016000 611.52 1163.7 1.9717 2.5840 2.9639 1860.5 -0.0050244 262.52 0.21723
224.38 50195. undefined 614.10 1167.8 1.9769 625.00 0.0016000 614.10 1167.8 1.9769 2.5878 2.9673 1861.5 -0.0050190 262.49 0.21748 625.00 0.0016000 614.10 1167.8 1.9769 2.5878 2.9673 1861.5 -0.0050190 262.49 0.21748
225.38 50332. undefined 616.69 1171.9 1.9821 625.00 0.0016000 616.69 1171.9 1.9821 2.5916 2.9707 1862.5 -0.0050136 262.45 0.21774 625.00 0.0016000 616.69 1171.9 1.9821 2.5916 2.9707 1862.5 -0.0050136 262.45 0.21774
226.38 50470. undefined 619.28 1176.0 1.9873 625.00 0.0016000 619.28 1176.0 1.9873 2.5954 2.9741 1863.5 -0.0050082 262.42 0.21799 625.00 0.0016000 619.28 1176.0 1.9873 2.5954 2.9741 1863.5 -0.0050082 262.42 0.21799
227.38 50607. undefined 621.88 1180.2 1.9925 625.00 0.0016000 621.88 1180.2 1.9925 2.5992 2.9775 1864.4 -0.0050029 262.39 0.21825 625.00 0.0016000 621.88 1180.2 1.9925 2.5992 2.9775 1864.4 -0.0050029 262.39 0.21825
228.38 50745. undefined 624.48 1184.3 1.9977 625.00 0.0016000 624.48 1184.3 1.9977 2.6029 2.9809 1865.4 -0.0049975 262.35 0.21850 625.00 0.0016000 624.48 1184.3 1.9977 2.6029 2.9809 1865.4 -0.0049975 262.35 0.21850
229.38 50882. undefined 627.09 1188.4 2.0029 625.00 0.0016000 627.09 1188.4 2.0029 2.6067 2.9843 1866.4 -0.0049922 262.32 0.21876 625.00 0.0016000 627.09 1188.4 2.0029 2.6067 2.9843 1866.4 -0.0049922 262.32 0.21876
230.38 51019. undefined 629.70 1192.5 2.0081 625.00 0.0016000 629.70 1192.5 2.0081 2.6105 2.9877 1867.4 -0.0049869 262.29 0.21901 625.00 0.0016000 629.70 1192.5 2.0081 2.6105 2.9877 1867.4 -0.0049869 262.29 0.21901
231.38 51156. undefined 632.31 1196.6 2.0133 625.00 0.0016000 632.31 1196.6 2.0133 2.6142 2.9911 1868.4 -0.0049816 262.26 0.21927 625.00 0.0016000 632.31 1196.6 2.0133 2.6142 2.9911 1868.4 -0.0049816 262.26 0.21927
232.38 51292. undefined 634.92 1200.8 2.0184 625.00 0.0016000 634.92 1200.8 2.0184 2.6180 2.9944 1869.3 -0.0049763 262.23 0.21952 625.00 0.0016000 634.92 1200.8 2.0184 2.6180 2.9944 1869.3 -0.0049763 262.23 0.21952
233.38 51429. undefined 637.54 1204.9 2.0236 625.00 0.0016000 637.54 1204.9 2.0236 2.6218 2.9978 1870.3 -0.0049711 262.19 0.21978 625.00 0.0016000 637.54 1204.9 2.0236 2.6218 2.9978 1870.3 -0.0049711 262.19 0.21978
234.38 51566. undefined 640.17 1209.0 2.0288 625.00 0.0016000 640.17 1209.0 2.0288 2.6255 3.0012 1871.3 -0.0049658 262.16 0.22004 625.00 0.0016000 640.17 1209.0 2.0288 2.6255 3.0012 1871.3 -0.0049658 262.16 0.22004
235.38 51702. undefined 642.80 1213.2 2.0340 625.00 0.0016000 642.80 1213.2 2.0340 2.6292 3.0045 1872.3 -0.0049606 262.13 0.22029 625.00 0.0016000 642.80 1213.2 2.0340 2.6292 3.0045 1872.3 -0.0049606 262.13 0.22029
236.38 51838. undefined 645.43 1217.3 2.0391 625.00 0.0016000 645.43 1217.3 2.0391 2.6330 3.0079 1873.2 -0.0049554 262.10 0.22055 625.00 0.0016000 645.43 1217.3 2.0391 2.6330 3.0079 1873.2 -0.0049554 262.10 0.22055
237.38 51975. undefined 648.06 1221.4 2.0443 625.00 0.0016000 648.06 1221.4 2.0443 2.6367 3.0112 1874.2 -0.0049502 262.07 0.22081 625.00 0.0016000 648.06 1221.4 2.0443 2.6367 3.0112 1874.2 -0.0049502 262.07 0.22081
238.38 52111. undefined 650.70 1225.6 2.0495 625.00 0.0016000 650.70 1225.6 2.0495 2.6404 3.0146 1875.2 -0.0049450 262.04 0.22107 625.00 0.0016000 650.70 1225.6 2.0495 2.6404 3.0146 1875.2 -0.0049450 262.04 0.22107
239.38 52247. undefined 653.34 1229.7 2.0546 625.00 0.0016000 653.34 1229.7 2.0546 2.6442 3.0179 1876.2 -0.0049399 262.01 0.22132 625.00 0.0016000 653.34 1229.7 2.0546 2.6442 3.0179 1876.2 -0.0049399 262.01 0.22132
240.38 52383. undefined 655.99 1233.9 2.0598 625.00 0.0016000 655.99 1233.9 2.0598 2.6479 3.0213 1877.1 -0.0049347 261.98 0.22158 625.00 0.0016000 655.99 1233.9 2.0598 2.6479 3.0213 1877.1 -0.0049347 261.98 0.22158
241.38 52518. undefined 658.64 1238.0 2.0649 625.00 0.0016000 658.64 1238.0 2.0649 2.6516 3.0246 1878.1 -0.0049296 261.95 0.22184 625.00 0.0016000 658.64 1238.0 2.0649 2.6516 3.0246 1878.1 -0.0049296 261.95 0.22184
242.38 52654. undefined 661.29 1242.1 2.0701 625.00 0.0016000 661.29 1242.1 2.0701 2.6553 3.0279 1879.1 -0.0049245 261.93 0.22210 625.00 0.0016000 661.29 1242.1 2.0701 2.6553 3.0279 1879.1 -0.0049245 261.93 0.22210
243.38 52790. undefined 663.95 1246.3 2.0752 625.00 0.0016000 663.95 1246.3 2.0752 2.6590 3.0313 1880.0 -0.0049194 261.90 0.22236 625.00 0.0016000 663.95 1246.3 2.0752 2.6590 3.0313 1880.0 -0.0049194 261.90 0.22236
244.38 52925. undefined 666.61 1250.5 2.0804 625.00 0.0016000 666.61 1250.5 2.0804 2.6627 3.0346 1881.0 -0.0049143 261.87 0.22262 625.00 0.0016000 666.61 1250.5 2.0804 2.6627 3.0346 1881.0 -0.0049143 261.87 0.22262
245.38 53060. undefined 669.27 1254.6 2.0855 625.00 0.0016000 669.27 1254.6 2.0855 2.6664 3.0379 1881.9 -0.0049092 261.84 0.22288 625.00 0.0016000 669.27 1254.6 2.0855 2.6664 3.0379 1881.9 -0.0049092 261.84 0.22288
246.38 53196. undefined 671.94 1258.8 2.0907 625.00 0.0016000 671.94 1258.8 2.0907 2.6701 3.0412 1882.9 -0.0049042 261.81 0.22314 625.00 0.0016000 671.94 1258.8 2.0907 2.6701 3.0412 1882.9 -0.0049042 261.81 0.22314
247.38 53331. undefined 674.61 1262.9 2.0958 625.00 0.0016000 674.61 1262.9 2.0958 2.6737 3.0445 1883.9 -0.0048991 261.79 0.22340 625.00 0.0016000 674.61 1262.9 2.0958 2.6737 3.0445 1883.9 -0.0048991 261.79 0.22340
248.38 53466. undefined 677.29 1267.1 2.1009 625.00 0.0016000 677.29 1267.1 2.1009 2.6774 3.0478 1884.8 -0.0048941 261.76 0.22366 625.00 0.0016000 677.29 1267.1 2.1009 2.6774 3.0478 1884.8 -0.0048941 261.76 0.22366
249.38 53601. undefined 679.97 1271.3 2.1061 625.00 0.0016000 679.97 1271.3 2.1061 2.6811 3.0511 1885.8 -0.0048891 261.73 0.22392 625.00 0.0016000 679.97 1271.3 2.1061 2.6811 3.0511 1885.8 -0.0048891 261.73 0.22392
250.38 53735. undefined 682.65 1275.4 2.1112 625.00 0.0016000 682.65 1275.4 2.1112 2.6847 3.0544 1886.7 -0.0048841 261.71 0.22418 625.00 0.0016000 682.65 1275.4 2.1112 2.6847 3.0544 1886.7 -0.0048841 261.71 0.22418
251.38 53870. undefined 685.34 1279.6 2.1163 625.00 0.0016000 685.34 1279.6 2.1163 2.6884 3.0577 1887.7 -0.0048791 261.68 0.22444 625.00 0.0016000 685.34 1279.6 2.1163 2.6884 3.0577 1887.7 -0.0048791 261.68 0.22444
252.38 54005. undefined 688.03 1283.8 2.1215 625.00 0.0016000 688.03 1283.8 2.1215 2.6920 3.0610 1888.6 -0.0048742 261.65 0.22471 625.00 0.0016000 688.03 1283.8 2.1215 2.6920 3.0610 1888.6 -0.0048742 261.65 0.22471
253.38 54139. undefined 690.72 1288.0 2.1266 625.00 0.0016000 690.72 1288.0 2.1266 2.6957 3.0643 1889.6 -0.0048692 261.63 0.22497 625.00 0.0016000 690.72 1288.0 2.1266 2.6957 3.0643 1889.6 -0.0048692 261.63 0.22497
254.38 54274. undefined 693.42 1292.1 2.1317 625.00 0.0016000 693.42 1292.1 2.1317 2.6993 3.0676 1890.5 -0.0048643 261.60 0.22523 625.00 0.0016000 693.42 1292.1 2.1317 2.6993 3.0676 1890.5 -0.0048643 261.60 0.22523
255.38 54408. undefined 696.12 1296.3 2.1368 625.00 0.0016000 696.12 1296.3 2.1368 2.7030 3.0709 1891.5 -0.0048594 261.58 0.22549 625.00 0.0016000 696.12 1296.3 2.1368 2.7030 3.0709 1891.5 -0.0048594 261.58 0.22549
256.38 54542. undefined 698.83 1300.5 2.1419 625.00 0.0016000 698.83 1300.5 2.1419 2.7066 3.0742 1892.4 -0.0048545 261.55 0.22576 625.00 0.0016000 698.83 1300.5 2.1419 2.7066 3.0742 1892.4 -0.0048545 261.55 0.22576
257.38 54676. undefined 701.53 1304.7 2.1470 625.00 0.0016000 701.53 1304.7 2.1470 2.7102 3.0774 1893.4 -0.0048496 261.53 0.22602 625.00 0.0016000 701.53 1304.7 2.1470 2.7102 3.0774 1893.4 -0.0048496 261.53 0.22602
258.38 54810. undefined 704.25 1308.9 2.1521 625.00 0.0016000 704.25 1308.9 2.1521 2.7139 3.0807 1894.3 -0.0048447 261.50 0.22628 625.00 0.0016000 704.25 1308.9 2.1521 2.7139 3.0807 1894.3 -0.0048447 261.50 0.22628
259.38 54944. undefined 706.96 1313.1 2.1572 625.00 0.0016000 706.96 1313.1 2.1572 2.7175 3.0840 1895.3 -0.0048399 261.48 0.22655 625.00 0.0016000 706.96 1313.1 2.1572 2.7175 3.0840 1895.3 -0.0048399 261.48 0.22655
260.38 55078. undefined 709.68 1317.3 2.1623 625.00 0.0016000 709.68 1317.3 2.1623 2.7211 3.0872 1896.2 -0.0048350 261.45 0.22681 625.00 0.0016000 709.68 1317.3 2.1623 2.7211 3.0872 1896.2 -0.0048350 261.45 0.22681
261.38 55211. undefined 712.40 1321.5 2.1674 625.00 0.0016000 712.40 1321.5 2.1674 2.7247 3.0905 1897.2 -0.0048302 261.43 0.22708 625.00 0.0016000 712.40 1321.5 2.1674 2.7247 3.0905 1897.2 -0.0048302 261.43 0.22708
262.38 55345. undefined 715.13 1325.7 2.1725 625.00 0.0016000 715.13 1325.7 2.1725 2.7283 3.0937 1898.1 -0.0048254 261.40 0.22734 625.00 0.0016000 715.13 1325.7 2.1725 2.7283 3.0937 1898.1 -0.0048254 261.40 0.22734
263.38 55478. undefined 717.86 1329.9 2.1776 625.00 0.0016000 717.86 1329.9 2.1776 2.7319 3.0970 1899.0 -0.0048206 261.38 0.22761 625.00 0.0016000 717.86 1329.9 2.1776 2.7319 3.0970 1899.0 -0.0048206 261.38 0.22761
264.38 55611. undefined 720.59 1334.1 2.1827 625.00 0.0016000 720.59 1334.1 2.1827 2.7355 3.1002 1900.0 -0.0048158 261.36 0.22787 625.00 0.0016000 720.59 1334.1 2.1827 2.7355 3.1002 1900.0 -0.0048158 261.36 0.22787
265.38 55745. undefined 723.33 1338.3 2.1878 625.00 0.0016000 723.33 1338.3 2.1878 2.7391 3.1035 1900.9 -0.0048111 261.33 0.22814 625.00 0.0016000 723.33 1338.3 2.1878 2.7391 3.1035 1900.9 -0.0048111 261.33 0.22814
266.38 55878. undefined 726.07 1342.5 2.1929 625.00 0.0016000 726.07 1342.5 2.1929 2.7426 3.1067 1901.8 -0.0048063 261.31 0.22840 625.00 0.0016000 726.07 1342.5 2.1929 2.7426 3.1067 1901.8 -0.0048063 261.31 0.22840
267.38 56011. undefined 728.82 1346.7 2.1980 625.00 0.0016000 728.82 1346.7 2.1980 2.7462 3.1100 1902.8 -0.0048016 261.29 0.22867 625.00 0.0016000 728.82 1346.7 2.1980 2.7462 3.1100 1902.8 -0.0048016 261.29 0.22867
268.38 56144. undefined 731.57 1350.9 2.2031 625.00 0.0016000 731.57 1350.9 2.2031 2.7498 3.1132 1903.7 -0.0047968 261.27 0.22894 625.00 0.0016000 731.57 1350.9 2.2031 2.7498 3.1132 1903.7 -0.0047968 261.27 0.22894
269.38 56277. undefined 734.32 1355.1 2.2081 625.00 0.0016000 734.32 1355.1 2.2081 2.7533 3.1164 1904.6 -0.0047921 261.24 0.22920 625.00 0.0016000 734.32 1355.1 2.2081 2.7533 3.1164 1904.6 -0.0047921 261.24 0.22920
270.38 56409. undefined 737.07 1359.4 2.2132 625.00 0.0016000 737.07 1359.4 2.2132 2.7569 3.1196 1905.6 -0.0047874 261.22 0.22947 625.00 0.0016000 737.07 1359.4 2.2132 2.7569 3.1196 1905.6 -0.0047874 261.22 0.22947
271.38 56542. undefined 739.83 1363.6 2.2183 625.00 0.0016000 739.83 1363.6 2.2183 2.7604 3.1228 1906.5 -0.0047828 261.20 0.22974 625.00 0.0016000 739.83 1363.6 2.2183 2.7604 3.1228 1906.5 -0.0047828 261.20 0.22974
272.38 56674. undefined 742.59 1367.8 2.2233 625.00 0.0016000 742.59 1367.8 2.2233 2.7640 3.1261 1907.4 -0.0047781 261.18 0.23001 625.00 0.0016000 742.59 1367.8 2.2233 2.7640 3.1261 1907.4 -0.0047781 261.18 0.23001
273.38 56807. undefined 745.36 1372.0 2.2284 625.00 0.0016000 745.36 1372.0 2.2284 2.7675 3.1293 1908.4 -0.0047734 261.16 0.23027 625.00 0.0016000 745.36 1372.0 2.2284 2.7675 3.1293 1908.4 -0.0047734 261.16 0.23027
274.38 56939. undefined 748.13 1376.3 2.2335 625.00 0.0016000 748.13 1376.3 2.2335 2.7711 3.1325 1909.3 -0.0047688 261.14 0.23054 625.00 0.0016000 748.13 1376.3 2.2335 2.7711 3.1325 1909.3 -0.0047688 261.14 0.23054
275.38 57071. undefined 750.90 1380.5 2.2385 625.00 0.0016000 750.90 1380.5 2.2385 2.7746 3.1357 1910.2 -0.0047642 261.11 0.23081 625.00 0.0016000 750.90 1380.5 2.2385 2.7746 3.1357 1910.2 -0.0047642 261.11 0.23081
276.38 57203. undefined 753.68 1384.7 2.2436 625.00 0.0016000 753.68 1384.7 2.2436 2.7781 3.1389 1911.1 -0.0047596 261.09 0.23108 625.00 0.0016000 753.68 1384.7 2.2436 2.7781 3.1389 1911.1 -0.0047596 261.09 0.23108
277.38 57335. undefined 756.46 1389.0 2.2486 625.00 0.0016000 756.46 1389.0 2.2486 2.7817 3.1421 1912.1 -0.0047550 261.07 0.23135 625.00 0.0016000 756.46 1389.0 2.2486 2.7817 3.1421 1912.1 -0.0047550 261.07 0.23135
278.38 57467. undefined 759.24 1393.2 2.2537 625.00 0.0016000 759.24 1393.2 2.2537 2.7852 3.1453 1913.0 -0.0047504 261.05 0.23162 625.00 0.0016000 759.24 1393.2 2.2537 2.7852 3.1453 1913.0 -0.0047504 261.05 0.23162
279.38 57599. undefined 762.03 1397.4 2.2587 625.00 0.0016000 762.03 1397.4 2.2587 2.7887 3.1484 1913.9 -0.0047458 261.03 0.23189 625.00 0.0016000 762.03 1397.4 2.2587 2.7887 3.1484 1913.9 -0.0047458 261.03 0.23189
280.38 57731. undefined 764.82 1401.7 2.2638 625.00 0.0016000 764.82 1401.7 2.2638 2.7922 3.1516 1914.8 -0.0047413 261.01 0.23216 625.00 0.0016000 764.82 1401.7 2.2638 2.7922 3.1516 1914.8 -0.0047413 261.01 0.23216
281.38 57862. undefined 767.61 1405.9 2.2688 625.00 0.0016000 767.61 1405.9 2.2688 2.7957 3.1548 1915.8 -0.0047367 260.99 0.23243 625.00 0.0016000 767.61 1405.9 2.2688 2.7957 3.1548 1915.8 -0.0047367 260.99 0.23243
282.38 57994. undefined 770.41 1410.2 2.2739 625.00 0.0016000 770.41 1410.2 2.2739 2.7992 3.1580 1916.7 -0.0047322 260.97 0.23254 625.00 0.0016000 770.41 1410.2 2.2739 2.7992 3.1580 1916.7 -0.0047322 260.97 0.23254
283.38 58125. undefined 773.21 1414.4 2.2789 625.00 0.0016000 773.21 1414.4 2.2789 2.8027 3.1611 1917.6 -0.0047277 260.95 0.23281 625.00 0.0016000 773.21 1414.4 2.2789 2.8027 3.1611 1917.6 -0.0047277 260.95 0.23281
284.38 58257. undefined 776.01 1418.7 2.2839 625.00 0.0016000 776.01 1418.7 2.2839 2.8062 3.1643 1918.5 -0.0047232 260.93 0.23308 625.00 0.0016000 776.01 1418.7 2.2839 2.8062 3.1643 1918.5 -0.0047232 260.93 0.23308
285.38 58388. undefined 778.82 1422.9 2.2890 625.00 0.0016000 778.82 1422.9 2.2890 2.8097 3.1675 1919.4 -0.0047187 260.91 0.23335 625.00 0.0016000 778.82 1422.9 2.2890 2.8097 3.1675 1919.4 -0.0047187 260.91 0.23335
286.38 58519. undefined 781.63 1427.2 2.2940 625.00 0.0016000 781.63 1427.2 2.2940 2.8131 3.1706 1920.3 -0.0047142 260.90 0.23362 625.00 0.0016000 781.63 1427.2 2.2940 2.8131 3.1706 1920.3 -0.0047142 260.90 0.23362
287.38 58650. undefined 784.45 1431.5 2.2990 625.00 0.0016000 784.45 1431.5 2.2990 2.8166 3.1738 1921.2 -0.0047098 260.88 0.23390 625.00 0.0016000 784.45 1431.5 2.2990 2.8166 3.1738 1921.2 -0.0047098 260.88 0.23390
288.38 58781. undefined 787.27 1435.7 2.3041 625.00 0.0016000 787.27 1435.7 2.3041 2.8201 3.1769 1922.2 -0.0047053 260.86 0.23417 625.00 0.0016000 787.27 1435.7 2.3041 2.8201 3.1769 1922.2 -0.0047053 260.86 0.23417
289.38 58912. undefined 790.09 1440.0 2.3091 625.00 0.0016000 790.09 1440.0 2.3091 2.8235 3.1801 1923.1 -0.0047009 260.84 0.23444 625.00 0.0016000 790.09 1440.0 2.3091 2.8235 3.1801 1923.1 -0.0047009 260.84 0.23444
290.38 59042. undefined 792.91 1444.2 2.3141 625.00 0.0016000 792.91 1444.2 2.3141 2.8270 3.1832 1924.0 -0.0046965 260.82 0.23471 625.00 0.0016000 792.91 1444.2 2.3141 2.8270 3.1832 1924.0 -0.0046965 260.82 0.23471
291.38 59173. undefined 795.74 1448.5 2.3191 625.00 0.0016000 795.74 1448.5 2.3191 2.8304 3.1864 1924.9 -0.0046921 260.80 0.23499 625.00 0.0016000 795.74 1448.5 2.3191 2.8304 3.1864 1924.9 -0.0046921 260.80 0.23499
292.38 59304. undefined 798.57 1452.8 2.3241 625.00 0.0016000 798.57 1452.8 2.3241 2.8339 3.1895 1925.8 -0.0046877 260.79 0.23526 625.00 0.0016000 798.57 1452.8 2.3241 2.8339 3.1895 1925.8 -0.0046877 260.79 0.23526
293.38 59434. undefined 801.41 1457.1 2.3291 625.00 0.0016000 801.41 1457.1 2.3291 2.8373 3.1926 1926.7 -0.0046833 260.77 0.23553 625.00 0.0016000 801.41 1457.1 2.3291 2.8373 3.1926 1926.7 -0.0046833 260.77 0.23553
294.38 59564. undefined 804.25 1461.3 2.3341 625.00 0.0016000 804.25 1461.3 2.3341 2.8408 3.1958 1927.6 -0.0046789 260.75 0.23581 625.00 0.0016000 804.25 1461.3 2.3341 2.8408 3.1958 1927.6 -0.0046789 260.75 0.23581
295.38 59695. undefined 807.09 1465.6 2.3391 625.00 0.0016000 807.09 1465.6 2.3391 2.8442 3.1989 1928.5 -0.0046746 260.73 0.23608 625.00 0.0016000 807.09 1465.6 2.3391 2.8442 3.1989 1928.5 -0.0046746 260.73 0.23608
296.38 59825. undefined 809.94 1469.9 2.3441 625.00 0.0016000 809.94 1469.9 2.3441 2.8476 3.2020 1929.4 -0.0046702 260.72 0.23635 625.00 0.0016000 809.94 1469.9 2.3441 2.8476 3.2020 1929.4 -0.0046702 260.72 0.23635
297.38 59955. undefined 812.79 1474.2 2.3491 625.00 0.0016000 812.79 1474.2 2.3491 2.8510 3.2051 1930.3 -0.0046659 260.70 0.23663 625.00 0.0016000 812.79 1474.2 2.3491 2.8510 3.2051 1930.3 -0.0046659 260.70 0.23663
298.38 60085. undefined 815.64 1478.5 2.3541 625.00 0.0016000 815.64 1478.5 2.3541 2.8545 3.2082 1931.2 -0.0046616 260.68 0.23690 625.00 0.0016000 815.64 1478.5 2.3541 2.8545 3.2082 1931.2 -0.0046616 260.68 0.23690
299.38 60215. undefined 818.50 1482.8 2.3591 625.00 0.0016000 818.50 1482.8 2.3591 2.8579 3.2113 1932.1 -0.0046573 260.67 0.23718 625.00 0.0016000 818.50 1482.8 2.3591 2.8579 3.2113 1932.1 -0.0046573 260.67 0.23718
300.38 60344. undefined 821.36 1487.1 2.3641 625.00 0.0016000 821.36 1487.1 2.3641 2.8613 3.2144 1933.0 -0.0046530 260.65 0.23745 625.00 0.0016000 821.36 1487.1 2.3641 2.8613 3.2144 1933.0 -0.0046530 260.65 0.23745