Temperature (C) Pressure (psia) Quality (l+v) Internal Energy (l+v, kJ/kg) Enthalpy (l+v, kJ/kg) Entropy (l+v, J/g*K) Density (l, kg/m3) Volume (l, m3/kg) Internal Energy (l, kJ/kg) Enthalpy (l, kJ/kg) Entropy (l, J/g*K) Cv (l, J/g*K) Cp (l, J/g*K) Sound Spd. (l, m/s) Joule-Thomson (l, F/psia) Viscosity (l, uPa*s) Therm. Cond. (l, W/m*K) Density (v, kg/m3) Volume (v, m3/kg) Internal Energy (v, kJ/kg) Enthalpy (v, kJ/kg) Entropy (v, J/g*K) Cv (v, J/g*K) Cp (v, J/g*K) Sound Spd. (v, m/s) Joule-Thomson (v, F/psia) Viscosity (v, uPa*s) Therm. Cond. (v, W/m*K)
-187.62 2.4953e-08 2.3821e-12 -196.64 -196.64 -1.3959 733.13 0.0013640 -196.64 -196.64 -1.3959 1.3553 1.9158 2136.4 -0.0077592 10960. 0.20792 1.0669e-08 9.3732e+07 350.13 366.26 5.1858 0.69067 0.87923 143.28 6.1051 2.3259 0.0017061
-186.62 3.7339e-08 3.4926e-12 -194.73 -194.73 -1.3736 732.08 0.0013660 -194.73 -194.73 -1.3736 1.3539 1.9166 2129.6 -0.0077546 10073. 0.20765 1.5780e-08 6.3371e+07 350.82 367.14 5.1200 0.69462 0.88317 144.03 5.9178 2.3534 0.0017533
-185.62 5.5322e-08 5.0705e-12 -192.81 -192.81 -1.3516 731.04 0.0013679 -192.81 -192.81 -1.3516 1.3525 1.9174 2122.9 -0.0077498 9276.1 0.20737 2.3112e-08 4.3267e+07 351.52 368.02 5.0561 0.69857 0.88713 144.77 5.7383 2.3808 0.0018007
-184.62 8.1182e-08 7.2913e-12 -190.89 -190.89 -1.3298 730.00 0.0013699 -190.89 -190.89 -1.3298 1.3513 1.9182 2116.1 -0.0077448 8557.8 0.20708 3.3533e-08 2.9821e+07 352.22 368.91 4.9939 0.70253 0.89108 145.51 5.5662 2.4083 0.0018485
-183.62 1.1803e-07 1.0389e-11 -188.97 -188.97 -1.3083 728.96 0.0013718 -188.97 -188.97 -1.3083 1.3501 1.9191 2109.3 -0.0077395 7909.8 0.20678 4.8211e-08 2.0742e+07 352.92 369.81 4.9333 0.70648 0.89504 146.24 5.4011 2.4357 0.0018965
-182.62 1.7009e-07 1.4670e-11 -187.05 -187.05 -1.2869 727.92 0.0013738 -187.05 -187.05 -1.2869 1.3490 1.9201 2102.5 -0.0077340 7324.3 0.20647 6.8704e-08 1.4555e+07 353.63 370.70 4.8744 0.71043 0.89899 146.97 5.2426 2.4632 0.0019448
-181.62 2.4299e-07 2.0539e-11 -185.13 -185.13 -1.2658 726.88 0.0013757 -185.13 -185.13 -1.2658 1.3480 1.9210 2095.7 -0.0077283 6794.5 0.20616 9.7079e-08 1.0301e+07 354.35 371.60 4.8170 0.71438 0.90294 147.69 5.0904 2.4906 0.0019934
-180.62 3.4425e-07 2.8516e-11 -183.21 -183.21 -1.2450 725.85 0.0013777 -183.21 -183.21 -1.2450 1.3470 1.9220 2088.9 -0.0077225 6314.4 0.20584 1.3605e-07 7.3504e+06 355.06 372.51 4.7612 0.71833 0.90688 148.41 4.9442 2.5181 0.0020423
-179.62 4.8378e-07 3.9275e-11 -181.29 -181.29 -1.2243 724.81 0.0013797 -181.29 -181.29 -1.2243 1.3461 1.9231 2082.0 -0.0077164 5878.8 0.20551 1.8915e-07 5.2868e+06 355.78 373.42 4.7068 0.72227 0.91082 149.13 4.8038 2.5456 0.0020915
-178.62 6.7459e-07 5.3672e-11 -179.37 -179.37 -1.2038 723.78 0.0013816 -179.37 -179.37 -1.2038 1.3453 1.9241 2075.2 -0.0077102 5482.9 0.20517 2.6096e-07 3.8320e+06 356.51 374.33 4.6538 0.72620 0.91475 149.84 4.6688 2.5731 0.0021410
-177.62 9.3358e-07 7.2795e-11 -177.44 -177.44 -1.1836 722.75 0.0013836 -177.44 -177.44 -1.1836 1.3445 1.9252 2068.4 -0.0077039 5122.6 0.20483 3.5737e-07 2.7982e+06 357.23 375.25 4.6022 0.73012 0.91867 150.54 4.5390 2.6005 0.0021907
-176.62 1.2826e-06 9.8013e-11 -175.52 -175.52 -1.1635 721.72 0.0013856 -175.52 -175.52 -1.1635 1.3437 1.9263 2061.5 -0.0076973 4794.1 0.20447 4.8588e-07 2.0581e+06 357.97 376.17 4.5519 0.73403 0.92258 151.25 4.4142 2.6280 0.0022408
-175.62 1.7496e-06 1.3103e-10 -173.59 -173.59 -1.1437 720.69 0.0013876 -173.59 -173.59 -1.1437 1.3430 1.9274 2054.7 -0.0076907 4494.3 0.20411 6.5601e-07 1.5244e+06 358.70 377.09 4.5029 0.73792 0.92648 151.95 4.2941 2.6555 0.0022912
-174.62 2.3705e-06 1.7398e-10 -171.66 -171.66 -1.1240 719.66 0.0013895 -171.66 -171.66 -1.1240 1.3423 1.9286 2047.9 -0.0076838 4220.2 0.20375 8.7976e-07 1.1367e+06 359.44 378.02 4.4551 0.74181 0.93036 152.64 4.1784 2.6830 0.0023418
-173.62 3.1903e-06 2.2948e-10 -169.73 -169.73 -1.1045 718.64 0.0013915 -169.73 -169.73 -1.1045 1.3417 1.9298 2041.0 -0.0076769 3969.3 0.20338 1.1721e-06 8.5314e+05 360.19 378.95 4.4085 0.74568 0.93423 153.33 4.0671 2.7105 0.0023928
-172.62 4.2661e-06 3.0072e-10 -167.80 -167.80 -1.0852 717.61 0.0013935 -167.80 -167.80 -1.0852 1.3411 1.9310 2034.2 -0.0076698 3739.3 0.20300 1.5518e-06 6.4441e+05 360.93 379.89 4.3631 0.74953 0.93809 154.02 3.9599 2.7379 0.0024440
-171.62 5.6692e-06 3.9162e-10 -165.87 -165.87 -1.0661 716.58 0.0013955 -165.87 -165.87 -1.0661 1.3405 1.9322 2027.3 -0.0076625 3528.0 0.20261 2.0419e-06 4.8974e+05 361.69 380.83 4.3188 0.75337 0.94193 154.71 3.8566 2.7654 0.0024955
-170.62 7.4884e-06 5.0691e-10 -163.94 -163.94 -1.0472 715.56 0.0013975 -163.94 -163.94 -1.0472 1.3400 1.9334 2020.5 -0.0076552 3333.8 0.20222 2.6708e-06 3.7442e+05 362.44 381.77 4.2755 0.75720 0.94575 155.39 3.7570 2.7929 0.0025473
-169.62 9.8334e-06 6.5227e-10 -162.00 -162.00 -1.0284 714.54 0.0013995 -162.00 -162.00 -1.0284 1.3395 1.9347 2013.6 -0.0076477 3154.9 0.20182 3.4733e-06 2.8791e+05 363.20 382.72 4.2334 0.76100 0.94956 156.07 3.6609 2.8204 0.0025994
-168.62 1.2839e-05 8.3451e-10 -160.07 -160.07 -1.0098 713.52 0.0014015 -160.07 -160.07 -1.0098 1.3390 1.9359 2006.8 -0.0076401 2989.9 0.20141 4.4917e-06 2.2263e+05 363.96 383.67 4.1922 0.76479 0.95335 156.74 3.5683 2.8479 0.0026518
-167.62 1.6672e-05 1.0617e-09 -158.13 -158.13 -0.99134 712.49 0.0014035 -158.13 -158.13 -0.99134 1.3386 1.9372 2000.0 -0.0076323 2837.5 0.20100 5.7771e-06 1.7310e+05 364.73 384.63 4.1521 0.76856 0.95712 157.41 3.4790 2.8754 0.0027045
-166.62 2.1533e-05 1.3435e-09 -156.19 -156.19 -0.97306 711.47 0.0014055 -156.19 -156.19 -0.97306 1.3382 1.9385 1993.1 -0.0076245 2696.5 0.20058 7.3914e-06 1.3529e+05 365.50 385.59 4.1129 0.77232 0.96087 158.08 3.3927 2.9029 0.0027575
-165.62 2.7666e-05 1.6912e-09 -154.25 -154.25 -0.95494 710.45 0.0014075 -154.25 -154.25 -0.95494 1.3378 1.9398 1986.3 -0.0076165 2566.0 0.20016 9.4084e-06 1.0629e+05 366.27 386.55 4.0746 0.77605 0.96460 158.75 3.3095 2.9304 0.0028108
-164.62 3.5367e-05 2.1179e-09 -152.31 -152.31 -0.93698 709.44 0.0014096 -152.31 -152.31 -0.93698 1.3375 1.9411 1979.4 -0.0076084 2444.9 0.19973 1.1916e-05 83918. 367.05 387.52 4.0372 0.77976 0.96832 159.41 3.2291 2.9579 0.0028643
-163.62 4.4989e-05 2.6391e-09 -150.37 -150.37 -0.91917 708.42 0.0014116 -150.37 -150.37 -0.91917 1.3371 1.9424 1972.6 -0.0076002 2332.3 0.19930 1.5020e-05 66577. 367.83 388.49 4.0008 0.78346 0.97201 160.07 3.1514 2.9854 0.0029182
-162.62 5.6956e-05 3.2727e-09 -148.43 -148.43 -0.90151 707.40 0.0014136 -148.43 -148.43 -0.90151 1.3368 1.9437 1965.8 -0.0075919 2227.7 0.19886 1.8844e-05 53068. 368.62 389.46 3.9651 0.78713 0.97569 160.72 3.0764 3.0129 0.0029723
-161.62 7.1773e-05 4.0392e-09 -146.48 -146.48 -0.88400 706.38 0.0014157 -146.48 -146.48 -0.88400 1.3365 1.9451 1959.0 -0.0075834 2130.2 0.19841 2.3533e-05 42494. 369.41 390.44 3.9304 0.79079 0.97935 161.38 3.0038 3.0404 0.0030268
-160.62 9.0036e-05 4.9623e-09 -144.54 -144.54 -0.86663 705.37 0.0014177 -144.54 -144.54 -0.86663 1.3363 1.9465 1952.1 -0.0075748 2039.2 0.19796 2.9258e-05 34178. 370.20 391.42 3.8964 0.79443 0.98298 162.03 2.9337 3.0679 0.0030815
-159.62 0.00011245 6.0691e-09 -142.59 -142.59 -0.84940 704.35 0.0014197 -142.59 -142.59 -0.84940 1.3360 1.9478 1945.3 -0.0075661 1954.2 0.19751 3.6221e-05 27609. 371.00 392.40 3.8632 0.79805 0.98660 162.68 2.8658 3.0955 0.0031365
-158.62 0.00013985 7.3904e-09 -140.64 -140.64 -0.83231 703.34 0.0014218 -140.64 -140.64 -0.83231 1.3358 1.9492 1938.5 -0.0075573 1874.8 0.19705 4.4652e-05 22395. 371.80 393.39 3.8307 0.80164 0.99020 163.32 2.8002 3.1230 0.0031918
-157.62 0.00017320 8.9611e-09 -138.69 -138.69 -0.81536 702.32 0.0014238 -138.69 -138.69 -0.81536 1.3356 1.9506 1931.7 -0.0075484 1800.3 0.19658 5.4822e-05 18241. 372.60 394.38 3.7990 0.80522 0.99378 163.96 2.7367 3.1505 0.0032474
-156.62 0.00021364 1.0820e-08 -136.74 -136.74 -0.79854 701.31 0.0014259 -136.74 -136.74 -0.79854 1.3354 1.9520 1924.9 -0.0075393 1730.5 0.19611 6.7040e-05 14916. 373.41 395.38 3.7680 0.80878 0.99734 164.60 2.6752 3.1780 0.0033033
-155.62 0.00026248 1.3013e-08 -134.79 -134.79 -0.78185 700.30 0.0014280 -134.79 -134.79 -0.78185 1.3352 1.9534 1918.1 -0.0075302 1664.9 0.19564 8.1666e-05 12245. 374.22 396.38 3.7377 0.81232 1.0009 165.24 2.6157 3.2055 0.0033595
-154.62 0.00032125 1.5587e-08 -132.83 -132.83 -0.76530 699.29 0.0014300 -132.83 -132.83 -0.76530 1.3350 1.9548 1911.3 -0.0075209 1603.3 0.19516 9.9109e-05 10090. 375.03 397.38 3.7081 0.81585 1.0044 165.87 2.5580 3.2330 0.0034160
-153.62 0.00039171 1.8599e-08 -130.88 -130.88 -0.74887 698.27 0.0014321 -130.88 -130.88 -0.74887 1.3349 1.9563 1904.5 -0.0075114 1545.3 0.19468 0.00011984 8344.6 375.85 398.39 3.6792 0.81935 1.0079 166.50 2.5022 3.2606 0.0034727
-152.62 0.00047590 2.2108e-08 -128.92 -128.92 -0.73256 697.26 0.0014342 -128.92 -128.92 -0.73256 1.3348 1.9577 1897.8 -0.0075019 1490.6 0.19419 0.00014439 6925.9 376.67 399.40 3.6509 0.82284 1.0114 167.13 2.4481 3.2881 0.0035298
-151.62 0.00057613 2.6183e-08 -126.96 -126.96 -0.71638 696.25 0.0014363 -126.96 -126.96 -0.71638 1.3346 1.9592 1891.0 -0.0074922 1438.9 0.19370 0.00017336 5768.4 377.49 400.41 3.6232 0.82631 1.0149 167.76 2.3957 3.3156 0.0035872
-150.62 0.00069507 3.0897e-08 -125.00 -125.00 -0.70032 695.24 0.0014384 -125.00 -125.00 -0.70032 1.3345 1.9606 1884.2 -0.0074824 1390.2 0.19320 0.00020744 4820.7 378.32 401.42 3.5962 0.82976 1.0183 168.38 2.3448 3.3431 0.0036448
-149.62 0.00083574 3.6332e-08 -123.04 -123.04 -0.68438 694.23 0.0014404 -123.04 -123.04 -0.68438 1.3345 1.9621 1877.4 -0.0074724 1344.0 0.19270 0.00024740 4042.0 379.15 402.44 3.5697 0.83319 1.0218 169.00 2.2956 3.3706 0.0037027
-148.62 0.0010016 4.2574e-08 -121.08 -121.08 -0.66855 693.22 0.0014425 -121.08 -121.08 -0.66855 1.3344 1.9636 1870.7 -0.0074623 1300.3 0.19220 0.00029412 3400.0 379.99 403.47 3.5438 0.83661 1.0252 169.62 2.2478 3.3982 0.0037610
-147.62 0.0011965 4.9721e-08 -119.11 -119.11 -0.65284 692.21 0.0014447 -119.11 -119.11 -0.65284 1.3343 1.9651 1863.9 -0.0074521 1258.9 0.19169 0.00034856 2869.0 380.83 404.49 3.5185 0.84001 1.0286 170.24 2.2014 3.4257 0.0038195
-146.62 0.0014249 5.7874e-08 -117.15 -117.15 -0.63724 691.20 0.0014468 -117.15 -117.15 -0.63724 1.3343 1.9666 1857.2 -0.0074417 1219.6 0.19117 0.00041181 2428.3 381.67 405.52 3.4938 0.84340 1.0320 170.85 2.1565 3.4532 0.0038783
-145.62 0.0016917 6.7146e-08 -115.18 -115.18 -0.62175 690.19 0.0014489 -115.18 -115.18 -0.62175 1.3343 1.9682 1850.4 -0.0074312 1182.3 0.19066 0.00048510 2061.4 382.51 406.56 3.4695 0.84677 1.0353 171.46 2.1128 3.4807 0.0039374
-144.62 0.0020026 7.7656e-08 -113.21 -113.21 -0.60637 689.18 0.0014510 -113.21 -113.21 -0.60637 1.3343 1.9697 1843.7 -0.0074206 1146.8 0.19014 0.00056976 1755.1 383.36 407.59 3.4458 0.85012 1.0387 172.07 2.0705 3.5082 0.0039967
-143.62 0.0023637 8.9530e-08 -111.24 -111.24 -0.59110 688.17 0.0014531 -111.24 -111.24 -0.59110 1.3343 1.9713 1836.9 -0.0074098 1113.0 0.18962 0.00066731 1498.6 384.21 408.63 3.4226 0.85346 1.0420 172.68 2.0294 3.5358 0.0040564
-142.62 0.0027820 1.0290e-07 -109.27 -109.27 -0.57593 687.16 0.0014553 -109.27 -109.27 -0.57593 1.3343 1.9728 1830.2 -0.0073988 1080.8 0.18909 0.00077939 1283.1 385.07 409.68 3.3999 0.85679 1.0454 173.28 1.9896 3.5633 0.0041164
-141.62 0.0032653 1.1792e-07 -107.30 -107.30 -0.56087 686.15 0.0014574 -107.30 -107.30 -0.56087 1.3343 1.9744 1823.5 -0.0073878 1050.1 0.18856 0.00090784 1101.5 385.93 410.72 3.3777 0.86011 1.0487 173.88 1.9508 3.5908 0.0041766
-140.62 0.0038222 1.3473e-07 -105.32 -105.32 -0.54591 685.14 0.0014596 -105.32 -105.32 -0.54591 1.3344 1.9760 1816.7 -0.0073765 1020.7 0.18803 0.0010547 948.16 386.79 411.77 3.3560 0.86341 1.0520 174.48 1.9133 3.6183 0.0042372
-139.62 0.0044623 1.5348e-07 -103.34 -103.34 -0.53105 684.13 0.0014617 -103.34 -103.34 -0.53105 1.3344 1.9776 1810.0 -0.0073651 992.74 0.18749 0.0012221 818.26 387.65 412.83 3.3347 0.86670 1.0553 175.08 1.8768 3.6459 0.0042980
-138.62 0.0051963 1.7434e-07 -101.37 -101.37 -0.51629 683.12 0.0014639 -101.37 -101.37 -0.51629 1.3345 1.9792 1803.3 -0.0073536 965.97 0.18695 0.0014125 707.94 388.52 413.88 3.3139 0.86998 1.0586 175.67 1.8413 3.6734 0.0043592
-137.62 0.0060358 1.9749e-07 -99.386 -99.386 -0.50162 682.11 0.0014660 -99.386 -99.386 -0.50162 1.3346 1.9808 1796.6 -0.0073419 940.35 0.18641 0.0016287 614.00 389.39 414.94 3.2935 0.87325 1.0619 176.26 1.8069 3.7009 0.0044206
-136.62 0.0069938 2.2309e-07 -97.404 -97.404 -0.48705 681.10 0.0014682 -97.404 -97.404 -0.48705 1.3347 1.9825 1789.9 -0.0073301 915.81 0.18586 0.0018733 533.80 390.26 416.00 3.2735 0.87650 1.0651 176.85 1.7734 3.7284 0.0044823
-135.62 0.0080843 2.5131e-07 -95.421 -95.421 -0.47258 680.09 0.0014704 -95.421 -95.421 -0.47258 1.3348 1.9841 1783.2 -0.0073180 892.30 0.18531 0.0021497 465.17 391.14 417.07 3.2540 0.87975 1.0684 177.44 1.7409 3.7559 0.0045443
-134.62 0.0093230 2.8234e-07 -93.436 -93.436 -0.45820 679.08 0.0014726 -93.436 -93.436 -0.45820 1.3350 1.9858 1776.5 -0.0073059 869.75 0.18476 0.0024613 406.30 392.02 418.14 3.2348 0.88299 1.0716 178.02 1.7093 3.7834 0.0046066
-133.62 0.010727 3.1637e-07 -91.449 -91.449 -0.44391 678.07 0.0014748 -91.450 -91.449 -0.44391 1.3351 1.9875 1769.8 -0.0072935 848.11 0.18421 0.0028116 355.67 392.91 419.21 3.2161 0.88622 1.0749 178.61 1.6786 3.8109 0.0046691
-132.62 0.012315 3.5355e-07 -89.461 -89.461 -0.42971 677.06 0.0014770 -89.461 -89.461 -0.42971 1.3353 1.9892 1763.1 -0.0072810 827.32 0.18365 0.0032049 312.03 393.79 420.29 3.1977 0.88944 1.0781 179.19 1.6488 3.8385 0.0047320
-131.62 0.014106 3.9408e-07 -87.471 -87.471 -0.41560 676.04 0.0014792 -87.471 -87.471 -0.41560 1.3354 1.9909 1756.4 -0.0072684 807.34 0.18309 0.0036453 274.33 394.68 421.36 3.1798 0.89266 1.0813 179.76 1.6197 3.8660 0.0047951
-130.62 0.016124 4.3813e-07 -85.479 -85.479 -0.40157 675.03 0.0014814 -85.479 -85.479 -0.40157 1.3356 1.9926 1749.7 -0.0072555 788.12 0.18253 0.0041375 241.69 395.58 422.44 3.1622 0.89586 1.0846 180.34 1.5915 3.8935 0.0048586
-129.62 0.018392 4.8586e-07 -83.486 -83.485 -0.38763 674.02 0.0014836 -83.486 -83.486 -0.38763 1.3358 1.9944 1743.0 -0.0072425 769.63 0.18196 0.0046867 213.37 396.47 423.53 3.1450 0.89906 1.0878 180.91 1.5641 3.9210 0.0049223
-128.62 0.020935 5.3742e-07 -81.490 -81.490 -0.37378 673.01 0.0014859 -81.491 -81.490 -0.37378 1.3360 1.9961 1736.3 -0.0072294 751.83 0.18140 0.0052981 188.75 397.37 424.62 3.1281 0.90226 1.0910 181.48 1.5374 3.9485 0.0049863
-127.62 0.023783 5.9296e-07 -79.493 -79.493 -0.36001 672.00 0.0014881 -79.494 -79.493 -0.36001 1.3363 1.9979 1729.6 -0.0072160 734.67 0.18083 0.0059776 167.29 398.27 425.71 3.1116 0.90545 1.0942 182.05 1.5114 3.9760 0.0050506
-126.62 0.026966 6.5260e-07 -77.495 -77.494 -0.34632 670.98 0.0014904 -77.495 -77.495 -0.34632 1.3365 1.9997 1722.9 -0.0072025 718.14 0.18025 0.0067313 148.56 399.18 426.80 3.0954 0.90863 1.0974 182.62 1.4861 4.0035 0.0051152
-125.62 0.030515 7.1646e-07 -75.494 -75.494 -0.33271 669.97 0.0014926 -75.494 -75.494 -0.33272 1.3368 2.0015 1716.2 -0.0071888 702.18 0.17968 0.0075660 132.17 400.09 427.89 3.0795 0.91181 1.1006 183.18 1.4615 4.0310 0.0051800
-124.62 0.034467 7.8461e-07 -73.492 -73.491 -0.31919 668.95 0.0014949 -73.492 -73.492 -0.31919 1.3371 2.0033 1709.5 -0.0071749 686.79 0.17910 0.0084885 117.81 401.00 428.99 3.0640 0.91499 1.1038 183.74 1.4375 4.0584 0.0052452
-123.62 0.038859 8.5712e-07 -71.487 -71.487 -0.30574 667.94 0.0014971 -71.488 -71.487 -0.30574 1.3374 2.0051 1702.8 -0.0071609 671.93 0.17852 0.0095065 105.19 401.91 430.10 3.0488 0.91816 1.1070 184.30 1.4141 4.0859 0.0053106
-122.62 0.043731 9.3401e-07 -69.481 -69.481 -0.29236 666.92 0.0014994 -69.482 -69.481 -0.29237 1.3377 2.0070 1696.2 -0.0071466 657.57 0.17794 0.010628 94.092 402.83 431.20 3.0339 0.92134 1.1102 184.86 1.3913 4.1134 0.0053764
-121.62 0.049128 1.0153e-06 -67.473 -67.473 -0.27907 665.91 0.0015017 -67.474 -67.473 -0.27907 1.3380 2.0089 1689.5 -0.0071322 643.70 0.17736 0.011861 84.309 403.75 432.31 3.0193 0.92451 1.1134 185.41 1.3691 4.1409 0.0054424
-120.62 0.055096 1.1008e-06 -65.463 -65.463 -0.26585 664.89 0.0015040 -65.464 -65.463 -0.26585 1.3384 2.0107 1682.8 -0.0071176 630.28 0.17678 0.013215 75.669 404.67 433.42 3.0050 0.92767 1.1166 185.96 1.3475 4.1683 0.0055087
-119.62 0.061684 1.1906e-06 -63.452 -63.451 -0.25270 663.87 0.0015063 -63.452 -63.452 -0.25271 1.3387 2.0126 1676.1 -0.0071028 617.30 0.17619 0.014700 68.027 405.60 434.53 2.9909 0.93084 1.1198 186.51 1.3264 4.1958 0.0055752
-118.62 0.068946 1.2845e-06 -61.438 -61.437 -0.23963 662.86 0.0015086 -61.439 -61.438 -0.23963 1.3391 2.0146 1669.4 -0.0070878 604.74 0.17560 0.016325 61.255 406.53 435.64 2.9772 0.93401 1.1231 187.06 1.3058 4.2233 0.0056421
-117.62 0.076937 1.3822e-06 -59.423 -59.422 -0.22663 661.84 0.0015109 -59.423 -59.422 -0.22663 1.3395 2.0165 1662.8 -0.0070726 592.58 0.17501 0.018101 55.245 407.46 436.76 2.9638 0.93718 1.1263 187.60 1.2857 4.2507 0.0057092
-116.62 0.085718 1.4836e-06 -57.405 -57.404 -0.21370 660.82 0.0015133 -57.406 -57.405 -0.21370 1.3400 2.0184 1656.1 -0.0070573 580.80 0.17442 0.020040 49.901 408.39 437.88 2.9506 0.94035 1.1295 188.14 1.2660 4.2782 0.0057767
-115.62 0.095353 1.5881e-06 -55.386 -55.385 -0.20084 659.80 0.0015156 -55.386 -55.385 -0.20084 1.3404 2.0204 1649.4 -0.0070417 569.38 0.17383 0.022152 45.142 409.33 439.01 2.9377 0.94352 1.1327 188.68 1.2468 4.3056 0.0058444
-114.62 0.10591 1.6955e-06 -53.364 -53.363 -0.18804 658.78 0.0015180 -53.365 -53.364 -0.18805 1.3409 2.0224 1642.7 -0.0070260 558.32 0.17323 0.024451 40.898 410.27 440.13 2.9250 0.94669 1.1360 189.22 1.2281 4.3330 0.0059123
-113.62 0.11746 1.8052e-06 -51.341 -51.339 -0.17532 657.76 0.0015203 -51.342 -51.340 -0.17533 1.3413 2.0244 1636.0 -0.0070100 547.59 0.17264 0.026949 37.107 411.21 441.26 2.9126 0.94987 1.1392 189.75 1.2097 4.3604 0.0059806
-112.62 0.13008 1.9167e-06 -49.315 -49.314 -0.16266 656.73 0.0015227 -49.316 -49.315 -0.16267 1.3418 2.0264 1629.3 -0.0069938 537.18 0.17204 0.029661 33.715 412.16 442.39 2.9005 0.95305 1.1424 190.28 1.1918 4.3879 0.0060491
-111.62 0.14384 2.0291e-06 -47.288 -47.286 -0.15007 655.71 0.0015251 -47.289 -47.287 -0.15008 1.3424 2.0285 1622.7 -0.0069774 527.08 0.17144 0.032600 30.675 413.10 443.53 2.8885 0.95623 1.1457 190.81 1.1742 4.4153 0.0061180
-110.62 0.15884 2.1417e-06 -45.258 -45.257 -0.13755 654.69 0.0015274 -45.259 -45.258 -0.13755 1.3429 2.0305 1616.0 -0.0069609 517.28 0.17084 0.035781 27.948 414.06 444.66 2.8769 0.95942 1.1490 191.34 1.1570 4.4427 0.0061871
-109.62 0.17516 2.2537e-06 -43.227 -43.225 -0.12508 653.66 0.0015298 -43.228 -43.226 -0.12509 1.3435 2.0326 1609.3 -0.0069441 507.76 0.17024 0.039220 25.497 415.01 445.80 2.8654 0.96261 1.1522 191.86 1.1402 4.4701 0.0062564
-108.62 0.19290 2.3638e-06 -41.193 -41.191 -0.11269 652.64 0.0015322 -41.194 -41.192 -0.11269 1.3441 2.0347 1602.6 -0.0069271 498.51 0.16964 0.042933 23.292 415.96 446.94 2.8542 0.96581 1.1555 192.38 1.1236 4.4974 0.0063261
-107.62 0.21215 2.4709e-06 -39.157 -39.155 -0.10035 651.61 0.0015347 -39.158 -39.156 -0.10036 1.3447 2.0369 1595.9 -0.0069098 489.52 0.16903 0.046937 21.305 416.92 448.09 2.8433 0.96901 1.1588 192.90 1.1075 4.5248 0.0063960
-106.62 0.23301 2.5737e-06 -37.119 -37.117 -0.088075 650.58 0.0015371 -37.120 -37.118 -0.088082 1.3453 2.0390 1589.2 -0.0068924 480.79 0.16843 0.051250 19.512 417.88 449.23 2.8325 0.97222 1.1621 193.41 1.0916 4.5522 0.0064662
-105.62 0.25561 2.6706e-06 -35.079 -35.076 -0.075861 649.55 0.0015395 -35.080 -35.078 -0.075868 1.3460 2.0412 1582.6 -0.0068747 472.30 0.16782 0.055891 17.892 418.85 450.38 2.8220 0.97544 1.1655 193.93 1.0760 4.5795 0.0065367
-104.62 0.28004 2.7601e-06 -33.037 -33.034 -0.063706 648.52 0.0015420 -33.038 -33.035 -0.063714 1.3467 2.0434 1575.9 -0.0068569 464.04 0.16721 0.060878 16.426 419.81 451.53 2.8116 0.97867 1.1688 194.44 1.0608 4.6069 0.0066074
-103.62 0.30643 2.8402e-06 -30.993 -30.989 -0.051611 647.49 0.0015444 -30.994 -30.991 -0.051619 1.3474 2.0456 1569.2 -0.0068387 456.00 0.16660 0.066231 15.099 420.78 452.68 2.8015 0.98191 1.1722 194.94 1.0458 4.6342 0.0066785
-102.62 0.33490 2.9088e-06 -28.946 -28.942 -0.039573 646.46 0.0015469 -28.947 -28.944 -0.039582 1.3481 2.0478 1562.5 -0.0068204 448.18 0.16600 0.071971 13.894 421.75 453.84 2.7916 0.98516 1.1755 195.44 1.0310 4.6615 0.0067498
-101.62 0.36558 2.9639e-06 -26.897 -26.893 -0.027593 645.43 0.0015494 -26.898 -26.894 -0.027602 1.3489 2.0501 1555.8 -0.0068018 440.57 0.16539 0.078120 12.801 422.73 454.99 2.7818 0.98841 1.1789 195.95 1.0166 4.6888 0.0068213
-100.62 0.39862 3.0028e-06 -24.846 -24.842 -0.015670 644.39 0.0015519 -24.847 -24.843 -0.015678 1.3497 2.0524 1549.1 -0.0067830 433.16 0.16478 0.084699 11.807 423.70 456.15 2.7723 0.99168 1.1823 196.44 1.0024 4.7161 0.0068932
-99.625 0.43414 3.0230e-06 -22.792 -22.788 -0.0038019 643.36 0.0015544 -22.794 -22.789 -0.0038103 1.3505 2.0547 1542.4 -0.0067639 425.95 0.16416 0.091731 10.901 424.68 457.31 2.7630 0.99496 1.1858 196.94 0.98838 4.7434 0.0069653
-98.625 0.47230 3.0214e-06 -20.737 -20.732 0.0080110 642.32 0.0015569 -20.738 -20.733 0.0080027 1.3514 2.0570 1535.7 -0.0067447 418.92 0.16355 0.099240 10.077 425.66 458.48 2.7538 0.99825 1.1892 197.43 0.97464 4.7707 0.0070377
-97.625 0.51325 2.9950e-06 -18.679 -18.673 0.019770 641.28 0.0015594 -18.680 -18.674 0.019762 1.3522 2.0594 1529.0 -0.0067251 412.07 0.16294 0.10725 9.3239 426.65 459.64 2.7448 1.0016 1.1927 197.92 0.96112 4.7979 0.0071103
-96.625 0.55714 2.9403e-06 -16.618 -16.612 0.031475 640.24 0.0015619 -16.620 -16.614 0.031467 1.3531 2.0618 1522.3 -0.0067053 405.39 0.16233 0.11579 8.6365 427.63 460.81 2.7360 1.0049 1.1962 198.40 0.94783 4.8251 0.0071832
-95.625 0.60416 2.8536e-06 -14.555 -14.549 0.043128 639.20 0.0015645 -14.557 -14.550 0.043120 1.3540 2.0642 1515.7 -0.0066853 398.88 0.16171 0.12488 8.0078 428.62 461.98 2.7274 1.0082 1.1997 198.88 0.93475 4.8524 0.0072564
-94.625 0.65446 2.7308e-06 -12.490 -12.483 0.054728 638.16 0.0015670 -12.491 -12.484 0.054721 1.3550 2.0667 1509.0 -0.0066650 392.53 0.16110 0.13455 7.4323 429.61 463.15 2.7189 1.0116 1.2032 199.36 0.92188 4.8796 0.0073299
-93.625 0.70822 2.5678e-06 -10.423 -10.415 0.066278 637.12 0.0015696 -10.424 -10.416 0.066271 1.3560 2.0691 1502.3 -0.0066444 386.34 0.16048 0.14482 6.9050 430.60 464.32 2.7107 1.0149 1.2068 199.83 0.90921 4.9068 0.0074036
-92.625 0.76564 2.3598e-06 -8.3525 -8.3441 0.077777 636.07 0.0015722 -8.3535 -8.3452 0.077771 1.3570 2.0716 1495.6 -0.0066236 380.31 0.15987 0.15573 6.4212 431.60 465.49 2.7025 1.0183 1.2104 200.30 0.89673 4.9340 0.0074776
-91.625 0.82689 2.1019e-06 -6.2799 -6.2709 0.089226 635.02 0.0015747 -6.2808 -6.2719 0.089220 1.3580 2.0742 1488.9 -0.0066025 374.41 0.15925 0.16731 5.9769 432.59 466.67 2.6946 1.0217 1.2140 200.77 0.88445 4.9611 0.0075518
-90.625 0.89218 1.7887e-06 -4.2049 -4.1951 0.10063 633.98 0.0015773 -4.2056 -4.1959 0.10062 1.3591 2.0767 1482.2 -0.0065811 368.66 0.15864 0.17958 5.5685 433.59 467.84 2.6868 1.0251 1.2177 201.24 0.87236 4.9883 0.0076263
-89.625 0.96172 1.4147e-06 -2.1273 -2.1167 0.11198 632.93 0.0015800 -2.1279 -2.1174 0.11197 1.3602 2.0793 1475.5 -0.0065595 363.05 0.15802 0.19258 5.1928 434.59 469.02 2.6791 1.0285 1.2213 201.70 0.86045 5.0154 0.0077011
-88.625 1.0357 9.7379e-07 -0.047092 -0.035757 0.12328 631.88 0.0015826 -0.047516 -0.036215 0.12328 1.3613 2.0819 1468.8 -0.0065375 357.56 0.15740 0.20633 4.8466 435.59 470.20 2.6717 1.0320 1.2250 202.15 0.84873 5.0425 0.0077761
-87.625 1.1144 4.5949e-07 2.0357 2.0478 0.13454 630.83 0.0015852 2.0355 2.0476 0.13454 1.3625 2.0846 1462.1 -0.0065153 352.21 0.15679 0.22087 4.5276 436.60 471.39 2.6643 1.0354 1.2288 202.61 0.83718 5.0696 0.0078514
-86.625 46.783 undefined 3.9655 4.4775 0.14491 630.00 0.0015873 3.9655 4.4775 0.14491 1.3640 2.0865 1457.4 -0.0065000 347.91 0.15634 630.00 0.0015873 3.9655 4.4775 0.14491 1.3640 2.0865 1457.4 -0.0065000 347.91 0.15634
-85.625 258.46 undefined 5.3309 8.1596 0.15221 630.00 0.0015873 5.3309 8.1596 0.15221 1.3668 2.0858 1459.9 -0.0065103 347.04 0.15651 630.00 0.0015873 5.3309 8.1596 0.15221 1.3668 2.0858 1459.9 -0.0065103 347.04 0.15651
-84.625 469.67 undefined 6.6992 11.839 0.15949 630.00 0.0015873 6.6992 11.839 0.15949 1.3696 2.0851 1462.4 -0.0065203 346.19 0.15668 630.00 0.0015873 6.6992 11.839 0.15949 1.3696 2.0851 1462.4 -0.0065203 346.19 0.15668
-83.625 680.43 undefined 8.0702 15.517 0.16674 630.00 0.0015873 8.0702 15.517 0.16674 1.3725 2.0845 1464.9 -0.0065299 345.34 0.15685 630.00 0.0015873 8.0702 15.517 0.16674 1.3725 2.0845 1464.9 -0.0065299 345.34 0.15685
-82.625 890.72 undefined 9.4441 19.192 0.17397 630.00 0.0015873 9.4441 19.192 0.17397 1.3753 2.0839 1467.4 -0.0065392 344.51 0.15703 630.00 0.0015873 9.4441 19.192 0.17397 1.3753 2.0839 1467.4 -0.0065392 344.51 0.15703
-81.625 1100.6 undefined 10.821 22.865 0.18118 630.00 0.0015873 10.821 22.865 0.18118 1.3782 2.0834 1469.9 -0.0065482 343.69 0.15720 630.00 0.0015873 10.821 22.865 0.18118 1.3782 2.0834 1469.9 -0.0065482 343.69 0.15720
-80.625 1310.0 undefined 12.200 26.537 0.18837 630.00 0.0015873 12.200 26.537 0.18837 1.3810 2.0830 1472.3 -0.0065569 342.88 0.15737 630.00 0.0015873 12.200 26.537 0.18837 1.3810 2.0830 1472.3 -0.0065569 342.88 0.15737
-79.625 1518.9 undefined 13.583 30.206 0.19553 630.00 0.0015873 13.583 30.206 0.19553 1.3839 2.0827 1474.8 -0.0065652 342.08 0.15754 630.00 0.0015873 13.583 30.206 0.19553 1.3839 2.0827 1474.8 -0.0065652 342.08 0.15754
-78.625 1727.4 undefined 14.968 33.873 0.20267 630.00 0.0015873 14.968 33.873 0.20267 1.3868 2.0824 1477.2 -0.0065732 341.29 0.15772 630.00 0.0015873 14.968 33.873 0.20267 1.3868 2.0824 1477.2 -0.0065732 341.29 0.15772
-77.625 1935.5 undefined 16.356 37.539 0.20979 630.00 0.0015873 16.356 37.539 0.20979 1.3897 2.0821 1479.6 -0.0065810 340.50 0.15789 630.00 0.0015873 16.356 37.539 0.20979 1.3897 2.0821 1479.6 -0.0065810 340.50 0.15789
-76.625 2143.1 undefined 17.747 41.202 0.21688 630.00 0.0015873 17.747 41.202 0.21688 1.3926 2.0820 1482.0 -0.0065884 339.73 0.15806 630.00 0.0015873 17.747 41.202 0.21688 1.3926 2.0820 1482.0 -0.0065884 339.73 0.15806
-75.625 2350.3 undefined 19.142 44.864 0.22396 630.00 0.0015873 19.142 44.864 0.22396 1.3955 2.0819 1484.4 -0.0065955 338.97 0.15824 630.00 0.0015873 19.142 44.864 0.22396 1.3955 2.0819 1484.4 -0.0065955 338.97 0.15824
-74.625 2557.1 undefined 20.538 48.524 0.23101 630.00 0.0015873 20.538 48.524 0.23101 1.3984 2.0818 1486.8 -0.0066023 338.22 0.15841 630.00 0.0015873 20.538 48.524 0.23101 1.3984 2.0818 1486.8 -0.0066023 338.22 0.15841
-73.625 2763.5 undefined 21.938 52.182 0.23805 630.00 0.0015873 21.938 52.182 0.23805 1.4014 2.0818 1489.1 -0.0066089 337.48 0.15858 630.00 0.0015873 21.938 52.182 0.23805 1.4014 2.0818 1489.1 -0.0066089 337.48 0.15858
-72.625 2969.5 undefined 23.341 55.839 0.24506 630.00 0.0015873 23.341 55.839 0.24506 1.4043 2.0818 1491.5 -0.0066151 336.75 0.15876 630.00 0.0015873 23.341 55.839 0.24506 1.4043 2.0818 1491.5 -0.0066151 336.75 0.15876
-71.625 3175.0 undefined 24.747 59.494 0.25205 630.00 0.0015873 24.747 59.494 0.25205 1.4073 2.0819 1493.8 -0.0066211 336.03 0.15893 630.00 0.0015873 24.747 59.494 0.25205 1.4073 2.0819 1493.8 -0.0066211 336.03 0.15893
-70.625 3380.1 undefined 26.156 63.148 0.25903 630.00 0.0015873 26.156 63.148 0.25903 1.4103 2.0821 1496.1 -0.0066268 335.31 0.15911 630.00 0.0015873 26.156 63.148 0.25903 1.4103 2.0821 1496.1 -0.0066268 335.31 0.15911
-69.625 3584.8 undefined 27.567 66.800 0.26598 630.00 0.0015873 27.567 66.800 0.26598 1.4133 2.0823 1498.4 -0.0066323 334.61 0.15928 630.00 0.0015873 27.567 66.800 0.26598 1.4133 2.0823 1498.4 -0.0066323 334.61 0.15928
-68.625 3789.1 undefined 28.982 70.451 0.27291 630.00 0.0015873 28.982 70.451 0.27291 1.4163 2.0826 1500.7 -0.0066375 333.91 0.15946 630.00 0.0015873 28.982 70.451 0.27291 1.4163 2.0826 1500.7 -0.0066375 333.91 0.15946
-67.625 3993.0 undefined 30.400 74.100 0.27983 630.00 0.0015873 30.400 74.100 0.27983 1.4193 2.0829 1503.0 -0.0066424 333.22 0.15964 630.00 0.0015873 30.400 74.100 0.27983 1.4193 2.0829 1503.0 -0.0066424 333.22 0.15964
-66.625 4196.5 undefined 31.821 77.748 0.28672 630.00 0.0015873 31.821 77.748 0.28672 1.4223 2.0833 1505.3 -0.0066471 332.55 0.15981 630.00 0.0015873 31.821 77.748 0.28672 1.4223 2.0833 1505.3 -0.0066471 332.55 0.15981
-65.625 4399.7 undefined 33.245 81.395 0.29360 630.00 0.0015873 33.245 81.395 0.29360 1.4254 2.0837 1507.5 -0.0066515 331.88 0.15999 630.00 0.0015873 33.245 81.395 0.29360 1.4254 2.0837 1507.5 -0.0066515 331.88 0.15999
-64.625 4602.4 undefined 34.672 85.040 0.30046 630.00 0.0015873 34.672 85.040 0.30046 1.4284 2.0841 1509.7 -0.0066557 331.21 0.16017 630.00 0.0015873 34.672 85.040 0.30046 1.4284 2.0841 1509.7 -0.0066557 331.21 0.16017
-63.625 4804.7 undefined 36.101 88.684 0.30730 630.00 0.0015873 36.101 88.684 0.30730 1.4315 2.0846 1512.0 -0.0066596 330.56 0.16034 630.00 0.0015873 36.101 88.684 0.30730 1.4315 2.0846 1512.0 -0.0066596 330.56 0.16034
-62.625 5006.6 undefined 37.535 92.327 0.31413 630.00 0.0015873 37.535 92.327 0.31413 1.4346 2.0852 1514.2 -0.0066633 329.92 0.16052 630.00 0.0015873 37.535 92.327 0.31413 1.4346 2.0852 1514.2 -0.0066633 329.92 0.16052
-61.625 5208.2 undefined 38.971 95.969 0.32093 630.00 0.0015873 38.971 95.969 0.32093 1.4377 2.0858 1516.4 -0.0066668 329.28 0.16070 630.00 0.0015873 38.971 95.969 0.32093 1.4377 2.0858 1516.4 -0.0066668 329.28 0.16070
-60.625 5409.3 undefined 40.410 99.610 0.32772 630.00 0.0015873 40.410 99.610 0.32772 1.4408 2.0865 1518.6 -0.0066700 328.65 0.16088 630.00 0.0015873 40.410 99.610 0.32772 1.4408 2.0865 1518.6 -0.0066700 328.65 0.16088
-59.625 5610.1 undefined 41.852 103.25 0.33449 630.00 0.0015873 41.852 103.25 0.33449 1.4439 2.0871 1520.7 -0.0066730 328.03 0.16106 630.00 0.0015873 41.852 103.25 0.33449 1.4439 2.0871 1520.7 -0.0066730 328.03 0.16106
-58.625 5810.5 undefined 43.298 106.89 0.34124 630.00 0.0015873 43.298 106.89 0.34124 1.4471 2.0879 1522.9 -0.0066758 327.42 0.16124 630.00 0.0015873 43.298 106.89 0.34124 1.4471 2.0879 1522.9 -0.0066758 327.42 0.16124
-57.625 6010.6 undefined 44.746 110.53 0.34798 630.00 0.0015873 44.746 110.53 0.34798 1.4503 2.0887 1525.0 -0.0066784 326.81 0.16141 630.00 0.0015873 44.746 110.53 0.34798 1.4503 2.0887 1525.0 -0.0066784 326.81 0.16141
-56.625 6210.2 undefined 46.198 114.16 0.35470 630.00 0.0015873 46.198 114.16 0.35470 1.4534 2.0895 1527.1 -0.0066808 326.21 0.16159 630.00 0.0015873 46.198 114.16 0.35470 1.4534 2.0895 1527.1 -0.0066808 326.21 0.16159
-55.625 6409.5 undefined 47.653 117.80 0.36141 630.00 0.0015873 47.653 117.80 0.36141 1.4566 2.0904 1529.3 -0.0066829 325.62 0.16177 630.00 0.0015873 47.653 117.80 0.36141 1.4566 2.0904 1529.3 -0.0066829 325.62 0.16177
-54.625 6608.4 undefined 49.112 121.43 0.36810 630.00 0.0015873 49.112 121.43 0.36810 1.4598 2.0913 1531.4 -0.0066849 325.04 0.16195 630.00 0.0015873 49.112 121.43 0.36810 1.4598 2.0913 1531.4 -0.0066849 325.04 0.16195
-53.625 6807.0 undefined 50.573 125.07 0.37477 630.00 0.0015873 50.573 125.07 0.37477 1.4631 2.0922 1533.4 -0.0066866 324.46 0.16213 630.00 0.0015873 50.573 125.07 0.37477 1.4631 2.0922 1533.4 -0.0066866 324.46 0.16213
-52.625 7005.1 undefined 52.038 128.70 0.38142 630.00 0.0015873 52.038 128.70 0.38142 1.4663 2.0932 1535.5 -0.0066881 323.89 0.16231 630.00 0.0015873 52.038 128.70 0.38142 1.4663 2.0932 1535.5 -0.0066881 323.89 0.16231
-51.625 7203.0 undefined 53.506 132.34 0.38807 630.00 0.0015873 53.506 132.34 0.38807 1.4696 2.0943 1537.6 -0.0066895 323.33 0.16249 630.00 0.0015873 53.506 132.34 0.38807 1.4696 2.0943 1537.6 -0.0066895 323.33 0.16249
-50.625 7400.4 undefined 54.977 135.97 0.39469 630.00 0.0015873 54.977 135.97 0.39469 1.4728 2.0954 1539.6 -0.0066906 322.77 0.16268 630.00 0.0015873 54.977 135.97 0.39469 1.4728 2.0954 1539.6 -0.0066906 322.77 0.16268
-49.625 7597.5 undefined 56.451 139.60 0.40130 630.00 0.0015873 56.451 139.60 0.40130 1.4761 2.0965 1541.7 -0.0066916 322.22 0.16286 630.00 0.0015873 56.451 139.60 0.40130 1.4761 2.0965 1541.7 -0.0066916 322.22 0.16286
-48.625 7794.2 undefined 57.929 143.23 0.40790 630.00 0.0015873 57.929 143.23 0.40790 1.4794 2.0976 1543.7 -0.0066923 321.68 0.16304 630.00 0.0015873 57.929 143.23 0.40790 1.4794 2.0976 1543.7 -0.0066923 321.68 0.16304
-47.625 7990.6 undefined 59.410 146.86 0.41448 630.00 0.0015873 59.410 146.86 0.41448 1.4828 2.0988 1545.7 -0.0066929 321.15 0.16322 630.00 0.0015873 59.410 146.86 0.41448 1.4828 2.0988 1545.7 -0.0066929 321.15 0.16322
-46.625 8186.7 undefined 60.895 150.49 0.42105 630.00 0.0015873 60.895 150.49 0.42105 1.4861 2.1001 1547.7 -0.0066933 320.62 0.16340 630.00 0.0015873 60.895 150.49 0.42105 1.4861 2.1001 1547.7 -0.0066933 320.62 0.16340
-45.625 8382.3 undefined 62.383 154.12 0.42760 630.00 0.0015873 62.383 154.12 0.42760 1.4895 2.1014 1549.7 -0.0066935 320.09 0.16359 630.00 0.0015873 62.383 154.12 0.42760 1.4895 2.1014 1549.7 -0.0066935 320.09 0.16359
-44.625 8577.7 undefined 63.874 157.75 0.43414 630.00 0.0015873 63.874 157.75 0.43414 1.4928 2.1027 1551.6 -0.0066936 319.58 0.16377 630.00 0.0015873 63.874 157.75 0.43414 1.4928 2.1027 1551.6 -0.0066936 319.58 0.16377
-43.625 8772.6 undefined 65.368 161.38 0.44067 630.00 0.0015873 65.368 161.38 0.44067 1.4962 2.1040 1553.6 -0.0066934 319.07 0.16395 630.00 0.0015873 65.368 161.38 0.44067 1.4962 2.1040 1553.6 -0.0066934 319.07 0.16395
-42.625 8967.3 undefined 66.866 165.00 0.44718 630.00 0.0015873 66.866 165.00 0.44718 1.4996 2.1054 1555.5 -0.0066931 318.56 0.16413 630.00 0.0015873 66.866 165.00 0.44718 1.4996 2.1054 1555.5 -0.0066931 318.56 0.16413
-41.625 9161.6 undefined 68.367 168.63 0.45368 630.00 0.0015873 68.367 168.63 0.45368 1.5030 2.1068 1557.5 -0.0066927 318.07 0.16432 630.00 0.0015873 68.367 168.63 0.45368 1.5030 2.1068 1557.5 -0.0066927 318.07 0.16432
-40.625 9355.5 undefined 69.872 172.26 0.46016 630.00 0.0015873 69.872 172.26 0.46016 1.5065 2.1083 1559.4 -0.0066920 317.57 0.16450 630.00 0.0015873 69.872 172.26 0.46016 1.5065 2.1083 1559.4 -0.0066920 317.57 0.16450
-39.625 9549.1 undefined 71.380 175.89 0.46664 630.00 0.0015873 71.380 175.89 0.46664 1.5099 2.1098 1561.3 -0.0066912 317.09 0.16469 630.00 0.0015873 71.380 175.89 0.46664 1.5099 2.1098 1561.3 -0.0066912 317.09 0.16469
-38.625 9742.4 undefined 72.892 179.51 0.47310 630.00 0.0015873 72.892 179.51 0.47310 1.5134 2.1113 1563.2 -0.0066902 316.61 0.16487 630.00 0.0015873 72.892 179.51 0.47310 1.5134 2.1113 1563.2 -0.0066902 316.61 0.16487
-37.625 9935.3 undefined 74.407 183.14 0.47954 630.00 0.0015873 74.407 183.14 0.47954 1.5169 2.1129 1565.1 -0.0066891 316.13 0.16506 630.00 0.0015873 74.407 183.14 0.47954 1.5169 2.1129 1565.1 -0.0066891 316.13 0.16506
-36.625 10128. undefined 75.926 186.77 0.48598 630.00 0.0015873 75.926 186.77 0.48598 1.5204 2.1145 1567.0 -0.0066879 315.66 0.16524 630.00 0.0015873 75.926 186.77 0.48598 1.5204 2.1145 1567.0 -0.0066879 315.66 0.16524
-35.625 10320. undefined 77.448 190.39 0.49240 630.00 0.0015873 77.448 190.39 0.49240 1.5239 2.1162 1568.8 -0.0066864 315.20 0.16543 630.00 0.0015873 77.448 190.39 0.49240 1.5239 2.1162 1568.8 -0.0066864 315.20 0.16543
-34.625 10512. undefined 78.974 194.02 0.49881 630.00 0.0015873 78.974 194.02 0.49881 1.5274 2.1178 1570.7 -0.0066848 314.74 0.16561 630.00 0.0015873 78.974 194.02 0.49881 1.5274 2.1178 1570.7 -0.0066848 314.74 0.16561
-33.625 10704. undefined 80.503 197.64 0.50521 630.00 0.0015873 80.503 197.64 0.50521 1.5310 2.1195 1572.5 -0.0066831 314.29 0.16580 630.00 0.0015873 80.503 197.64 0.50521 1.5310 2.1195 1572.5 -0.0066831 314.29 0.16580
-32.625 10895. undefined 82.036 201.27 0.51159 630.00 0.0015873 82.036 201.27 0.51159 1.5345 2.1213 1574.4 -0.0066813 313.84 0.16599 630.00 0.0015873 82.036 201.27 0.51159 1.5345 2.1213 1574.4 -0.0066813 313.84 0.16599
-31.625 11086. undefined 83.572 204.90 0.51797 630.00 0.0015873 83.572 204.90 0.51797 1.5381 2.1230 1576.2 -0.0066792 313.40 0.16617 630.00 0.0015873 83.572 204.90 0.51797 1.5381 2.1230 1576.2 -0.0066792 313.40 0.16617
-30.625 11276. undefined 85.112 208.52 0.52433 630.00 0.0015873 85.112 208.52 0.52433 1.5417 2.1248 1578.0 -0.0066771 312.96 0.16636 630.00 0.0015873 85.112 208.52 0.52433 1.5417 2.1248 1578.0 -0.0066771 312.96 0.16636
-29.625 11467. undefined 86.655 212.15 0.53068 630.00 0.0015873 86.655 212.15 0.53068 1.5453 2.1267 1579.8 -0.0066748 312.53 0.16655 630.00 0.0015873 86.655 212.15 0.53068 1.5453 2.1267 1579.8 -0.0066748 312.53 0.16655
-28.625 11657. undefined 88.203 215.77 0.53702 630.00 0.0015873 88.203 215.77 0.53702 1.5489 2.1286 1581.6 -0.0066724 312.10 0.16673 630.00 0.0015873 88.203 215.77 0.53702 1.5489 2.1286 1581.6 -0.0066724 312.10 0.16673
-27.625 11846. undefined 89.753 219.40 0.54335 630.00 0.0015873 89.753 219.40 0.54335 1.5526 2.1305 1583.4 -0.0066698 311.68 0.16692 630.00 0.0015873 89.753 219.40 0.54335 1.5526 2.1305 1583.4 -0.0066698 311.68 0.16692
-26.625 12036. undefined 91.308 223.03 0.54967 630.00 0.0015873 91.308 223.03 0.54967 1.5562 2.1324 1585.1 -0.0066671 311.26 0.16711 630.00 0.0015873 91.308 223.03 0.54967 1.5562 2.1324 1585.1 -0.0066671 311.26 0.16711
-25.625 12225. undefined 92.866 226.65 0.55597 630.00 0.0015873 92.866 226.65 0.55597 1.5599 2.1343 1586.9 -0.0066643 310.85 0.16730 630.00 0.0015873 92.866 226.65 0.55597 1.5599 2.1343 1586.9 -0.0066643 310.85 0.16730
-24.625 12413. undefined 94.428 230.28 0.56227 630.00 0.0015873 94.428 230.28 0.56227 1.5636 2.1363 1588.6 -0.0066613 310.44 0.16749 630.00 0.0015873 94.428 230.28 0.56227 1.5636 2.1363 1588.6 -0.0066613 310.44 0.16749
-23.625 12602. undefined 95.993 233.91 0.56856 630.00 0.0015873 95.993 233.91 0.56856 1.5673 2.1384 1590.4 -0.0066583 310.04 0.16768 630.00 0.0015873 95.993 233.91 0.56856 1.5673 2.1384 1590.4 -0.0066583 310.04 0.16768
-22.625 12790. undefined 97.562 237.53 0.57483 630.00 0.0015873 97.562 237.53 0.57483 1.5710 2.1404 1592.1 -0.0066551 309.64 0.16787 630.00 0.0015873 97.562 237.53 0.57483 1.5710 2.1404 1592.1 -0.0066551 309.64 0.16787
-21.625 12978. undefined 99.135 241.16 0.58110 630.00 0.0015873 99.135 241.16 0.58110 1.5747 2.1425 1593.8 -0.0066518 309.24 0.16805 630.00 0.0015873 99.135 241.16 0.58110 1.5747 2.1425 1593.8 -0.0066518 309.24 0.16805
-20.625 13165. undefined 100.71 244.79 0.58736 630.00 0.0015873 100.71 244.79 0.58736 1.5785 2.1446 1595.5 -0.0066483 308.85 0.16824 630.00 0.0015873 100.71 244.79 0.58736 1.5785 2.1446 1595.5 -0.0066483 308.85 0.16824
-19.625 13352. undefined 102.29 248.42 0.59360 630.00 0.0015873 102.29 248.42 0.59360 1.5822 2.1467 1597.3 -0.0066448 308.47 0.16843 630.00 0.0015873 102.29 248.42 0.59360 1.5822 2.1467 1597.3 -0.0066448 308.47 0.16843
-18.625 13539. undefined 103.88 252.05 0.59984 630.00 0.0015873 103.88 252.05 0.59984 1.5860 2.1489 1598.9 -0.0066411 308.09 0.16863 630.00 0.0015873 103.88 252.05 0.59984 1.5860 2.1489 1598.9 -0.0066411 308.09 0.16863
-17.625 13725. undefined 105.46 255.68 0.60606 630.00 0.0015873 105.46 255.68 0.60606 1.5898 2.1511 1600.6 -0.0066373 307.71 0.16882 630.00 0.0015873 105.46 255.68 0.60606 1.5898 2.1511 1600.6 -0.0066373 307.71 0.16882
-16.625 13912. undefined 107.06 259.30 0.61228 630.00 0.0015873 107.06 259.30 0.61228 1.5936 2.1533 1602.3 -0.0066335 307.34 0.16901 630.00 0.0015873 107.06 259.30 0.61228 1.5936 2.1533 1602.3 -0.0066335 307.34 0.16901
-15.625 14097. undefined 108.65 262.93 0.61849 630.00 0.0015873 108.65 262.93 0.61849 1.5974 2.1556 1604.0 -0.0066295 306.97 0.16920 630.00 0.0015873 108.65 262.93 0.61849 1.5974 2.1556 1604.0 -0.0066295 306.97 0.16920
-14.625 14283. undefined 110.25 266.57 0.62469 630.00 0.0015873 110.25 266.57 0.62469 1.6012 2.1578 1605.6 -0.0066254 306.60 0.16939 630.00 0.0015873 110.25 266.57 0.62469 1.6012 2.1578 1605.6 -0.0066254 306.60 0.16939
-13.625 14468. undefined 111.85 270.20 0.63088 630.00 0.0015873 111.85 270.20 0.63088 1.6050 2.1601 1607.3 -0.0066212 306.24 0.16958 630.00 0.0015873 111.85 270.20 0.63088 1.6050 2.1601 1607.3 -0.0066212 306.24 0.16958
-12.625 14653. undefined 113.46 273.83 0.63706 630.00 0.0015873 113.46 273.83 0.63706 1.6089 2.1625 1608.9 -0.0066169 305.89 0.16977 630.00 0.0015873 113.46 273.83 0.63706 1.6089 2.1625 1608.9 -0.0066169 305.89 0.16977
-11.625 14838. undefined 115.07 277.46 0.64323 630.00 0.0015873 115.07 277.46 0.64323 1.6127 2.1648 1610.6 -0.0066125 305.54 0.16997 630.00 0.0015873 115.07 277.46 0.64323 1.6127 2.1648 1610.6 -0.0066125 305.54 0.16997
-10.625 15022. undefined 116.69 281.09 0.64939 630.00 0.0015873 116.69 281.09 0.64939 1.6166 2.1672 1612.2 -0.0066080 305.19 0.17016 630.00 0.0015873 116.69 281.09 0.64939 1.6166 2.1672 1612.2 -0.0066080 305.19 0.17016
-9.6250 15207. undefined 118.30 284.73 0.65554 630.00 0.0015873 118.30 284.73 0.65554 1.6205 2.1696 1613.8 -0.0066034 304.84 0.17035 630.00 0.0015873 118.30 284.73 0.65554 1.6205 2.1696 1613.8 -0.0066034 304.84 0.17035
-8.6250 15390. undefined 119.93 288.36 0.66169 630.00 0.0015873 119.93 288.36 0.66169 1.6244 2.1720 1615.4 -0.0065987 304.50 0.17055 630.00 0.0015873 119.93 288.36 0.66169 1.6244 2.1720 1615.4 -0.0065987 304.50 0.17055
-7.6250 15574. undefined 121.55 292.00 0.66782 630.00 0.0015873 121.55 292.00 0.66782 1.6283 2.1745 1617.1 -0.0065939 304.17 0.17074 630.00 0.0015873 121.55 292.00 0.66782 1.6283 2.1745 1617.1 -0.0065939 304.17 0.17074
-6.6250 15757. undefined 123.18 295.63 0.67395 630.00 0.0015873 123.18 295.63 0.67395 1.6322 2.1769 1618.7 -0.0065890 303.83 0.17093 630.00 0.0015873 123.18 295.63 0.67395 1.6322 2.1769 1618.7 -0.0065890 303.83 0.17093
-5.6250 15940. undefined 124.82 299.27 0.68007 630.00 0.0015873 124.82 299.27 0.68007 1.6362 2.1794 1620.2 -0.0065841 303.50 0.17113 630.00 0.0015873 124.82 299.27 0.68007 1.6362 2.1794 1620.2 -0.0065841 303.50 0.17113
-4.6250 16123. undefined 126.46 302.90 0.68618 630.00 0.0015873 126.46 302.90 0.68618 1.6401 2.1820 1621.8 -0.0065790 303.18 0.17132 630.00 0.0015873 126.46 302.90 0.68618 1.6401 2.1820 1621.8 -0.0065790 303.18 0.17132
-3.6250 16305. undefined 128.10 306.54 0.69229 630.00 0.0015873 128.10 306.54 0.69229 1.6440 2.1845 1623.4 -0.0065739 302.85 0.17152 630.00 0.0015873 128.10 306.54 0.69229 1.6440 2.1845 1623.4 -0.0065739 302.85 0.17152
-2.6250 16487. undefined 129.74 310.18 0.69838 630.00 0.0015873 129.74 310.18 0.69838 1.6480 2.1871 1625.0 -0.0065687 302.54 0.17171 630.00 0.0015873 129.74 310.18 0.69838 1.6480 2.1871 1625.0 -0.0065687 302.54 0.17171
-1.6250 16669. undefined 131.39 313.82 0.70447 630.00 0.0015873 131.39 313.82 0.70447 1.6520 2.1897 1626.5 -0.0065634 302.22 0.17191 630.00 0.0015873 131.39 313.82 0.70447 1.6520 2.1897 1626.5 -0.0065634 302.22 0.17191
-0.62500 16851. undefined 133.05 317.46 0.71055 630.00 0.0015873 133.05 317.46 0.71055 1.6560 2.1923 1628.1 -0.0065580 301.91 0.17210 630.00 0.0015873 133.05 317.46 0.71055 1.6560 2.1923 1628.1 -0.0065580 301.91 0.17210
0.37500 17032. undefined 134.71 321.10 0.71662 630.00 0.0015873 134.71 321.10 0.71662 1.6600 2.1949 1629.7 -0.0065526 301.60 0.17230 630.00 0.0015873 134.71 321.10 0.71662 1.6600 2.1949 1629.7 -0.0065526 301.60 0.17230
1.3750 17213. undefined 136.37 324.74 0.72269 630.00 0.0015873 136.37 324.74 0.72269 1.6640 2.1976 1631.2 -0.0065470 301.29 0.17250 630.00 0.0015873 136.37 324.74 0.72269 1.6640 2.1976 1631.2 -0.0065470 301.29 0.17250
2.3750 17393. undefined 138.03 328.39 0.72875 630.00 0.0015873 138.03 328.39 0.72875 1.6680 2.2002 1632.7 -0.0065414 300.99 0.17269 630.00 0.0015873 138.03 328.39 0.72875 1.6680 2.2002 1632.7 -0.0065414 300.99 0.17269
3.3750 17574. undefined 139.70 332.03 0.73480 630.00 0.0015873 139.70 332.03 0.73480 1.6720 2.2029 1634.3 -0.0065358 300.69 0.17289 630.00 0.0015873 139.70 332.03 0.73480 1.6720 2.2029 1634.3 -0.0065358 300.69 0.17289
4.3750 17754. undefined 141.38 335.68 0.74084 630.00 0.0015873 141.38 335.68 0.74084 1.6761 2.2057 1635.8 -0.0065300 300.40 0.17309 630.00 0.0015873 141.38 335.68 0.74084 1.6761 2.2057 1635.8 -0.0065300 300.40 0.17309
5.3750 17934. undefined 143.06 339.32 0.74688 630.00 0.0015873 143.06 339.32 0.74688 1.6801 2.2084 1637.3 -0.0065242 300.11 0.17328 630.00 0.0015873 143.06 339.32 0.74688 1.6801 2.2084 1637.3 -0.0065242 300.11 0.17328
6.3750 18113. undefined 144.74 342.97 0.75290 630.00 0.0015873 144.74 342.97 0.75290 1.6842 2.2112 1638.8 -0.0065183 299.82 0.17348 630.00 0.0015873 144.74 342.97 0.75290 1.6842 2.2112 1638.8 -0.0065183 299.82 0.17348
7.3750 18293. undefined 146.42 346.62 0.75893 630.00 0.0015873 146.42 346.62 0.75893 1.6882 2.2139 1640.3 -0.0065124 299.53 0.17368 630.00 0.0015873 146.42 346.62 0.75893 1.6882 2.2139 1640.3 -0.0065124 299.53 0.17368
8.3750 18472. undefined 148.11 350.27 0.76494 630.00 0.0015873 148.11 350.27 0.76494 1.6923 2.2167 1641.8 -0.0065064 299.25 0.17388 630.00 0.0015873 148.11 350.27 0.76494 1.6923 2.2167 1641.8 -0.0065064 299.25 0.17388
9.3750 18650. undefined 149.81 353.92 0.77095 630.00 0.0015873 149.81 353.92 0.77095 1.6964 2.2195 1643.3 -0.0065003 298.97 0.17408 630.00 0.0015873 149.81 353.92 0.77095 1.6964 2.2195 1643.3 -0.0065003 298.97 0.17408
10.375 18829. undefined 151.51 357.57 0.77695 630.00 0.0015873 151.51 357.57 0.77695 1.7005 2.2224 1644.8 -0.0064942 298.69 0.17428 630.00 0.0015873 151.51 357.57 0.77695 1.7005 2.2224 1644.8 -0.0064942 298.69 0.17428
11.375 19007. undefined 153.21 361.23 0.78294 630.00 0.0015873 153.21 361.23 0.78294 1.7046 2.2252 1646.3 -0.0064880 298.41 0.17447 630.00 0.0015873 153.21 361.23 0.78294 1.7046 2.2252 1646.3 -0.0064880 298.41 0.17447
12.375 19185. undefined 154.92 364.88 0.78893 630.00 0.0015873 154.92 364.88 0.78893 1.7087 2.2281 1647.8 -0.0064817 298.14 0.17467 630.00 0.0015873 154.92 364.88 0.78893 1.7087 2.2281 1647.8 -0.0064817 298.14 0.17467
13.375 19363. undefined 156.63 368.54 0.79491 630.00 0.0015873 156.63 368.54 0.79491 1.7128 2.2310 1649.3 -0.0064754 297.87 0.17487 630.00 0.0015873 156.63 368.54 0.79491 1.7128 2.2310 1649.3 -0.0064754 297.87 0.17487
14.375 19540. undefined 158.34 372.19 0.80089 630.00 0.0015873 158.34 372.19 0.80089 1.7169 2.2339 1650.7 -0.0064690 297.61 0.17507 630.00 0.0015873 158.34 372.19 0.80089 1.7169 2.2339 1650.7 -0.0064690 297.61 0.17507
15.375 19718. undefined 160.06 375.85 0.80685 630.00 0.0015873 160.06 375.85 0.80685 1.7210 2.2368 1652.2 -0.0064626 297.34 0.17527 630.00 0.0015873 160.06 375.85 0.80685 1.7210 2.2368 1652.2 -0.0064626 297.34 0.17527
16.375 19894. undefined 161.78 379.51 0.81282 630.00 0.0015873 161.78 379.51 0.81282 1.7252 2.2398 1653.7 -0.0064562 297.08 0.17548 630.00 0.0015873 161.78 379.51 0.81282 1.7252 2.2398 1653.7 -0.0064562 297.08 0.17548
17.375 20071. undefined 163.51 383.17 0.81877 630.00 0.0015873 163.51 383.17 0.81877 1.7293 2.2427 1655.1 -0.0064496 296.83 0.17568 630.00 0.0015873 163.51 383.17 0.81877 1.7293 2.2427 1655.1 -0.0064496 296.83 0.17568
18.375 20248. undefined 165.24 386.83 0.82472 630.00 0.0015873 165.24 386.83 0.82472 1.7335 2.2457 1656.6 -0.0064431 296.57 0.17588 630.00 0.0015873 165.24 386.83 0.82472 1.7335 2.2457 1656.6 -0.0064431 296.57 0.17588
19.375 20424. undefined 166.98 390.50 0.83066 630.00 0.0015873 166.98 390.50 0.83066 1.7376 2.2487 1658.0 -0.0064364 296.32 0.17608 630.00 0.0015873 166.98 390.50 0.83066 1.7376 2.2487 1658.0 -0.0064364 296.32 0.17608
20.375 20600. undefined 168.72 394.16 0.83660 630.00 0.0015873 168.72 394.16 0.83660 1.7418 2.2517 1659.5 -0.0064298 296.07 0.17628 630.00 0.0015873 168.72 394.16 0.83660 1.7418 2.2517 1659.5 -0.0064298 296.07 0.17628
21.375 20775. undefined 170.46 397.83 0.84253 630.00 0.0015873 170.46 397.83 0.84253 1.7460 2.2547 1660.9 -0.0064230 295.82 0.17648 630.00 0.0015873 170.46 397.83 0.84253 1.7460 2.2547 1660.9 -0.0064230 295.82 0.17648
22.375 20951. undefined 172.21 401.49 0.84846 630.00 0.0015873 172.21 401.49 0.84846 1.7502 2.2577 1662.3 -0.0064163 295.58 0.17669 630.00 0.0015873 172.21 401.49 0.84846 1.7502 2.2577 1662.3 -0.0064163 295.58 0.17669
23.375 21126. undefined 173.96 405.16 0.85438 630.00 0.0015873 173.96 405.16 0.85438 1.7543 2.2608 1663.8 -0.0064095 295.33 0.17689 630.00 0.0015873 173.96 405.16 0.85438 1.7543 2.2608 1663.8 -0.0064095 295.33 0.17689
24.375 21301. undefined 175.72 408.83 0.86029 630.00 0.0015873 175.72 408.83 0.86029 1.7585 2.2639 1665.2 -0.0064026 295.09 0.17709 630.00 0.0015873 175.72 408.83 0.86029 1.7585 2.2639 1665.2 -0.0064026 295.09 0.17709
25.375 21475. undefined 177.48 412.51 0.86620 630.00 0.0015873 177.48 412.51 0.86620 1.7627 2.2669 1666.6 -0.0063957 294.86 0.17729 630.00 0.0015873 177.48 412.51 0.86620 1.7627 2.2669 1666.6 -0.0063957 294.86 0.17729
26.375 21650. undefined 179.24 416.18 0.87210 630.00 0.0015873 179.24 416.18 0.87210 1.7669 2.2700 1668.0 -0.0063888 294.62 0.17750 630.00 0.0015873 179.24 416.18 0.87210 1.7669 2.2700 1668.0 -0.0063888 294.62 0.17750
27.375 21824. undefined 181.01 419.85 0.87800 630.00 0.0015873 181.01 419.85 0.87800 1.7712 2.2732 1669.4 -0.0063819 294.39 0.17770 630.00 0.0015873 181.01 419.85 0.87800 1.7712 2.2732 1669.4 -0.0063819 294.39 0.17770
28.375 21998. undefined 182.79 423.53 0.88389 630.00 0.0015873 182.79 423.53 0.88389 1.7754 2.2763 1670.8 -0.0063748 294.16 0.17791 630.00 0.0015873 182.79 423.53 0.88389 1.7754 2.2763 1670.8 -0.0063748 294.16 0.17791
29.375 22171. undefined 184.56 427.21 0.88977 630.00 0.0015873 184.56 427.21 0.88977 1.7796 2.2794 1672.2 -0.0063678 293.93 0.17811 630.00 0.0015873 184.56 427.21 0.88977 1.7796 2.2794 1672.2 -0.0063678 293.93 0.17811
30.375 22345. undefined 186.35 430.89 0.89565 630.00 0.0015873 186.35 430.89 0.89565 1.7838 2.2826 1673.6 -0.0063607 293.71 0.17832 630.00 0.0015873 186.35 430.89 0.89565 1.7838 2.2826 1673.6 -0.0063607 293.71 0.17832
31.375 22518. undefined 188.13 434.57 0.90153 630.00 0.0015873 188.13 434.57 0.90153 1.7881 2.2857 1675.0 -0.0063536 293.48 0.17852 630.00 0.0015873 188.13 434.57 0.90153 1.7881 2.2857 1675.0 -0.0063536 293.48 0.17852
32.375 22691. undefined 189.92 438.25 0.90740 630.00 0.0015873 189.92 438.25 0.90740 1.7923 2.2889 1676.4 -0.0063465 293.26 0.17873 630.00 0.0015873 189.92 438.25 0.90740 1.7923 2.2889 1676.4 -0.0063465 293.26 0.17873
33.375 22864. undefined 191.72 441.94 0.91326 630.00 0.0015873 191.72 441.94 0.91326 1.7965 2.2921 1677.8 -0.0063393 293.04 0.17893 630.00 0.0015873 191.72 441.94 0.91326 1.7965 2.2921 1677.8 -0.0063393 293.04 0.17893
34.375 23036. undefined 193.51 445.62 0.91912 630.00 0.0015873 193.51 445.62 0.91912 1.8008 2.2953 1679.1 -0.0063321 292.83 0.17914 630.00 0.0015873 193.51 445.62 0.91912 1.8008 2.2953 1679.1 -0.0063321 292.83 0.17914
35.375 23208. undefined 195.32 449.31 0.92497 630.00 0.0015873 195.32 449.31 0.92497 1.8050 2.2985 1680.5 -0.0063249 292.61 0.17934 630.00 0.0015873 195.32 449.31 0.92497 1.8050 2.2985 1680.5 -0.0063249 292.61 0.17934
36.375 23380. undefined 197.12 453.00 0.93082 630.00 0.0015873 197.12 453.00 0.93082 1.8093 2.3018 1681.9 -0.0063176 292.40 0.17955 630.00 0.0015873 197.12 453.00 0.93082 1.8093 2.3018 1681.9 -0.0063176 292.40 0.17955
37.375 23552. undefined 198.94 456.69 0.93666 630.00 0.0015873 198.94 456.69 0.93666 1.8136 2.3050 1683.3 -0.0063103 292.19 0.17976 630.00 0.0015873 198.94 456.69 0.93666 1.8136 2.3050 1683.3 -0.0063103 292.19 0.17976
38.375 23724. undefined 200.75 460.38 0.94250 630.00 0.0015873 200.75 460.38 0.94250 1.8178 2.3082 1684.6 -0.0063030 291.98 0.17996 630.00 0.0015873 200.75 460.38 0.94250 1.8178 2.3082 1684.6 -0.0063030 291.98 0.17996
39.375 23895. undefined 202.57 464.08 0.94833 630.00 0.0015873 202.57 464.08 0.94833 1.8221 2.3115 1686.0 -0.0062957 291.78 0.18017 630.00 0.0015873 202.57 464.08 0.94833 1.8221 2.3115 1686.0 -0.0062957 291.78 0.18017
40.375 24066. undefined 204.40 467.77 0.95416 630.00 0.0015873 204.40 467.77 0.95416 1.8264 2.3148 1687.3 -0.0062883 291.57 0.18038 630.00 0.0015873 204.40 467.77 0.95416 1.8264 2.3148 1687.3 -0.0062883 291.57 0.18038
41.375 24237. undefined 206.22 471.47 0.95998 630.00 0.0015873 206.22 471.47 0.95998 1.8307 2.3181 1688.7 -0.0062809 291.37 0.18059 630.00 0.0015873 206.22 471.47 0.95998 1.8307 2.3181 1688.7 -0.0062809 291.37 0.18059
42.375 24407. undefined 208.06 475.17 0.96580 630.00 0.0015873 208.06 475.17 0.96580 1.8349 2.3214 1690.0 -0.0062735 291.17 0.18080 630.00 0.0015873 208.06 475.17 0.96580 1.8349 2.3214 1690.0 -0.0062735 291.17 0.18080
43.375 24578. undefined 209.89 478.87 0.97161 630.00 0.0015873 209.89 478.87 0.97161 1.8392 2.3247 1691.4 -0.0062661 290.97 0.18100 630.00 0.0015873 209.89 478.87 0.97161 1.8392 2.3247 1691.4 -0.0062661 290.97 0.18100
44.375 24748. undefined 211.74 482.58 0.97742 630.00 0.0015873 211.74 482.58 0.97742 1.8435 2.3280 1692.7 -0.0062586 290.78 0.18121 630.00 0.0015873 211.74 482.58 0.97742 1.8435 2.3280 1692.7 -0.0062586 290.78 0.18121
45.375 24918. undefined 213.58 486.28 0.98323 630.00 0.0015873 213.58 486.28 0.98323 1.8478 2.3313 1694.0 -0.0062511 290.58 0.18142 630.00 0.0015873 213.58 486.28 0.98323 1.8478 2.3313 1694.0 -0.0062511 290.58 0.18142
46.375 25087. undefined 215.43 489.99 0.98902 630.00 0.0015873 215.43 489.99 0.98902 1.8521 2.3346 1695.4 -0.0062437 290.39 0.18163 630.00 0.0015873 215.43 489.99 0.98902 1.8521 2.3346 1695.4 -0.0062437 290.39 0.18163
47.375 25257. undefined 217.29 493.70 0.99482 630.00 0.0015873 217.29 493.70 0.99482 1.8564 2.3380 1696.7 -0.0062361 290.20 0.18184 630.00 0.0015873 217.29 493.70 0.99482 1.8564 2.3380 1696.7 -0.0062361 290.20 0.18184
48.375 25426. undefined 219.14 497.41 1.0006 630.00 0.0015873 219.14 497.41 1.0006 1.8607 2.3414 1698.0 -0.0062286 290.01 0.18205 630.00 0.0015873 219.14 497.41 1.0006 1.8607 2.3414 1698.0 -0.0062286 290.01 0.18205
49.375 25595. undefined 221.01 501.12 1.0064 630.00 0.0015873 221.01 501.12 1.0064 1.8650 2.3447 1699.4 -0.0062211 289.82 0.18226 630.00 0.0015873 221.01 501.12 1.0064 1.8650 2.3447 1699.4 -0.0062211 289.82 0.18226
50.375 25764. undefined 222.87 504.83 1.0122 630.00 0.0015873 222.87 504.83 1.0122 1.8693 2.3481 1700.7 -0.0062135 289.64 0.18247 630.00 0.0015873 222.87 504.83 1.0122 1.8693 2.3481 1700.7 -0.0062135 289.64 0.18247
51.375 25932. undefined 224.75 508.55 1.0179 630.00 0.0015873 224.75 508.55 1.0179 1.8736 2.3515 1702.0 -0.0062059 289.45 0.18268 630.00 0.0015873 224.75 508.55 1.0179 1.8736 2.3515 1702.0 -0.0062059 289.45 0.18268
52.375 26101. undefined 226.62 512.27 1.0237 630.00 0.0015873 226.62 512.27 1.0237 1.8779 2.3549 1703.3 -0.0061983 289.27 0.18290 630.00 0.0015873 226.62 512.27 1.0237 1.8779 2.3549 1703.3 -0.0061983 289.27 0.18290
53.375 26269. undefined 228.50 515.99 1.0295 630.00 0.0015873 228.50 515.99 1.0295 1.8822 2.3583 1704.6 -0.0061907 289.09 0.18311 630.00 0.0015873 228.50 515.99 1.0295 1.8822 2.3583 1704.6 -0.0061907 289.09 0.18311
54.375 26437. undefined 230.39 519.71 1.0352 630.00 0.0015873 230.39 519.71 1.0352 1.8866 2.3617 1705.9 -0.0061831 288.92 0.18332 630.00 0.0015873 230.39 519.71 1.0352 1.8866 2.3617 1705.9 -0.0061831 288.92 0.18332
55.375 26604. undefined 232.27 523.43 1.0410 630.00 0.0015873 232.27 523.43 1.0410 1.8909 2.3651 1707.2 -0.0061755 288.74 0.18353 630.00 0.0015873 232.27 523.43 1.0410 1.8909 2.3651 1707.2 -0.0061755 288.74 0.18353
56.375 26772. undefined 234.17 527.16 1.0468 630.00 0.0015873 234.17 527.16 1.0468 1.8952 2.3685 1708.5 -0.0061679 288.57 0.18374 630.00 0.0015873 234.17 527.16 1.0468 1.8952 2.3685 1708.5 -0.0061679 288.57 0.18374
57.375 26939. undefined 236.07 530.89 1.0525 630.00 0.0015873 236.07 530.89 1.0525 1.8995 2.3720 1709.8 -0.0061602 288.39 0.18396 630.00 0.0015873 236.07 530.89 1.0525 1.8995 2.3720 1709.8 -0.0061602 288.39 0.18396
58.375 27106. undefined 237.97 534.62 1.0583 630.00 0.0015873 237.97 534.62 1.0583 1.9039 2.3754 1711.1 -0.0061526 288.22 0.18417 630.00 0.0015873 237.97 534.62 1.0583 1.9039 2.3754 1711.1 -0.0061526 288.22 0.18417
59.375 27273. undefined 239.87 538.35 1.0640 630.00 0.0015873 239.87 538.35 1.0640 1.9082 2.3789 1712.4 -0.0061449 288.05 0.18438 630.00 0.0015873 239.87 538.35 1.0640 1.9082 2.3789 1712.4 -0.0061449 288.05 0.18438
60.375 27440. undefined 241.78 542.08 1.0697 630.00 0.0015873 241.78 542.08 1.0697 1.9125 2.3823 1713.7 -0.0061372 287.88 0.18460 630.00 0.0015873 241.78 542.08 1.0697 1.9125 2.3823 1713.7 -0.0061372 287.88 0.18460
61.375 27606. undefined 243.70 545.82 1.0755 630.00 0.0015873 243.70 545.82 1.0755 1.9168 2.3858 1715.0 -0.0061295 287.72 0.18481 630.00 0.0015873 243.70 545.82 1.0755 1.9168 2.3858 1715.0 -0.0061295 287.72 0.18481
62.375 27772. undefined 245.62 549.56 1.0812 630.00 0.0015873 245.62 549.56 1.0812 1.9212 2.3893 1716.3 -0.0061218 287.55 0.18502 630.00 0.0015873 245.62 549.56 1.0812 1.9212 2.3893 1716.3 -0.0061218 287.55 0.18502
63.375 27938. undefined 247.54 553.30 1.0869 630.00 0.0015873 247.54 553.30 1.0869 1.9255 2.3927 1717.5 -0.0061141 287.39 0.18524 630.00 0.0015873 247.54 553.30 1.0869 1.9255 2.3927 1717.5 -0.0061141 287.39 0.18524
64.375 28104. undefined 249.47 557.04 1.0926 630.00 0.0015873 249.47 557.04 1.0926 1.9298 2.3962 1718.8 -0.0061064 287.23 0.18545 630.00 0.0015873 249.47 557.04 1.0926 1.9298 2.3962 1718.8 -0.0061064 287.23 0.18545
65.375 28270. undefined 251.40 560.78 1.0983 630.00 0.0015873 251.40 560.78 1.0983 1.9342 2.3997 1720.1 -0.0060987 287.07 0.18567 630.00 0.0015873 251.40 560.78 1.0983 1.9342 2.3997 1720.1 -0.0060987 287.07 0.18567
66.375 28435. undefined 253.34 564.53 1.1041 630.00 0.0015873 253.34 564.53 1.1041 1.9385 2.4032 1721.3 -0.0060910 286.91 0.18588 630.00 0.0015873 253.34 564.53 1.1041 1.9385 2.4032 1721.3 -0.0060910 286.91 0.18588
67.375 28600. undefined 255.28 568.28 1.1098 630.00 0.0015873 255.28 568.28 1.1098 1.9429 2.4067 1722.6 -0.0060833 286.75 0.18610 630.00 0.0015873 255.28 568.28 1.1098 1.9429 2.4067 1722.6 -0.0060833 286.75 0.18610
68.375 28765. undefined 257.22 572.03 1.1155 630.00 0.0015873 257.22 572.03 1.1155 1.9472 2.4102 1723.9 -0.0060756 286.60 0.18631 630.00 0.0015873 257.22 572.03 1.1155 1.9472 2.4102 1723.9 -0.0060756 286.60 0.18631
69.375 28930. undefined 259.17 575.78 1.1212 630.00 0.0015873 259.17 575.78 1.1212 1.9515 2.4137 1725.1 -0.0060679 286.44 0.18653 630.00 0.0015873 259.17 575.78 1.1212 1.9515 2.4137 1725.1 -0.0060679 286.44 0.18653
70.375 29094. undefined 261.13 579.54 1.1269 630.00 0.0015873 261.13 579.54 1.1269 1.9559 2.4173 1726.4 -0.0060602 286.29 0.18675 630.00 0.0015873 261.13 579.54 1.1269 1.9559 2.4173 1726.4 -0.0060602 286.29 0.18675
71.375 29259. undefined 263.08 583.29 1.1326 630.00 0.0015873 263.08 583.29 1.1326 1.9602 2.4208 1727.6 -0.0060524 286.14 0.18696 630.00 0.0015873 263.08 583.29 1.1326 1.9602 2.4208 1727.6 -0.0060524 286.14 0.18696
72.375 29423. undefined 265.05 587.05 1.1382 630.00 0.0015873 265.05 587.05 1.1382 1.9645 2.4243 1728.9 -0.0060447 285.99 0.18718 630.00 0.0015873 265.05 587.05 1.1382 1.9645 2.4243 1728.9 -0.0060447 285.99 0.18718
73.375 29587. undefined 267.01 590.81 1.1439 630.00 0.0015873 267.01 590.81 1.1439 1.9689 2.4279 1730.1 -0.0060370 285.84 0.18740 630.00 0.0015873 267.01 590.81 1.1439 1.9689 2.4279 1730.1 -0.0060370 285.84 0.18740
74.375 29750. undefined 268.98 594.57 1.1496 630.00 0.0015873 268.98 594.57 1.1496 1.9732 2.4314 1731.4 -0.0060293 285.69 0.18762 630.00 0.0015873 268.98 594.57 1.1496 1.9732 2.4314 1731.4 -0.0060293 285.69 0.18762
75.375 29914. undefined 270.96 598.34 1.1553 630.00 0.0015873 270.96 598.34 1.1553 1.9776 2.4350 1732.6 -0.0060215 285.55 0.18783 630.00 0.0015873 270.96 598.34 1.1553 1.9776 2.4350 1732.6 -0.0060215 285.55 0.18783
76.375 30077. undefined 272.94 602.11 1.1610 630.00 0.0015873 272.94 602.11 1.1610 1.9819 2.4385 1733.9 -0.0060138 285.40 0.18805 630.00 0.0015873 272.94 602.11 1.1610 1.9819 2.4385 1733.9 -0.0060138 285.40 0.18805
77.375 30241. undefined 274.92 605.88 1.1666 630.00 0.0015873 274.92 605.88 1.1666 1.9863 2.4421 1735.1 -0.0060061 285.26 0.18827 630.00 0.0015873 274.92 605.88 1.1666 1.9863 2.4421 1735.1 -0.0060061 285.26 0.18827
78.375 30403. undefined 276.91 609.65 1.1723 630.00 0.0015873 276.91 609.65 1.1723 1.9906 2.4456 1736.4 -0.0059984 285.12 0.18849 630.00 0.0015873 276.91 609.65 1.1723 1.9906 2.4456 1736.4 -0.0059984 285.12 0.18849
79.375 30566. undefined 278.90 613.42 1.1780 630.00 0.0015873 278.90 613.42 1.1780 1.9949 2.4492 1737.6 -0.0059907 284.98 0.18871 630.00 0.0015873 278.90 613.42 1.1780 1.9949 2.4492 1737.6 -0.0059907 284.98 0.18871
80.375 30729. undefined 280.90 617.20 1.1836 630.00 0.0015873 280.90 617.20 1.1836 1.9993 2.4528 1738.8 -0.0059829 284.84 0.18893 630.00 0.0015873 280.90 617.20 1.1836 1.9993 2.4528 1738.8 -0.0059829 284.84 0.18893
81.375 30891. undefined 282.90 620.98 1.1893 630.00 0.0015873 282.90 620.98 1.1893 2.0036 2.4564 1740.0 -0.0059752 284.70 0.18915 630.00 0.0015873 282.90 620.98 1.1893 2.0036 2.4564 1740.0 -0.0059752 284.70 0.18915
82.375 31053. undefined 284.91 624.76 1.1949 630.00 0.0015873 284.91 624.76 1.1949 2.0080 2.4599 1741.3 -0.0059675 284.56 0.18937 630.00 0.0015873 284.91 624.76 1.1949 2.0080 2.4599 1741.3 -0.0059675 284.56 0.18937
83.375 31215. undefined 286.92 628.54 1.2006 630.00 0.0015873 286.92 628.54 1.2006 2.0123 2.4635 1742.5 -0.0059598 284.43 0.18959 630.00 0.0015873 286.92 628.54 1.2006 2.0123 2.4635 1742.5 -0.0059598 284.43 0.18959
84.375 31377. undefined 288.93 632.33 1.2062 630.00 0.0015873 288.93 632.33 1.2062 2.0166 2.4671 1743.7 -0.0059521 284.29 0.18981 630.00 0.0015873 288.93 632.33 1.2062 2.0166 2.4671 1743.7 -0.0059521 284.29 0.18981
85.375 31539. undefined 290.95 636.11 1.2118 630.00 0.0015873 290.95 636.11 1.2118 2.0210 2.4707 1744.9 -0.0059444 284.16 0.19003 630.00 0.0015873 290.95 636.11 1.2118 2.0210 2.4707 1744.9 -0.0059444 284.16 0.19003
86.375 31700. undefined 292.97 639.90 1.2175 630.00 0.0015873 292.97 639.90 1.2175 2.0253 2.4743 1746.1 -0.0059367 284.03 0.19025 630.00 0.0015873 292.97 639.90 1.2175 2.0253 2.4743 1746.1 -0.0059367 284.03 0.19025
87.375 31861. undefined 295.00 643.69 1.2231 630.00 0.0015873 295.00 643.69 1.2231 2.0296 2.4779 1747.4 -0.0059291 283.90 0.19047 630.00 0.0015873 295.00 643.69 1.2231 2.0296 2.4779 1747.4 -0.0059291 283.90 0.19047
88.375 32022. undefined 297.03 647.49 1.2287 630.00 0.0015873 297.03 647.49 1.2287 2.0340 2.4815 1748.6 -0.0059214 283.77 0.19069 630.00 0.0015873 297.03 647.49 1.2287 2.0340 2.4815 1748.6 -0.0059214 283.77 0.19069
89.375 32183. undefined 299.07 651.29 1.2344 630.00 0.0015873 299.07 651.29 1.2344 2.0383 2.4851 1749.8 -0.0059137 283.64 0.19092 630.00 0.0015873 299.07 651.29 1.2344 2.0383 2.4851 1749.8 -0.0059137 283.64 0.19092
90.375 32344. undefined 301.11 655.08 1.2400 630.00 0.0015873 301.11 655.08 1.2400 2.0426 2.4887 1751.0 -0.0059061 283.52 0.19114 630.00 0.0015873 301.11 655.08 1.2400 2.0426 2.4887 1751.0 -0.0059061 283.52 0.19114
91.375 32504. undefined 303.16 658.89 1.2456 630.00 0.0015873 303.16 658.89 1.2456 2.0470 2.4923 1752.2 -0.0058984 283.39 0.19136 630.00 0.0015873 303.16 658.89 1.2456 2.0470 2.4923 1752.2 -0.0058984 283.39 0.19136
92.375 32665. undefined 305.20 662.69 1.2512 630.00 0.0015873 305.20 662.69 1.2512 2.0513 2.4960 1753.4 -0.0058908 283.26 0.19158 630.00 0.0015873 305.20 662.69 1.2512 2.0513 2.4960 1753.4 -0.0058908 283.26 0.19158
93.375 32825. undefined 307.26 666.49 1.2568 630.00 0.0015873 307.26 666.49 1.2568 2.0556 2.4996 1754.6 -0.0058831 283.14 0.19181 630.00 0.0015873 307.26 666.49 1.2568 2.0556 2.4996 1754.6 -0.0058831 283.14 0.19181
94.375 32985. undefined 309.32 670.30 1.2624 630.00 0.0015873 309.32 670.30 1.2624 2.0600 2.5032 1755.8 -0.0058755 283.02 0.19203 630.00 0.0015873 309.32 670.30 1.2624 2.0600 2.5032 1755.8 -0.0058755 283.02 0.19203
95.375 33144. undefined 311.38 674.11 1.2680 630.00 0.0015873 311.38 674.11 1.2680 2.0643 2.5068 1757.0 -0.0058679 282.90 0.19225 630.00 0.0015873 311.38 674.11 1.2680 2.0643 2.5068 1757.0 -0.0058679 282.90 0.19225
96.375 33304. undefined 313.44 677.92 1.2736 630.00 0.0015873 313.44 677.92 1.2736 2.0686 2.5104 1758.2 -0.0058603 282.78 0.19248 630.00 0.0015873 313.44 677.92 1.2736 2.0686 2.5104 1758.2 -0.0058603 282.78 0.19248
97.375 33463. undefined 315.52 681.74 1.2792 630.00 0.0015873 315.52 681.74 1.2792 2.0729 2.5141 1759.4 -0.0058527 282.66 0.19270 630.00 0.0015873 315.52 681.74 1.2792 2.0729 2.5141 1759.4 -0.0058527 282.66 0.19270
98.375 33623. undefined 317.59 685.56 1.2848 630.00 0.0015873 317.59 685.56 1.2848 2.0773 2.5177 1760.5 -0.0058451 282.54 0.19293 630.00 0.0015873 317.59 685.56 1.2848 2.0773 2.5177 1760.5 -0.0058451 282.54 0.19293
99.375 33782. undefined 319.67 689.38 1.2904 630.00 0.0015873 319.67 689.38 1.2904 2.0816 2.5213 1761.7 -0.0058375 282.42 0.19315 630.00 0.0015873 319.67 689.38 1.2904 2.0816 2.5213 1761.7 -0.0058375 282.42 0.19315
100.38 33940. undefined 321.75 693.20 1.2960 630.00 0.0015873 321.75 693.20 1.2960 2.0859 2.5250 1762.9 -0.0058299 282.31 0.19338 630.00 0.0015873 321.75 693.20 1.2960 2.0859 2.5250 1762.9 -0.0058299 282.31 0.19338
101.38 34099. undefined 323.84 697.02 1.3016 630.00 0.0015873 323.84 697.02 1.3016 2.0902 2.5286 1764.1 -0.0058224 282.19 0.19360 630.00 0.0015873 323.84 697.02 1.3016 2.0902 2.5286 1764.1 -0.0058224 282.19 0.19360
102.38 34257. undefined 325.93 700.85 1.3072 630.00 0.0015873 325.93 700.85 1.3072 2.0945 2.5323 1765.3 -0.0058148 282.08 0.19383 630.00 0.0015873 325.93 700.85 1.3072 2.0945 2.5323 1765.3 -0.0058148 282.08 0.19383
103.38 34416. undefined 328.03 704.68 1.3127 630.00 0.0015873 328.03 704.68 1.3127 2.0988 2.5359 1766.4 -0.0058073 281.97 0.19405 630.00 0.0015873 328.03 704.68 1.3127 2.0988 2.5359 1766.4 -0.0058073 281.97 0.19405
104.38 34574. undefined 330.13 708.51 1.3183 630.00 0.0015873 330.13 708.51 1.3183 2.1032 2.5395 1767.6 -0.0057997 281.85 0.19428 630.00 0.0015873 330.13 708.51 1.3183 2.1032 2.5395 1767.6 -0.0057997 281.85 0.19428
105.38 34732. undefined 332.24 712.34 1.3239 630.00 0.0015873 332.24 712.34 1.3239 2.1075 2.5432 1768.8 -0.0057922 281.74 0.19451 630.00 0.0015873 332.24 712.34 1.3239 2.1075 2.5432 1768.8 -0.0057922 281.74 0.19451
106.38 34890. undefined 334.35 716.18 1.3294 630.00 0.0015873 334.35 716.18 1.3294 2.1118 2.5468 1770.0 -0.0057847 281.63 0.19473 630.00 0.0015873 334.35 716.18 1.3294 2.1118 2.5468 1770.0 -0.0057847 281.63 0.19473
107.38 35047. undefined 336.46 720.02 1.3350 630.00 0.0015873 336.46 720.02 1.3350 2.1161 2.5505 1771.1 -0.0057772 281.53 0.19496 630.00 0.0015873 336.46 720.02 1.3350 2.1161 2.5505 1771.1 -0.0057772 281.53 0.19496
108.38 35205. undefined 338.58 723.86 1.3406 630.00 0.0015873 338.58 723.86 1.3406 2.1204 2.5541 1772.3 -0.0057697 281.42 0.19519 630.00 0.0015873 338.58 723.86 1.3406 2.1204 2.5541 1772.3 -0.0057697 281.42 0.19519
109.38 35362. undefined 340.70 727.70 1.3461 630.00 0.0015873 340.70 727.70 1.3461 2.1247 2.5578 1773.5 -0.0057623 281.31 0.19542 630.00 0.0015873 340.70 727.70 1.3461 2.1247 2.5578 1773.5 -0.0057623 281.31 0.19542
110.38 35519. undefined 342.83 731.55 1.3517 630.00 0.0015873 342.83 731.55 1.3517 2.1290 2.5614 1774.6 -0.0057548 281.20 0.19565 630.00 0.0015873 342.83 731.55 1.3517 2.1290 2.5614 1774.6 -0.0057548 281.20 0.19565
111.38 35676. undefined 344.96 735.40 1.3572 630.00 0.0015873 344.96 735.40 1.3572 2.1333 2.5651 1775.8 -0.0057474 281.10 0.19587 630.00 0.0015873 344.96 735.40 1.3572 2.1333 2.5651 1775.8 -0.0057474 281.10 0.19587
112.38 35833. undefined 347.09 739.25 1.3628 630.00 0.0015873 347.09 739.25 1.3628 2.1376 2.5687 1776.9 -0.0057400 281.00 0.19610 630.00 0.0015873 347.09 739.25 1.3628 2.1376 2.5687 1776.9 -0.0057400 281.00 0.19610
113.38 35989. undefined 349.23 743.10 1.3683 630.00 0.0015873 349.23 743.10 1.3683 2.1418 2.5724 1778.1 -0.0057325 280.89 0.19633 630.00 0.0015873 349.23 743.10 1.3683 2.1418 2.5724 1778.1 -0.0057325 280.89 0.19633
114.38 36145. undefined 351.38 746.96 1.3738 630.00 0.0015873 351.38 746.96 1.3738 2.1461 2.5760 1779.2 -0.0057251 280.79 0.19656 630.00 0.0015873 351.38 746.96 1.3738 2.1461 2.5760 1779.2 -0.0057251 280.79 0.19656
115.38 36302. undefined 353.53 750.81 1.3794 630.00 0.0015873 353.53 750.81 1.3794 2.1504 2.5797 1780.4 -0.0057177 280.69 0.19679 630.00 0.0015873 353.53 750.81 1.3794 2.1504 2.5797 1780.4 -0.0057177 280.69 0.19679
116.38 36458. undefined 355.68 754.67 1.3849 630.00 0.0015873 355.68 754.67 1.3849 2.1547 2.5833 1781.5 -0.0057104 280.59 0.19702 630.00 0.0015873 355.68 754.67 1.3849 2.1547 2.5833 1781.5 -0.0057104 280.59 0.19702
117.38 36614. undefined 357.84 758.54 1.3904 630.00 0.0015873 357.84 758.54 1.3904 2.1590 2.5870 1782.7 -0.0057030 280.49 0.19725 630.00 0.0015873 357.84 758.54 1.3904 2.1590 2.5870 1782.7 -0.0057030 280.49 0.19725
118.38 36769. undefined 360.00 762.40 1.3960 630.00 0.0015873 360.00 762.40 1.3960 2.1632 2.5907 1783.8 -0.0056957 280.39 0.19748 630.00 0.0015873 360.00 762.40 1.3960 2.1632 2.5907 1783.8 -0.0056957 280.39 0.19748
119.38 36925. undefined 362.16 766.27 1.4015 630.00 0.0015873 362.16 766.27 1.4015 2.1675 2.5943 1785.0 -0.0056883 280.29 0.19771 630.00 0.0015873 362.16 766.27 1.4015 2.1675 2.5943 1785.0 -0.0056883 280.29 0.19771
120.38 37080. undefined 364.33 770.14 1.4070 630.00 0.0015873 364.33 770.14 1.4070 2.1718 2.5980 1786.1 -0.0056810 280.19 0.19794 630.00 0.0015873 364.33 770.14 1.4070 2.1718 2.5980 1786.1 -0.0056810 280.19 0.19794
121.38 37235. undefined 366.51 774.01 1.4125 630.00 0.0015873 366.51 774.01 1.4125 2.1761 2.6016 1787.2 -0.0056737 280.10 0.19817 630.00 0.0015873 366.51 774.01 1.4125 2.1761 2.6016 1787.2 -0.0056737 280.10 0.19817
122.38 37390. undefined 368.68 777.89 1.4181 630.00 0.0015873 368.68 777.89 1.4181 2.1803 2.6053 1788.4 -0.0056664 280.00 0.19841 630.00 0.0015873 368.68 777.89 1.4181 2.1803 2.6053 1788.4 -0.0056664 280.00 0.19841
123.38 37545. undefined 370.87 781.76 1.4236 630.00 0.0015873 370.87 781.76 1.4236 2.1846 2.6089 1789.5 -0.0056592 279.91 0.19864 630.00 0.0015873 370.87 781.76 1.4236 2.1846 2.6089 1789.5 -0.0056592 279.91 0.19864
124.38 37700. undefined 373.05 785.64 1.4291 630.00 0.0015873 373.05 785.64 1.4291 2.1888 2.6126 1790.6 -0.0056519 279.82 0.19887 630.00 0.0015873 373.05 785.64 1.4291 2.1888 2.6126 1790.6 -0.0056519 279.82 0.19887
125.38 37855. undefined 375.24 789.53 1.4346 630.00 0.0015873 375.24 789.53 1.4346 2.1931 2.6163 1791.8 -0.0056447 279.72 0.19910 630.00 0.0015873 375.24 789.53 1.4346 2.1931 2.6163 1791.8 -0.0056447 279.72 0.19910
126.38 38009. undefined 377.44 793.41 1.4401 630.00 0.0015873 377.44 793.41 1.4401 2.1973 2.6199 1792.9 -0.0056375 279.63 0.19934 630.00 0.0015873 377.44 793.41 1.4401 2.1973 2.6199 1792.9 -0.0056375 279.63 0.19934
127.38 38163. undefined 379.64 797.30 1.4456 630.00 0.0015873 379.64 797.30 1.4456 2.2016 2.6236 1794.0 -0.0056303 279.54 0.19957 630.00 0.0015873 379.64 797.30 1.4456 2.2016 2.6236 1794.0 -0.0056303 279.54 0.19957
128.38 38317. undefined 381.84 801.19 1.4511 630.00 0.0015873 381.84 801.19 1.4511 2.2058 2.6272 1795.2 -0.0056231 279.45 0.19980 630.00 0.0015873 381.84 801.19 1.4511 2.2058 2.6272 1795.2 -0.0056231 279.45 0.19980
129.38 38471. undefined 384.05 805.08 1.4566 630.00 0.0015873 384.05 805.08 1.4566 2.2101 2.6309 1796.3 -0.0056159 279.36 0.20004 630.00 0.0015873 384.05 805.08 1.4566 2.2101 2.6309 1796.3 -0.0056159 279.36 0.20004
130.38 38625. undefined 386.26 808.97 1.4621 630.00 0.0015873 386.26 808.97 1.4621 2.2143 2.6345 1797.4 -0.0056087 279.27 0.20027 630.00 0.0015873 386.26 808.97 1.4621 2.2143 2.6345 1797.4 -0.0056087 279.27 0.20027
131.38 38778. undefined 388.48 812.87 1.4675 630.00 0.0015873 388.48 812.87 1.4675 2.2185 2.6382 1798.5 -0.0056016 279.18 0.20050 630.00 0.0015873 388.48 812.87 1.4675 2.2185 2.6382 1798.5 -0.0056016 279.18 0.20050
132.38 38932. undefined 390.70 816.77 1.4730 630.00 0.0015873 390.70 816.77 1.4730 2.2228 2.6418 1799.6 -0.0055945 279.10 0.20074 630.00 0.0015873 390.70 816.77 1.4730 2.2228 2.6418 1799.6 -0.0055945 279.10 0.20074
133.38 39085. undefined 392.92 820.67 1.4785 630.00 0.0015873 392.92 820.67 1.4785 2.2270 2.6455 1800.7 -0.0055874 279.01 0.20097 630.00 0.0015873 392.92 820.67 1.4785 2.2270 2.6455 1800.7 -0.0055874 279.01 0.20097
134.38 39238. undefined 395.15 824.58 1.4840 630.00 0.0015873 395.15 824.58 1.4840 2.2312 2.6492 1801.9 -0.0055803 278.92 0.20121 630.00 0.0015873 395.15 824.58 1.4840 2.2312 2.6492 1801.9 -0.0055803 278.92 0.20121
135.38 39391. undefined 397.39 828.49 1.4894 630.00 0.0015873 397.39 828.49 1.4894 2.2354 2.6528 1803.0 -0.0055732 278.84 0.20145 630.00 0.0015873 397.39 828.49 1.4894 2.2354 2.6528 1803.0 -0.0055732 278.84 0.20145
136.38 39544. undefined 399.62 832.40 1.4949 630.00 0.0015873 399.62 832.40 1.4949 2.2397 2.6565 1804.1 -0.0055661 278.75 0.20168 630.00 0.0015873 399.62 832.40 1.4949 2.2397 2.6565 1804.1 -0.0055661 278.75 0.20168
137.38 39696. undefined 401.87 836.31 1.5004 630.00 0.0015873 401.87 836.31 1.5004 2.2439 2.6601 1805.2 -0.0055591 278.67 0.20192 630.00 0.0015873 401.87 836.31 1.5004 2.2439 2.6601 1805.2 -0.0055591 278.67 0.20192
138.38 39849. undefined 404.11 840.22 1.5059 630.00 0.0015873 404.11 840.22 1.5059 2.2481 2.6638 1806.3 -0.0055521 278.59 0.20215 630.00 0.0015873 404.11 840.22 1.5059 2.2481 2.6638 1806.3 -0.0055521 278.59 0.20215
139.38 40001. undefined 406.36 844.14 1.5113 630.00 0.0015873 406.36 844.14 1.5113 2.2523 2.6674 1807.4 -0.0055451 278.51 0.20239 630.00 0.0015873 406.36 844.14 1.5113 2.2523 2.6674 1807.4 -0.0055451 278.51 0.20239
140.38 40153. undefined 408.62 848.06 1.5168 630.00 0.0015873 408.62 848.06 1.5168 2.2565 2.6710 1808.5 -0.0055381 278.42 0.20263 630.00 0.0015873 408.62 848.06 1.5168 2.2565 2.6710 1808.5 -0.0055381 278.42 0.20263
141.38 40305. undefined 410.88 851.98 1.5222 630.00 0.0015873 410.88 851.98 1.5222 2.2607 2.6747 1809.6 -0.0055311 278.34 0.20286 630.00 0.0015873 410.88 851.98 1.5222 2.2607 2.6747 1809.6 -0.0055311 278.34 0.20286
142.38 40457. undefined 413.14 855.90 1.5277 630.00 0.0015873 413.14 855.90 1.5277 2.2649 2.6783 1810.7 -0.0055241 278.26 0.20310 630.00 0.0015873 413.14 855.90 1.5277 2.2649 2.6783 1810.7 -0.0055241 278.26 0.20310
143.38 40609. undefined 415.41 859.83 1.5331 630.00 0.0015873 415.41 859.83 1.5331 2.2691 2.6820 1811.8 -0.0055172 278.18 0.20334 630.00 0.0015873 415.41 859.83 1.5331 2.2691 2.6820 1811.8 -0.0055172 278.18 0.20334
144.38 40760. undefined 417.68 863.76 1.5386 630.00 0.0015873 417.68 863.76 1.5386 2.2732 2.6856 1812.9 -0.0055103 278.10 0.20358 630.00 0.0015873 417.68 863.76 1.5386 2.2732 2.6856 1812.9 -0.0055103 278.10 0.20358
145.38 40912. undefined 419.95 867.69 1.5440 630.00 0.0015873 419.95 867.69 1.5440 2.2774 2.6893 1814.0 -0.0055034 278.03 0.20382 630.00 0.0015873 419.95 867.69 1.5440 2.2774 2.6893 1814.0 -0.0055034 278.03 0.20382
146.38 41063. undefined 422.23 871.63 1.5495 630.00 0.0015873 422.23 871.63 1.5495 2.2816 2.6929 1815.1 -0.0054965 277.95 0.20405 630.00 0.0015873 422.23 871.63 1.5495 2.2816 2.6929 1815.1 -0.0054965 277.95 0.20405
147.38 41214. undefined 424.51 875.57 1.5549 630.00 0.0015873 424.51 875.57 1.5549 2.2858 2.6965 1816.2 -0.0054896 277.87 0.20429 630.00 0.0015873 424.51 875.57 1.5549 2.2858 2.6965 1816.2 -0.0054896 277.87 0.20429
148.38 41365. undefined 426.80 879.51 1.5603 630.00 0.0015873 426.80 879.51 1.5603 2.2899 2.7002 1817.3 -0.0054828 277.80 0.20453 630.00 0.0015873 426.80 879.51 1.5603 2.2899 2.7002 1817.3 -0.0054828 277.80 0.20453
149.38 41516. undefined 429.09 883.45 1.5658 630.00 0.0015873 429.09 883.45 1.5658 2.2941 2.7038 1818.3 -0.0054759 277.72 0.20477 630.00 0.0015873 429.09 883.45 1.5658 2.2941 2.7038 1818.3 -0.0054759 277.72 0.20477
150.38 41667. undefined 431.39 887.39 1.5712 630.00 0.0015873 431.39 887.39 1.5712 2.2983 2.7074 1819.4 -0.0054691 277.65 0.20501 630.00 0.0015873 431.39 887.39 1.5712 2.2983 2.7074 1819.4 -0.0054691 277.65 0.20501
151.38 41817. undefined 433.69 891.34 1.5766 630.00 0.0015873 433.69 891.34 1.5766 2.3024 2.7111 1820.5 -0.0054623 277.57 0.20525 630.00 0.0015873 433.69 891.34 1.5766 2.3024 2.7111 1820.5 -0.0054623 277.57 0.20525
152.38 41967. undefined 436.00 895.29 1.5820 630.00 0.0015873 436.00 895.29 1.5820 2.3066 2.7147 1821.6 -0.0054556 277.50 0.20549 630.00 0.0015873 436.00 895.29 1.5820 2.3066 2.7147 1821.6 -0.0054556 277.50 0.20549
153.38 42118. undefined 438.30 899.24 1.5875 630.00 0.0015873 438.30 899.24 1.5875 2.3107 2.7183 1822.7 -0.0054488 277.43 0.20573 630.00 0.0015873 438.30 899.24 1.5875 2.3107 2.7183 1822.7 -0.0054488 277.43 0.20573
154.38 42268. undefined 440.62 903.20 1.5929 630.00 0.0015873 440.62 903.20 1.5929 2.3149 2.7219 1823.8 -0.0054421 277.35 0.20597 630.00 0.0015873 440.62 903.20 1.5929 2.3149 2.7219 1823.8 -0.0054421 277.35 0.20597
155.38 42417. undefined 442.93 907.15 1.5983 630.00 0.0015873 442.93 907.15 1.5983 2.3190 2.7256 1824.8 -0.0054353 277.28 0.20622 630.00 0.0015873 442.93 907.15 1.5983 2.3190 2.7256 1824.8 -0.0054353 277.28 0.20622
156.38 42567. undefined 445.26 911.11 1.6037 630.00 0.0015873 445.26 911.11 1.6037 2.3231 2.7292 1825.9 -0.0054286 277.21 0.20646 630.00 0.0015873 445.26 911.11 1.6037 2.3231 2.7292 1825.9 -0.0054286 277.21 0.20646
157.38 42717. undefined 447.58 915.08 1.6091 630.00 0.0015873 447.58 915.08 1.6091 2.3273 2.7328 1827.0 -0.0054219 277.14 0.20670 630.00 0.0015873 447.58 915.08 1.6091 2.3273 2.7328 1827.0 -0.0054219 277.14 0.20670
158.38 42866. undefined 449.91 919.04 1.6145 630.00 0.0015873 449.91 919.04 1.6145 2.3314 2.7364 1828.0 -0.0054153 277.07 0.20694 630.00 0.0015873 449.91 919.04 1.6145 2.3314 2.7364 1828.0 -0.0054153 277.07 0.20694
159.38 43016. undefined 452.24 923.01 1.6199 630.00 0.0015873 452.24 923.01 1.6199 2.3355 2.7400 1829.1 -0.0054086 277.00 0.20718 630.00 0.0015873 452.24 923.01 1.6199 2.3355 2.7400 1829.1 -0.0054086 277.00 0.20718
160.38 43165. undefined 454.58 926.98 1.6253 630.00 0.0015873 454.58 926.98 1.6253 2.3396 2.7436 1830.2 -0.0054020 276.93 0.20743 630.00 0.0015873 454.58 926.98 1.6253 2.3396 2.7436 1830.2 -0.0054020 276.93 0.20743
161.38 43314. undefined 456.92 930.95 1.6307 630.00 0.0015873 456.92 930.95 1.6307 2.3437 2.7473 1831.3 -0.0053954 276.87 0.20767 630.00 0.0015873 456.92 930.95 1.6307 2.3437 2.7473 1831.3 -0.0053954 276.87 0.20767
162.38 43463. undefined 459.27 934.92 1.6361 630.00 0.0015873 459.27 934.92 1.6361 2.3478 2.7509 1832.3 -0.0053888 276.80 0.20791 630.00 0.0015873 459.27 934.92 1.6361 2.3478 2.7509 1832.3 -0.0053888 276.80 0.20791
163.38 43611. undefined 461.62 938.90 1.6415 630.00 0.0015873 461.62 938.90 1.6415 2.3519 2.7545 1833.4 -0.0053822 276.73 0.20816 630.00 0.0015873 461.62 938.90 1.6415 2.3519 2.7545 1833.4 -0.0053822 276.73 0.20816
164.38 43760. undefined 463.97 942.88 1.6469 630.00 0.0015873 463.97 942.88 1.6469 2.3560 2.7581 1834.4 -0.0053757 276.67 0.20840 630.00 0.0015873 463.97 942.88 1.6469 2.3560 2.7581 1834.4 -0.0053757 276.67 0.20840
165.38 43908. undefined 466.33 946.86 1.6522 630.00 0.0015873 466.33 946.86 1.6522 2.3601 2.7617 1835.5 -0.0053691 276.60 0.20865 630.00 0.0015873 466.33 946.86 1.6522 2.3601 2.7617 1835.5 -0.0053691 276.60 0.20865
166.38 44057. undefined 468.69 950.85 1.6576 630.00 0.0015873 468.69 950.85 1.6576 2.3642 2.7653 1836.6 -0.0053626 276.53 0.20889 630.00 0.0015873 468.69 950.85 1.6576 2.3642 2.7653 1836.6 -0.0053626 276.53 0.20889
167.38 44205. undefined 471.06 954.84 1.6630 630.00 0.0015873 471.06 954.84 1.6630 2.3683 2.7689 1837.6 -0.0053561 276.47 0.20913 630.00 0.0015873 471.06 954.84 1.6630 2.3683 2.7689 1837.6 -0.0053561 276.47 0.20913
168.38 44353. undefined 473.43 958.83 1.6684 630.00 0.0015873 473.43 958.83 1.6684 2.3724 2.7725 1838.7 -0.0053496 276.41 0.20938 630.00 0.0015873 473.43 958.83 1.6684 2.3724 2.7725 1838.7 -0.0053496 276.41 0.20938
169.38 44501. undefined 475.80 962.82 1.6738 630.00 0.0015873 475.80 962.82 1.6738 2.3765 2.7760 1839.7 -0.0053431 276.34 0.20962 630.00 0.0015873 475.80 962.82 1.6738 2.3765 2.7760 1839.7 -0.0053431 276.34 0.20962
170.38 44648. undefined 478.18 966.82 1.6791 630.00 0.0015873 478.18 966.82 1.6791 2.3805 2.7796 1840.8 -0.0053367 276.28 0.20987 630.00 0.0015873 478.18 966.82 1.6791 2.3805 2.7796 1840.8 -0.0053367 276.28 0.20987
171.38 44796. undefined 480.56 970.81 1.6845 630.00 0.0015873 480.56 970.81 1.6845 2.3846 2.7832 1841.8 -0.0053303 276.22 0.21012 630.00 0.0015873 480.56 970.81 1.6845 2.3846 2.7832 1841.8 -0.0053303 276.22 0.21012
172.38 44943. undefined 482.95 974.81 1.6899 630.00 0.0015873 482.95 974.81 1.6899 2.3887 2.7868 1842.9 -0.0053239 276.16 0.21036 630.00 0.0015873 482.95 974.81 1.6899 2.3887 2.7868 1842.9 -0.0053239 276.16 0.21036
173.38 45091. undefined 485.34 978.82 1.6952 630.00 0.0015873 485.34 978.82 1.6952 2.3927 2.7904 1843.9 -0.0053175 276.09 0.21061 630.00 0.0015873 485.34 978.82 1.6952 2.3927 2.7904 1843.9 -0.0053175 276.09 0.21061
174.38 45238. undefined 487.74 982.82 1.7006 630.00 0.0015873 487.74 982.82 1.7006 2.3968 2.7940 1845.0 -0.0053111 276.03 0.21086 630.00 0.0015873 487.74 982.82 1.7006 2.3968 2.7940 1845.0 -0.0053111 276.03 0.21086
175.38 45385. undefined 490.14 986.83 1.7059 630.00 0.0015873 490.14 986.83 1.7059 2.4008 2.7975 1846.0 -0.0053047 275.97 0.21110 630.00 0.0015873 490.14 986.83 1.7059 2.4008 2.7975 1846.0 -0.0053047 275.97 0.21110
176.38 45532. undefined 492.54 990.84 1.7113 630.00 0.0015873 492.54 990.84 1.7113 2.4049 2.8011 1847.1 -0.0052984 275.91 0.21135 630.00 0.0015873 492.54 990.84 1.7113 2.4049 2.8011 1847.1 -0.0052984 275.91 0.21135
177.38 45678. undefined 494.95 994.85 1.7166 630.00 0.0015873 494.95 994.85 1.7166 2.4089 2.8047 1848.1 -0.0052921 275.85 0.21160 630.00 0.0015873 494.95 994.85 1.7166 2.4089 2.8047 1848.1 -0.0052921 275.85 0.21160
178.38 45825. undefined 497.36 998.87 1.7220 630.00 0.0015873 497.36 998.87 1.7220 2.4129 2.8082 1849.1 -0.0052858 275.80 0.21185 630.00 0.0015873 497.36 998.87 1.7220 2.4129 2.8082 1849.1 -0.0052858 275.80 0.21185
179.38 45972. undefined 499.77 1002.9 1.7273 630.00 0.0015873 499.77 1002.9 1.7273 2.4169 2.8118 1850.2 -0.0052795 275.74 0.21209 630.00 0.0015873 499.77 1002.9 1.7273 2.4169 2.8118 1850.2 -0.0052795 275.74 0.21209
180.38 46118. undefined 502.19 1006.9 1.7326 630.00 0.0015873 502.19 1006.9 1.7326 2.4210 2.8154 1851.2 -0.0052733 275.68 0.21234 630.00 0.0015873 502.19 1006.9 1.7326 2.4210 2.8154 1851.2 -0.0052733 275.68 0.21234
181.38 46264. undefined 504.61 1010.9 1.7380 630.00 0.0015873 504.61 1010.9 1.7380 2.4250 2.8189 1852.3 -0.0052670 275.62 0.21259 630.00 0.0015873 504.61 1010.9 1.7380 2.4250 2.8189 1852.3 -0.0052670 275.62 0.21259
182.38 46410. undefined 507.04 1015.0 1.7433 630.00 0.0015873 507.04 1015.0 1.7433 2.4290 2.8225 1853.3 -0.0052608 275.57 0.21284 630.00 0.0015873 507.04 1015.0 1.7433 2.4290 2.8225 1853.3 -0.0052608 275.57 0.21284
183.38 46556. undefined 509.47 1019.0 1.7486 630.00 0.0015873 509.47 1019.0 1.7486 2.4330 2.8260 1854.3 -0.0052546 275.51 0.21309 630.00 0.0015873 509.47 1019.0 1.7486 2.4330 2.8260 1854.3 -0.0052546 275.51 0.21309
184.38 46702. undefined 511.91 1023.0 1.7540 630.00 0.0015873 511.91 1023.0 1.7540 2.4370 2.8296 1855.4 -0.0052484 275.45 0.21334 630.00 0.0015873 511.91 1023.0 1.7540 2.4370 2.8296 1855.4 -0.0052484 275.45 0.21334
185.38 46848. undefined 514.34 1027.0 1.7593 630.00 0.0015873 514.34 1027.0 1.7593 2.4410 2.8331 1856.4 -0.0052422 275.40 0.21359 630.00 0.0015873 514.34 1027.0 1.7593 2.4410 2.8331 1856.4 -0.0052422 275.40 0.21359
186.38 46993. undefined 516.79 1031.1 1.7646 630.00 0.0015873 516.79 1031.1 1.7646 2.4450 2.8367 1857.4 -0.0052361 275.34 0.21384 630.00 0.0015873 516.79 1031.1 1.7646 2.4450 2.8367 1857.4 -0.0052361 275.34 0.21384
187.38 47139. undefined 519.23 1035.1 1.7699 630.00 0.0015873 519.23 1035.1 1.7699 2.4490 2.8402 1858.4 -0.0052299 275.29 0.21409 630.00 0.0015873 519.23 1035.1 1.7699 2.4490 2.8402 1858.4 -0.0052299 275.29 0.21409
188.38 47284. undefined 521.69 1039.2 1.7753 630.00 0.0015873 521.69 1039.2 1.7753 2.4530 2.8437 1859.5 -0.0052238 275.23 0.21434 630.00 0.0015873 521.69 1039.2 1.7753 2.4530 2.8437 1859.5 -0.0052238 275.23 0.21434
189.38 47429. undefined 524.14 1043.2 1.7806 630.00 0.0015873 524.14 1043.2 1.7806 2.4569 2.8473 1860.5 -0.0052177 275.18 0.21459 630.00 0.0015873 524.14 1043.2 1.7806 2.4569 2.8473 1860.5 -0.0052177 275.18 0.21459
190.38 47574. undefined 526.60 1047.3 1.7859 630.00 0.0015873 526.60 1047.3 1.7859 2.4609 2.8508 1861.5 -0.0052117 275.13 0.21485 630.00 0.0015873 526.60 1047.3 1.7859 2.4609 2.8508 1861.5 -0.0052117 275.13 0.21485
191.38 47719. undefined 529.06 1051.3 1.7912 630.00 0.0015873 529.06 1051.3 1.7912 2.4649 2.8543 1862.5 -0.0052056 275.07 0.21510 630.00 0.0015873 529.06 1051.3 1.7912 2.4649 2.8543 1862.5 -0.0052056 275.07 0.21510
192.38 47864. undefined 531.53 1055.4 1.7965 630.00 0.0015873 531.53 1055.4 1.7965 2.4688 2.8578 1863.6 -0.0051996 275.02 0.21535 630.00 0.0015873 531.53 1055.4 1.7965 2.4688 2.8578 1863.6 -0.0051996 275.02 0.21535
193.38 48008. undefined 534.00 1059.4 1.8018 630.00 0.0015873 534.00 1059.4 1.8018 2.4728 2.8614 1864.6 -0.0051935 274.97 0.21560 630.00 0.0015873 534.00 1059.4 1.8018 2.4728 2.8614 1864.6 -0.0051935 274.97 0.21560
194.38 48153. undefined 536.48 1063.5 1.8071 630.00 0.0015873 536.48 1063.5 1.8071 2.4768 2.8649 1865.6 -0.0051875 274.92 0.21585 630.00 0.0015873 536.48 1063.5 1.8071 2.4768 2.8649 1865.6 -0.0051875 274.92 0.21585
195.38 48297. undefined 538.95 1067.5 1.8124 630.00 0.0015873 538.95 1067.5 1.8124 2.4807 2.8684 1866.6 -0.0051815 274.87 0.21611 630.00 0.0015873 538.95 1067.5 1.8124 2.4807 2.8684 1866.6 -0.0051815 274.87 0.21611
196.38 48441. undefined 541.44 1071.6 1.8177 630.00 0.0015873 541.44 1071.6 1.8177 2.4846 2.8719 1867.6 -0.0051756 274.82 0.21636 630.00 0.0015873 541.44 1071.6 1.8177 2.4846 2.8719 1867.6 -0.0051756 274.82 0.21636
197.38 48585. undefined 543.92 1075.6 1.8230 630.00 0.0015873 543.92 1075.6 1.8230 2.4886 2.8754 1868.6 -0.0051696 274.77 0.21661 630.00 0.0015873 543.92 1075.6 1.8230 2.4886 2.8754 1868.6 -0.0051696 274.77 0.21661
198.38 48729. undefined 546.41 1079.7 1.8283 630.00 0.0015873 546.41 1079.7 1.8283 2.4925 2.8789 1869.6 -0.0051637 274.72 0.21687 630.00 0.0015873 546.41 1079.7 1.8283 2.4925 2.8789 1869.6 -0.0051637 274.72 0.21687
199.38 48873. undefined 548.91 1083.8 1.8335 630.00 0.0015873 548.91 1083.8 1.8335 2.4964 2.8824 1870.6 -0.0051578 274.67 0.21712 630.00 0.0015873 548.91 1083.8 1.8335 2.4964 2.8824 1870.6 -0.0051578 274.67 0.21712
200.38 49017. undefined 551.41 1087.8 1.8388 630.00 0.0015873 551.41 1087.8 1.8388 2.5004 2.8859 1871.7 -0.0051519 274.62 0.21738 630.00 0.0015873 551.41 1087.8 1.8388 2.5004 2.8859 1871.7 -0.0051519 274.62 0.21738
201.38 49160. undefined 553.91 1091.9 1.8441 630.00 0.0015873 553.91 1091.9 1.8441 2.5043 2.8894 1872.7 -0.0051460 274.57 0.21763 630.00 0.0015873 553.91 1091.9 1.8441 2.5043 2.8894 1872.7 -0.0051460 274.57 0.21763
202.38 49304. undefined 556.41 1096.0 1.8494 630.00 0.0015873 556.41 1096.0 1.8494 2.5082 2.8929 1873.7 -0.0051402 274.52 0.21789 630.00 0.0015873 556.41 1096.0 1.8494 2.5082 2.8929 1873.7 -0.0051402 274.52 0.21789
203.38 49447. undefined 558.93 1100.1 1.8547 630.00 0.0015873 558.93 1100.1 1.8547 2.5121 2.8964 1874.7 -0.0051343 274.48 0.21814 630.00 0.0015873 558.93 1100.1 1.8547 2.5121 2.8964 1874.7 -0.0051343 274.48 0.21814
204.38 49590. undefined 561.44 1104.2 1.8599 630.00 0.0015873 561.44 1104.2 1.8599 2.5160 2.8999 1875.7 -0.0051285 274.43 0.21840 630.00 0.0015873 561.44 1104.2 1.8599 2.5160 2.8999 1875.7 -0.0051285 274.43 0.21840
205.38 49733. undefined 563.96 1108.2 1.8652 630.00 0.0015873 563.96 1108.2 1.8652 2.5199 2.9033 1876.7 -0.0051227 274.38 0.21865 630.00 0.0015873 563.96 1108.2 1.8652 2.5199 2.9033 1876.7 -0.0051227 274.38 0.21865
206.38 49876. undefined 566.48 1112.3 1.8705 630.00 0.0015873 566.48 1112.3 1.8705 2.5238 2.9068 1877.7 -0.0051169 274.34 0.21891 630.00 0.0015873 566.48 1112.3 1.8705 2.5238 2.9068 1877.7 -0.0051169 274.34 0.21891
207.38 50019. undefined 569.00 1116.4 1.8757 630.00 0.0015873 569.00 1116.4 1.8757 2.5277 2.9103 1878.7 -0.0051111 274.29 0.21917 630.00 0.0015873 569.00 1116.4 1.8757 2.5277 2.9103 1878.7 -0.0051111 274.29 0.21917
208.38 50162. undefined 571.53 1120.5 1.8810 630.00 0.0015873 571.53 1120.5 1.8810 2.5315 2.9137 1879.7 -0.0051054 274.24 0.21942 630.00 0.0015873 571.53 1120.5 1.8810 2.5315 2.9137 1879.7 -0.0051054 274.24 0.21942
209.38 50304. undefined 574.07 1124.6 1.8862 630.00 0.0015873 574.07 1124.6 1.8862 2.5354 2.9172 1880.7 -0.0050997 274.20 0.21968 630.00 0.0015873 574.07 1124.6 1.8862 2.5354 2.9172 1880.7 -0.0050997 274.20 0.21968
210.38 50447. undefined 576.61 1128.7 1.8915 630.00 0.0015873 576.61 1128.7 1.8915 2.5393 2.9207 1881.7 -0.0050939 274.15 0.21994 630.00 0.0015873 576.61 1128.7 1.8915 2.5393 2.9207 1881.7 -0.0050939 274.15 0.21994
211.38 50589. undefined 579.15 1132.8 1.8967 630.00 0.0015873 579.15 1132.8 1.8967 2.5431 2.9241 1882.7 -0.0050882 274.11 0.22020 630.00 0.0015873 579.15 1132.8 1.8967 2.5431 2.9241 1882.7 -0.0050882 274.11 0.22020
212.38 50731. undefined 581.69 1136.9 1.9020 630.00 0.0015873 581.69 1136.9 1.9020 2.5470 2.9276 1883.7 -0.0050826 274.07 0.22045 630.00 0.0015873 581.69 1136.9 1.9020 2.5470 2.9276 1883.7 -0.0050826 274.07 0.22045
213.38 50873. undefined 584.24 1141.0 1.9072 630.00 0.0015873 584.24 1141.0 1.9072 2.5509 2.9310 1884.6 -0.0050769 274.02 0.22071 630.00 0.0015873 584.24 1141.0 1.9072 2.5509 2.9310 1884.6 -0.0050769 274.02 0.22071
214.38 51015. undefined 586.79 1145.1 1.9125 630.00 0.0015873 586.79 1145.1 1.9125 2.5547 2.9345 1885.6 -0.0050713 273.98 0.22097 630.00 0.0015873 586.79 1145.1 1.9125 2.5547 2.9345 1885.6 -0.0050713 273.98 0.22097
215.38 51157. undefined 589.35 1149.2 1.9177 630.00 0.0015873 589.35 1149.2 1.9177 2.5585 2.9379 1886.6 -0.0050656 273.94 0.22123 630.00 0.0015873 589.35 1149.2 1.9177 2.5585 2.9379 1886.6 -0.0050656 273.94 0.22123
216.38 51299. undefined 591.91 1153.3 1.9229 630.00 0.0015873 591.91 1153.3 1.9229 2.5624 2.9414 1887.6 -0.0050600 273.89 0.22149 630.00 0.0015873 591.91 1153.3 1.9229 2.5624 2.9414 1887.6 -0.0050600 273.89 0.22149
217.38 51441. undefined 594.47 1157.4 1.9282 630.00 0.0015873 594.47 1157.4 1.9282 2.5662 2.9448 1888.6 -0.0050544 273.85 0.22175 630.00 0.0015873 594.47 1157.4 1.9282 2.5662 2.9448 1888.6 -0.0050544 273.85 0.22175
218.38 51582. undefined 597.04 1161.6 1.9334 630.00 0.0015873 597.04 1161.6 1.9334 2.5700 2.9482 1889.6 -0.0050488 273.81 0.22201 630.00 0.0015873 597.04 1161.6 1.9334 2.5700 2.9482 1889.6 -0.0050488 273.81 0.22201
219.38 51723. undefined 599.61 1165.7 1.9386 630.00 0.0015873 599.61 1165.7 1.9386 2.5739 2.9517 1890.6 -0.0050433 273.77 0.22227 630.00 0.0015873 599.61 1165.7 1.9386 2.5739 2.9517 1890.6 -0.0050433 273.77 0.22227
220.38 51865. undefined 602.19 1169.8 1.9439 630.00 0.0015873 602.19 1169.8 1.9439 2.5777 2.9551 1891.5 -0.0050377 273.73 0.22253 630.00 0.0015873 602.19 1169.8 1.9439 2.5777 2.9551 1891.5 -0.0050377 273.73 0.22253
221.38 52006. undefined 604.77 1173.9 1.9491 630.00 0.0015873 604.77 1173.9 1.9491 2.5815 2.9585 1892.5 -0.0050322 273.69 0.22279 630.00 0.0015873 604.77 1173.9 1.9491 2.5815 2.9585 1892.5 -0.0050322 273.69 0.22279
222.38 52147. undefined 607.35 1178.0 1.9543 630.00 0.0015873 607.35 1178.0 1.9543 2.5853 2.9619 1893.5 -0.0050267 273.65 0.22305 630.00 0.0015873 607.35 1178.0 1.9543 2.5853 2.9619 1893.5 -0.0050267 273.65 0.22305
223.38 52287. undefined 609.94 1182.2 1.9595 630.00 0.0015873 609.94 1182.2 1.9595 2.5891 2.9653 1894.5 -0.0050212 273.61 0.22331 630.00 0.0015873 609.94 1182.2 1.9595 2.5891 2.9653 1894.5 -0.0050212 273.61 0.22331
224.38 52428. undefined 612.53 1186.3 1.9647 630.00 0.0015873 612.53 1186.3 1.9647 2.5929 2.9687 1895.5 -0.0050158 273.57 0.22357 630.00 0.0015873 612.53 1186.3 1.9647 2.5929 2.9687 1895.5 -0.0050158 273.57 0.22357
225.38 52569. undefined 615.13 1190.4 1.9699 630.00 0.0015873 615.13 1190.4 1.9699 2.5967 2.9721 1896.4 -0.0050103 273.53 0.22383 630.00 0.0015873 615.13 1190.4 1.9699 2.5967 2.9721 1896.4 -0.0050103 273.53 0.22383
226.38 52709. undefined 617.72 1194.6 1.9752 630.00 0.0015873 617.72 1194.6 1.9752 2.6005 2.9755 1897.4 -0.0050049 273.49 0.22410 630.00 0.0015873 617.72 1194.6 1.9752 2.6005 2.9755 1897.4 -0.0050049 273.49 0.22410
227.38 52850. undefined 620.33 1198.7 1.9804 630.00 0.0015873 620.33 1198.7 1.9804 2.6043 2.9789 1898.4 -0.0049994 273.45 0.22436 630.00 0.0015873 620.33 1198.7 1.9804 2.6043 2.9789 1898.4 -0.0049994 273.45 0.22436
228.38 52990. undefined 622.93 1202.9 1.9856 630.00 0.0015873 622.93 1202.9 1.9856 2.6080 2.9823 1899.3 -0.0049940 273.41 0.22462 630.00 0.0015873 622.93 1202.9 1.9856 2.6080 2.9823 1899.3 -0.0049940 273.41 0.22462
229.38 53130. undefined 625.54 1207.0 1.9908 630.00 0.0015873 625.54 1207.0 1.9908 2.6118 2.9857 1900.3 -0.0049887 273.37 0.22488 630.00 0.0015873 625.54 1207.0 1.9908 2.6118 2.9857 1900.3 -0.0049887 273.37 0.22488
230.38 53270. undefined 628.16 1211.1 1.9960 630.00 0.0015873 628.16 1211.1 1.9960 2.6156 2.9891 1901.3 -0.0049833 273.33 0.22515 630.00 0.0015873 628.16 1211.1 1.9960 2.6156 2.9891 1901.3 -0.0049833 273.33 0.22515
231.38 53410. undefined 630.77 1215.3 2.0011 630.00 0.0015873 630.77 1215.3 2.0011 2.6193 2.9925 1902.3 -0.0049779 273.30 0.22541 630.00 0.0015873 630.77 1215.3 2.0011 2.6193 2.9925 1902.3 -0.0049779 273.30 0.22541
232.38 53550. undefined 633.40 1219.4 2.0063 630.00 0.0015873 633.40 1219.4 2.0063 2.6231 2.9959 1903.2 -0.0049726 273.26 0.22567 630.00 0.0015873 633.40 1219.4 2.0063 2.6231 2.9959 1903.2 -0.0049726 273.26 0.22567
233.38 53690. undefined 636.02 1223.6 2.0115 630.00 0.0015873 636.02 1223.6 2.0115 2.6268 2.9992 1904.2 -0.0049673 273.22 0.22594 630.00 0.0015873 636.02 1223.6 2.0115 2.6268 2.9992 1904.2 -0.0049673 273.22 0.22594
234.38 53829. undefined 638.65 1227.8 2.0167 630.00 0.0015873 638.65 1227.8 2.0167 2.6306 3.0026 1905.1 -0.0049620 273.19 0.22620 630.00 0.0015873 638.65 1227.8 2.0167 2.6306 3.0026 1905.1 -0.0049620 273.19 0.22620
235.38 53969. undefined 641.28 1231.9 2.0219 630.00 0.0015873 641.28 1231.9 2.0219 2.6343 3.0060 1906.1 -0.0049567 273.15 0.22647 630.00 0.0015873 641.28 1231.9 2.0219 2.6343 3.0060 1906.1 -0.0049567 273.15 0.22647
236.38 54108. undefined 643.92 1236.1 2.0271 630.00 0.0015873 643.92 1236.1 2.0271 2.6380 3.0093 1907.1 -0.0049514 273.11 0.22673 630.00 0.0015873 643.92 1236.1 2.0271 2.6380 3.0093 1907.1 -0.0049514 273.11 0.22673
237.38 54247. undefined 646.56 1240.2 2.0322 630.00 0.0015873 646.56 1240.2 2.0322 2.6418 3.0127 1908.0 -0.0049462 273.08 0.22700 630.00 0.0015873 646.56 1240.2 2.0322 2.6418 3.0127 1908.0 -0.0049462 273.08 0.22700
238.38 54386. undefined 649.20 1244.4 2.0374 630.00 0.0015873 649.20 1244.4 2.0374 2.6455 3.0161 1909.0 -0.0049409 273.04 0.22726 630.00 0.0015873 649.20 1244.4 2.0374 2.6455 3.0161 1909.0 -0.0049409 273.04 0.22726
239.38 54525. undefined 651.85 1248.6 2.0426 630.00 0.0015873 651.85 1248.6 2.0426 2.6492 3.0194 1909.9 -0.0049357 273.01 0.22753 630.00 0.0015873 651.85 1248.6 2.0426 2.6492 3.0194 1909.9 -0.0049357 273.01 0.22753
240.38 54664. undefined 654.50 1252.7 2.0478 630.00 0.0015873 654.50 1252.7 2.0478 2.6529 3.0228 1910.9 -0.0049305 272.97 0.22779 630.00 0.0015873 654.50 1252.7 2.0478 2.6529 3.0228 1910.9 -0.0049305 272.97 0.22779
241.38 54803. undefined 657.15 1256.9 2.0529 630.00 0.0015873 657.15 1256.9 2.0529 2.6566 3.0261 1911.9 -0.0049253 272.94 0.22806 630.00 0.0015873 657.15 1256.9 2.0529 2.6566 3.0261 1911.9 -0.0049253 272.94 0.22806
242.38 54942. undefined 659.81 1261.1 2.0581 630.00 0.0015873 659.81 1261.1 2.0581 2.6603 3.0294 1912.8 -0.0049201 272.91 0.22833 630.00 0.0015873 659.81 1261.1 2.0581 2.6603 3.0294 1912.8 -0.0049201 272.91 0.22833
243.38 55080. undefined 662.48 1265.3 2.0632 630.00 0.0015873 662.48 1265.3 2.0632 2.6640 3.0328 1913.8 -0.0049150 272.87 0.22859 630.00 0.0015873 662.48 1265.3 2.0632 2.6640 3.0328 1913.8 -0.0049150 272.87 0.22859
244.38 55218. undefined 665.14 1269.5 2.0684 630.00 0.0015873 665.14 1269.5 2.0684 2.6677 3.0361 1914.7 -0.0049098 272.84 0.22886 630.00 0.0015873 665.14 1269.5 2.0684 2.6677 3.0361 1914.7 -0.0049098 272.84 0.22886
245.38 55357. undefined 667.81 1273.6 2.0735 630.00 0.0015873 667.81 1273.6 2.0735 2.6714 3.0394 1915.7 -0.0049047 272.80 0.22913 630.00 0.0015873 667.81 1273.6 2.0735 2.6714 3.0394 1915.7 -0.0049047 272.80 0.22913
246.38 55495. undefined 670.48 1277.8 2.0787 630.00 0.0015873 670.48 1277.8 2.0787 2.6751 3.0428 1916.6 -0.0048996 272.77 0.22940 630.00 0.0015873 670.48 1277.8 2.0787 2.6751 3.0428 1916.6 -0.0048996 272.77 0.22940
247.38 55633. undefined 673.16 1282.0 2.0838 630.00 0.0015873 673.16 1282.0 2.0838 2.6787 3.0461 1917.6 -0.0048945 272.74 0.22967 630.00 0.0015873 673.16 1282.0 2.0838 2.6787 3.0461 1917.6 -0.0048945 272.74 0.22967
248.38 55771. undefined 675.84 1286.2 2.0890 630.00 0.0015873 675.84 1286.2 2.0890 2.6824 3.0494 1918.5 -0.0048894 272.71 0.22993 630.00 0.0015873 675.84 1286.2 2.0890 2.6824 3.0494 1918.5 -0.0048894 272.71 0.22993
249.38 55909. undefined 678.53 1290.4 2.0941 630.00 0.0015873 678.53 1290.4 2.0941 2.6861 3.0527 1919.5 -0.0048844 272.67 0.23020 630.00 0.0015873 678.53 1290.4 2.0941 2.6861 3.0527 1919.5 -0.0048844 272.67 0.23020
250.38 56047. undefined 681.21 1294.6 2.0993 630.00 0.0015873 681.21 1294.6 2.0993 2.6897 3.0560 1920.4 -0.0048793 272.64 0.23047 630.00 0.0015873 681.21 1294.6 2.0993 2.6897 3.0560 1920.4 -0.0048793 272.64 0.23047
251.38 56184. undefined 683.90 1298.8 2.1044 630.00 0.0015873 683.90 1298.8 2.1044 2.6934 3.0593 1921.3 -0.0048743 272.61 0.23074 630.00 0.0015873 683.90 1298.8 2.1044 2.6934 3.0593 1921.3 -0.0048743 272.61 0.23074
252.38 56322. undefined 686.60 1303.0 2.1095 630.00 0.0015873 686.60 1303.0 2.1095 2.6970 3.0626 1922.3 -0.0048693 272.58 0.23101 630.00 0.0015873 686.60 1303.0 2.1095 2.6970 3.0626 1922.3 -0.0048693 272.58 0.23101
253.38 56459. undefined 689.30 1307.2 2.1147 630.00 0.0015873 689.30 1307.2 2.1147 2.7007 3.0659 1923.2 -0.0048643 272.55 0.23128 630.00 0.0015873 689.30 1307.2 2.1147 2.7007 3.0659 1923.2 -0.0048643 272.55 0.23128
254.38 56597. undefined 692.00 1311.4 2.1198 630.00 0.0015873 692.00 1311.4 2.1198 2.7043 3.0692 1924.2 -0.0048593 272.52 0.23155 630.00 0.0015873 692.00 1311.4 2.1198 2.7043 3.0692 1924.2 -0.0048593 272.52 0.23155
255.38 56734. undefined 694.71 1315.6 2.1249 630.00 0.0015873 694.71 1315.6 2.1249 2.7079 3.0725 1925.1 -0.0048543 272.49 0.23182 630.00 0.0015873 694.71 1315.6 2.1249 2.7079 3.0725 1925.1 -0.0048543 272.49 0.23182
256.38 56871. undefined 697.42 1319.8 2.1300 630.00 0.0015873 697.42 1319.8 2.1300 2.7116 3.0758 1926.0 -0.0048494 272.46 0.23209 630.00 0.0015873 697.42 1319.8 2.1300 2.7116 3.0758 1926.0 -0.0048494 272.46 0.23209
257.38 57008. undefined 700.13 1324.0 2.1352 630.00 0.0015873 700.13 1324.0 2.1352 2.7152 3.0790 1927.0 -0.0048445 272.43 0.23236 630.00 0.0015873 700.13 1324.0 2.1352 2.7152 3.0790 1927.0 -0.0048445 272.43 0.23236
258.38 57145. undefined 702.85 1328.2 2.1403 630.00 0.0015873 702.85 1328.2 2.1403 2.7188 3.0823 1927.9 -0.0048395 272.40 0.23264 630.00 0.0015873 702.85 1328.2 2.1403 2.7188 3.0823 1927.9 -0.0048395 272.40 0.23264
259.38 57282. undefined 705.57 1332.5 2.1454 630.00 0.0015873 705.57 1332.5 2.1454 2.7224 3.0856 1928.9 -0.0048346 272.37 0.23291 630.00 0.0015873 705.57 1332.5 2.1454 2.7224 3.0856 1928.9 -0.0048346 272.37 0.23291
260.38 57418. undefined 708.29 1336.7 2.1505 630.00 0.0015873 708.29 1336.7 2.1505 2.7260 3.0889 1929.8 -0.0048297 272.34 0.23318 630.00 0.0015873 708.29 1336.7 2.1505 2.7260 3.0889 1929.8 -0.0048297 272.34 0.23318
261.38 57555. undefined 711.02 1340.9 2.1556 630.00 0.0015873 711.02 1340.9 2.1556 2.7296 3.0921 1930.7 -0.0048249 272.31 0.23345 630.00 0.0015873 711.02 1340.9 2.1556 2.7296 3.0921 1930.7 -0.0048249 272.31 0.23345
262.38 57691. undefined 713.75 1345.1 2.1607 630.00 0.0015873 713.75 1345.1 2.1607 2.7332 3.0954 1931.6 -0.0048200 272.28 0.23372 630.00 0.0015873 713.75 1345.1 2.1607 2.7332 3.0954 1931.6 -0.0048200 272.28 0.23372
263.38 57828. undefined 716.49 1349.4 2.1658 630.00 0.0015873 716.49 1349.4 2.1658 2.7368 3.0986 1932.6 -0.0048152 272.25 0.23400 630.00 0.0015873 716.49 1349.4 2.1658 2.7368 3.0986 1932.6 -0.0048152 272.25 0.23400
264.38 57964. undefined 719.23 1353.6 2.1709 630.00 0.0015873 719.23 1353.6 2.1709 2.7404 3.1019 1933.5 -0.0048103 272.23 0.23427 630.00 0.0015873 719.23 1353.6 2.1709 2.7404 3.1019 1933.5 -0.0048103 272.23 0.23427
265.38 58100. undefined 721.97 1357.8 2.1760 630.00 0.0015873 721.97 1357.8 2.1760 2.7440 3.1051 1934.4 -0.0048055 272.20 0.23454 630.00 0.0015873 721.97 1357.8 2.1760 2.7440 3.1051 1934.4 -0.0048055 272.20 0.23454
266.38 58236. undefined 724.71 1362.1 2.1811 630.00 0.0015873 724.71 1362.1 2.1811 2.7476 3.1084 1935.4 -0.0048007 272.17 0.23482 630.00 0.0015873 724.71 1362.1 2.1811 2.7476 3.1084 1935.4 -0.0048007 272.17 0.23482
267.38 58372. undefined 727.46 1366.3 2.1862 630.00 0.0015873 727.46 1366.3 2.1862 2.7511 3.1116 1936.3 -0.0047959 272.14 0.23509 630.00 0.0015873 727.46 1366.3 2.1862 2.7511 3.1116 1936.3 -0.0047959 272.14 0.23509
268.38 58508. undefined 730.22 1370.5 2.1913 630.00 0.0015873 730.22 1370.5 2.1913 2.7547 3.1149 1937.2 -0.0047912 272.12 0.23536 630.00 0.0015873 730.22 1370.5 2.1913 2.7547 3.1149 1937.2 -0.0047912 272.12 0.23536
269.38 58643. undefined 732.97 1374.8 2.1964 630.00 0.0015873 732.97 1374.8 2.1964 2.7582 3.1181 1938.1 -0.0047864 272.09 0.23564 630.00 0.0015873 732.97 1374.8 2.1964 2.7582 3.1181 1938.1 -0.0047864 272.09 0.23564
270.38 58779. undefined 735.73 1379.0 2.2015 630.00 0.0015873 735.73 1379.0 2.2015 2.7618 3.1213 1939.1 -0.0047817 272.06 0.23591 630.00 0.0015873 735.73 1379.0 2.2015 2.7618 3.1213 1939.1 -0.0047817 272.06 0.23591
271.38 58914. undefined 738.50 1383.3 2.2065 630.00 0.0015873 738.50 1383.3 2.2065 2.7654 3.1245 1940.0 -0.0047770 272.04 0.23619 630.00 0.0015873 738.50 1383.3 2.2065 2.7654 3.1245 1940.0 -0.0047770 272.04 0.23619
272.38 59050. undefined 741.26 1387.5 2.2116 630.00 0.0015873 741.26 1387.5 2.2116 2.7689 3.1278 1940.9 -0.0047722 272.01 0.23647 630.00 0.0015873 741.26 1387.5 2.2116 2.7689 3.1278 1940.9 -0.0047722 272.01 0.23647
273.38 59185. undefined 744.03 1391.8 2.2167 630.00 0.0015873 744.03 1391.8 2.2167 2.7724 3.1310 1941.8 -0.0047675 271.98 0.23674 630.00 0.0015873 744.03 1391.8 2.2167 2.7724 3.1310 1941.8 -0.0047675 271.98 0.23674
274.38 59320. undefined 746.81 1396.0 2.2218 630.00 0.0015873 746.81 1396.0 2.2218 2.7760 3.1342 1942.7 -0.0047629 271.96 0.23702 630.00 0.0015873 746.81 1396.0 2.2218 2.7760 3.1342 1942.7 -0.0047629 271.96 0.23702
275.38 59455. undefined 749.59 1400.3 2.2268 630.00 0.0015873 749.59 1400.3 2.2268 2.7795 3.1374 1943.6 -0.0047582 271.93 0.23729 630.00 0.0015873 749.59 1400.3 2.2268 2.7795 3.1374 1943.6 -0.0047582 271.93 0.23729
276.38 59590. undefined 752.37 1404.5 2.2319 630.00 0.0015873 752.37 1404.5 2.2319 2.7830 3.1406 1944.6 -0.0047535 271.91 0.23757 630.00 0.0015873 752.37 1404.5 2.2319 2.7830 3.1406 1944.6 -0.0047535 271.91 0.23757
277.38 59725. undefined 755.15 1408.8 2.2370 630.00 0.0015873 755.15 1408.8 2.2370 2.7865 3.1438 1945.5 -0.0047489 271.88 0.23785 630.00 0.0015873 755.15 1408.8 2.2370 2.7865 3.1438 1945.5 -0.0047489 271.88 0.23785
278.38 59860. undefined 757.94 1413.1 2.2420 630.00 0.0015873 757.94 1413.1 2.2420 2.7901 3.1470 1946.4 -0.0047443 271.86 0.23812 630.00 0.0015873 757.94 1413.1 2.2420 2.7901 3.1470 1946.4 -0.0047443 271.86 0.23812
279.38 59995. undefined 760.73 1417.3 2.2471 630.00 0.0015873 760.73 1417.3 2.2471 2.7936 3.1502 1947.3 -0.0047397 271.83 0.23840 630.00 0.0015873 760.73 1417.3 2.2471 2.7936 3.1502 1947.3 -0.0047397 271.83 0.23840
280.38 60129. undefined 763.53 1421.6 2.2521 630.00 0.0015873 763.53 1421.6 2.2521 2.7971 3.1534 1948.2 -0.0047351 271.81 0.23868 630.00 0.0015873 763.53 1421.6 2.2521 2.7971 3.1534 1948.2 -0.0047351 271.81 0.23868
281.38 60264. undefined 766.33 1425.9 2.2572 630.00 0.0015873 766.33 1425.9 2.2572 2.8006 3.1565 1949.1 -0.0047305 271.78 0.23896 630.00 0.0015873 766.33 1425.9 2.2572 2.8006 3.1565 1949.1 -0.0047305 271.78 0.23896
282.38 60398. undefined 769.13 1430.1 2.2622 630.00 0.0015873 769.13 1430.1 2.2622 2.8041 3.1597 1950.0 -0.0047259 271.76 0.23908 630.00 0.0015873 769.13 1430.1 2.2622 2.8041 3.1597 1950.0 -0.0047259 271.76 0.23908
283.38 60532. undefined 771.93 1434.4 2.2673 630.00 0.0015873 771.93 1434.4 2.2673 2.8075 3.1629 1950.9 -0.0047214 271.74 0.23936 630.00 0.0015873 771.93 1434.4 2.2673 2.8075 3.1629 1950.9 -0.0047214 271.74 0.23936
284.38 60666. undefined 774.74 1438.7 2.2723 630.00 0.0015873 774.74 1438.7 2.2723 2.8110 3.1661 1951.8 -0.0047168 271.71 0.23964 630.00 0.0015873 774.74 1438.7 2.2723 2.8110 3.1661 1951.8 -0.0047168 271.71 0.23964
285.38 60800. undefined 777.56 1443.0 2.2774 630.00 0.0015873 777.56 1443.0 2.2774 2.8145 3.1692 1952.7 -0.0047123 271.69 0.23992 630.00 0.0015873 777.56 1443.0 2.2774 2.8145 3.1692 1952.7 -0.0047123 271.69 0.23992
286.38 60934. undefined 780.37 1447.2 2.2824 630.00 0.0015873 780.37 1447.2 2.2824 2.8180 3.1724 1953.6 -0.0047078 271.67 0.24020 630.00 0.0015873 780.37 1447.2 2.2824 2.8180 3.1724 1953.6 -0.0047078 271.67 0.24020
287.38 61068. undefined 783.19 1451.5 2.2874 630.00 0.0015873 783.19 1451.5 2.2874 2.8214 3.1756 1954.6 -0.0047033 271.64 0.24047 630.00 0.0015873 783.19 1451.5 2.2874 2.8214 3.1756 1954.6 -0.0047033 271.64 0.24047
288.38 61202. undefined 786.02 1455.8 2.2925 630.00 0.0015873 786.02 1455.8 2.2925 2.8249 3.1787 1955.5 -0.0046988 271.62 0.24075 630.00 0.0015873 786.02 1455.8 2.2925 2.8249 3.1787 1955.5 -0.0046988 271.62 0.24075
289.38 61336. undefined 788.84 1460.1 2.2975 630.00 0.0015873 788.84 1460.1 2.2975 2.8284 3.1819 1956.4 -0.0046943 271.60 0.24103 630.00 0.0015873 788.84 1460.1 2.2975 2.8284 3.1819 1956.4 -0.0046943 271.60 0.24103
290.38 61469. undefined 791.67 1464.4 2.3025 630.00 0.0015873 791.67 1464.4 2.3025 2.8318 3.1850 1957.3 -0.0046899 271.58 0.24131 630.00 0.0015873 791.67 1464.4 2.3025 2.8318 3.1850 1957.3 -0.0046899 271.58 0.24131
291.38 61603. undefined 794.51 1468.7 2.3076 630.00 0.0015873 794.51 1468.7 2.3076 2.8353 3.1882 1958.2 -0.0046854 271.55 0.24159 630.00 0.0015873 794.51 1468.7 2.3076 2.8353 3.1882 1958.2 -0.0046854 271.55 0.24159
292.38 61736. undefined 797.34 1473.0 2.3126 630.00 0.0015873 797.34 1473.0 2.3126 2.8387 3.1913 1959.1 -0.0046810 271.53 0.24188 630.00 0.0015873 797.34 1473.0 2.3126 2.8387 3.1913 1959.1 -0.0046810 271.53 0.24188
293.38 61869. undefined 800.18 1477.3 2.3176 630.00 0.0015873 800.18 1477.3 2.3176 2.8421 3.1944 1959.9 -0.0046766 271.51 0.24216 630.00 0.0015873 800.18 1477.3 2.3176 2.8421 3.1944 1959.9 -0.0046766 271.51 0.24216
294.38 62002. undefined 803.03 1481.6 2.3226 630.00 0.0015873 803.03 1481.6 2.3226 2.8456 3.1976 1960.8 -0.0046722 271.49 0.24244 630.00 0.0015873 803.03 1481.6 2.3226 2.8456 3.1976 1960.8 -0.0046722 271.49 0.24244
295.38 62136. undefined 805.87 1485.9 2.3276 630.00 0.0015873 805.87 1485.9 2.3276 2.8490 3.2007 1961.7 -0.0046678 271.47 0.24272 630.00 0.0015873 805.87 1485.9 2.3276 2.8490 3.2007 1961.7 -0.0046678 271.47 0.24272
296.38 62269. undefined 808.72 1490.2 2.3326 630.00 0.0015873 808.72 1490.2 2.3326 2.8524 3.2038 1962.6 -0.0046634 271.45 0.24300 630.00 0.0015873 808.72 1490.2 2.3326 2.8524 3.2038 1962.6 -0.0046634 271.45 0.24300
297.38 62401. undefined 811.58 1494.5 2.3376 630.00 0.0015873 811.58 1494.5 2.3376 2.8558 3.2069 1963.5 -0.0046590 271.42 0.24328 630.00 0.0015873 811.58 1494.5 2.3376 2.8558 3.2069 1963.5 -0.0046590 271.42 0.24328
298.38 62534. undefined 814.44 1498.8 2.3426 630.00 0.0015873 814.44 1498.8 2.3426 2.8592 3.2100 1964.4 -0.0046547 271.40 0.24357 630.00 0.0015873 814.44 1498.8 2.3426 2.8592 3.2100 1964.4 -0.0046547 271.40 0.24357
299.38 62667. undefined 817.30 1503.1 2.3476 630.00 0.0015873 817.30 1503.1 2.3476 2.8627 3.2131 1965.3 -0.0046503 271.38 0.24385 630.00 0.0015873 817.30 1503.1 2.3476 2.8627 3.2131 1965.3 -0.0046503 271.38 0.24385
300.38 62799. undefined 820.16 1507.4 2.3526 630.00 0.0015873 820.16 1507.4 2.3526 2.8661 3.2163 1966.2 -0.0046460 271.36 0.24413 630.00 0.0015873 820.16 1507.4 2.3526 2.8661 3.2163 1966.2 -0.0046460 271.36 0.24413