Temperature (C) Pressure (psia) Quality (l+v) Internal Energy (l+v, kJ/kg) Enthalpy (l+v, kJ/kg) Entropy (l+v, J/g*K) Density (l, kg/m3) Volume (l, m3/kg) Internal Energy (l, kJ/kg) Enthalpy (l, kJ/kg) Entropy (l, J/g*K) Cv (l, J/g*K) Cp (l, J/g*K) Sound Spd. (l, m/s) Joule-Thomson (l, F/psia) Viscosity (l, uPa*s) Therm. Cond. (l, W/m*K) Density (v, kg/m3) Volume (v, m3/kg) Internal Energy (v, kJ/kg) Enthalpy (v, kJ/kg) Entropy (v, J/g*K) Cv (v, J/g*K) Cp (v, J/g*K) Sound Spd. (v, m/s) Joule-Thomson (v, F/psia) Viscosity (v, uPa*s) Therm. Cond. (v, W/m*K)
-187.62 2.4953e-08 2.1175e-12 -196.64 -196.64 -1.3959 733.13 0.0013640 -196.64 -196.64 -1.3959 1.3553 1.9158 2136.4 -0.0077592 10960. 0.20792 1.0669e-08 9.3732e+07 350.13 366.26 5.1858 0.69067 0.87923 143.28 6.1051 2.3259 0.0017061
-186.62 3.7339e-08 3.1013e-12 -194.73 -194.73 -1.3736 732.08 0.0013660 -194.73 -194.73 -1.3736 1.3539 1.9166 2129.6 -0.0077546 10073. 0.20765 1.5780e-08 6.3371e+07 350.82 367.14 5.1200 0.69462 0.88317 144.03 5.9178 2.3534 0.0017533
-185.62 5.5322e-08 4.4973e-12 -192.81 -192.81 -1.3516 731.04 0.0013679 -192.81 -192.81 -1.3516 1.3525 1.9174 2122.9 -0.0077498 9276.1 0.20737 2.3112e-08 4.3267e+07 351.52 368.02 5.0561 0.69857 0.88713 144.77 5.7383 2.3808 0.0018007
-184.62 8.1182e-08 6.4596e-12 -190.89 -190.89 -1.3298 730.00 0.0013699 -190.89 -190.89 -1.3298 1.3513 1.9182 2116.1 -0.0077448 8557.8 0.20708 3.3533e-08 2.9821e+07 352.22 368.91 4.9939 0.70253 0.89108 145.51 5.5662 2.4083 0.0018485
-183.62 1.1803e-07 9.1928e-12 -188.97 -188.97 -1.3083 728.96 0.0013718 -188.97 -188.97 -1.3083 1.3501 1.9191 2109.3 -0.0077395 7909.8 0.20678 4.8211e-08 2.0742e+07 352.92 369.81 4.9333 0.70648 0.89504 146.24 5.4011 2.4357 0.0018965
-182.62 1.7009e-07 1.2966e-11 -187.05 -187.05 -1.2869 727.92 0.0013738 -187.05 -187.05 -1.2869 1.3490 1.9201 2102.5 -0.0077340 7324.3 0.20647 6.8704e-08 1.4555e+07 353.63 370.70 4.8744 0.71043 0.89899 146.97 5.2426 2.4632 0.0019448
-181.62 2.4299e-07 1.8131e-11 -185.13 -185.13 -1.2658 726.88 0.0013757 -185.13 -185.13 -1.2658 1.3480 1.9210 2095.7 -0.0077283 6794.5 0.20616 9.7079e-08 1.0301e+07 354.35 371.60 4.8170 0.71438 0.90294 147.69 5.0904 2.4906 0.0019934
-180.62 3.4425e-07 2.5142e-11 -183.21 -183.21 -1.2450 725.85 0.0013777 -183.21 -183.21 -1.2450 1.3470 1.9220 2088.9 -0.0077225 6314.4 0.20584 1.3605e-07 7.3504e+06 355.06 372.51 4.7612 0.71833 0.90688 148.41 4.9442 2.5181 0.0020423
-179.62 4.8378e-07 3.4583e-11 -181.29 -181.29 -1.2243 724.81 0.0013797 -181.29 -181.29 -1.2243 1.3461 1.9231 2082.0 -0.0077164 5878.8 0.20551 1.8915e-07 5.2868e+06 355.78 373.42 4.7068 0.72227 0.91082 149.13 4.8038 2.5456 0.0020915
-178.62 6.7459e-07 4.7200e-11 -179.37 -179.37 -1.2038 723.78 0.0013816 -179.37 -179.37 -1.2038 1.3453 1.9241 2075.2 -0.0077102 5482.9 0.20517 2.6096e-07 3.8320e+06 356.51 374.33 4.6538 0.72620 0.91475 149.84 4.6688 2.5731 0.0021410
-177.62 9.3358e-07 6.3932e-11 -177.44 -177.44 -1.1836 722.75 0.0013836 -177.44 -177.44 -1.1836 1.3445 1.9252 2068.4 -0.0077039 5122.6 0.20483 3.5737e-07 2.7982e+06 357.23 375.25 4.6022 0.73012 0.91867 150.54 4.5390 2.6005 0.0021907
-176.62 1.2826e-06 8.5962e-11 -175.52 -175.52 -1.1635 721.72 0.0013856 -175.52 -175.52 -1.1635 1.3437 1.9263 2061.5 -0.0076973 4794.1 0.20447 4.8588e-07 2.0581e+06 357.97 376.17 4.5519 0.73403 0.92258 151.25 4.4142 2.6280 0.0022408
-175.62 1.7496e-06 1.1476e-10 -173.59 -173.59 -1.1437 720.69 0.0013876 -173.59 -173.59 -1.1437 1.3430 1.9274 2054.7 -0.0076907 4494.3 0.20411 6.5601e-07 1.5244e+06 358.70 377.09 4.5029 0.73792 0.92648 151.95 4.2941 2.6555 0.0022912
-174.62 2.3705e-06 1.5216e-10 -171.66 -171.66 -1.1240 719.66 0.0013895 -171.66 -171.66 -1.1240 1.3423 1.9286 2047.9 -0.0076838 4220.2 0.20375 8.7976e-07 1.1367e+06 359.44 378.02 4.4551 0.74181 0.93036 152.64 4.1784 2.6830 0.0023418
-173.62 3.1903e-06 2.0040e-10 -169.73 -169.73 -1.1045 718.64 0.0013915 -169.73 -169.73 -1.1045 1.3417 1.9298 2041.0 -0.0076769 3969.3 0.20338 1.1721e-06 8.5314e+05 360.19 378.95 4.4085 0.74568 0.93423 153.33 4.0671 2.7105 0.0023928
-172.62 4.2661e-06 2.6223e-10 -167.80 -167.80 -1.0852 717.61 0.0013935 -167.80 -167.80 -1.0852 1.3411 1.9310 2034.2 -0.0076698 3739.3 0.20300 1.5518e-06 6.4441e+05 360.93 379.89 4.3631 0.74953 0.93809 154.02 3.9599 2.7379 0.0024440
-171.62 5.6692e-06 3.4098e-10 -165.87 -165.87 -1.0661 716.58 0.0013955 -165.87 -165.87 -1.0661 1.3405 1.9322 2027.3 -0.0076625 3528.0 0.20261 2.0419e-06 4.8974e+05 361.69 380.83 4.3188 0.75337 0.94193 154.71 3.8566 2.7654 0.0024955
-170.62 7.4884e-06 4.4067e-10 -163.94 -163.94 -1.0472 715.56 0.0013975 -163.94 -163.94 -1.0472 1.3400 1.9334 2020.5 -0.0076552 3333.8 0.20222 2.6708e-06 3.7442e+05 362.44 381.77 4.2755 0.75720 0.94575 155.39 3.7570 2.7929 0.0025473
-169.62 9.8334e-06 5.6612e-10 -162.00 -162.00 -1.0284 714.54 0.0013995 -162.00 -162.00 -1.0284 1.3395 1.9347 2013.6 -0.0076477 3154.9 0.20182 3.4733e-06 2.8791e+05 363.20 382.72 4.2334 0.76100 0.94956 156.07 3.6609 2.8204 0.0025994
-168.62 1.2839e-05 7.2311e-10 -160.07 -160.07 -1.0098 713.52 0.0014015 -160.07 -160.07 -1.0098 1.3390 1.9359 2006.8 -0.0076401 2989.9 0.20141 4.4917e-06 2.2263e+05 363.96 383.67 4.1922 0.76479 0.95335 156.74 3.5683 2.8479 0.0026518
-167.62 1.6672e-05 9.1845e-10 -158.13 -158.13 -0.99134 712.49 0.0014035 -158.13 -158.13 -0.99134 1.3386 1.9372 2000.0 -0.0076323 2837.5 0.20100 5.7771e-06 1.7310e+05 364.73 384.63 4.1521 0.76856 0.95712 157.41 3.4790 2.8754 0.0027045
-166.62 2.1533e-05 1.1602e-09 -156.19 -156.19 -0.97306 711.47 0.0014055 -156.19 -156.19 -0.97306 1.3382 1.9385 1993.1 -0.0076245 2696.5 0.20058 7.3914e-06 1.3529e+05 365.50 385.59 4.1129 0.77232 0.96087 158.08 3.3927 2.9029 0.0027575
-165.62 2.7666e-05 1.4578e-09 -154.25 -154.25 -0.95494 710.45 0.0014075 -154.25 -154.25 -0.95494 1.3378 1.9398 1986.3 -0.0076165 2566.0 0.20016 9.4084e-06 1.0629e+05 366.27 386.55 4.0746 0.77605 0.96460 158.75 3.3095 2.9304 0.0028108
-164.62 3.5367e-05 1.8224e-09 -152.31 -152.31 -0.93698 709.44 0.0014096 -152.31 -152.31 -0.93698 1.3375 1.9411 1979.4 -0.0076084 2444.9 0.19973 1.1916e-05 83918. 367.05 387.52 4.0372 0.77976 0.96832 159.41 3.2291 2.9579 0.0028643
-163.62 4.4989e-05 2.2666e-09 -150.37 -150.37 -0.91917 708.42 0.0014116 -150.37 -150.37 -0.91917 1.3371 1.9424 1972.6 -0.0076002 2332.3 0.19930 1.5020e-05 66577. 367.83 388.49 4.0008 0.78346 0.97201 160.07 3.1514 2.9854 0.0029182
-162.62 5.6956e-05 2.8053e-09 -148.43 -148.43 -0.90151 707.40 0.0014136 -148.43 -148.43 -0.90151 1.3368 1.9437 1965.8 -0.0075919 2227.7 0.19886 1.8844e-05 53068. 368.62 389.46 3.9651 0.78713 0.97569 160.72 3.0764 3.0129 0.0029723
-161.62 7.1773e-05 3.4555e-09 -146.48 -146.48 -0.88400 706.38 0.0014157 -146.48 -146.48 -0.88400 1.3365 1.9451 1959.0 -0.0075834 2130.2 0.19841 2.3533e-05 42494. 369.41 390.44 3.9304 0.79079 0.97935 161.38 3.0038 3.0404 0.0030268
-160.62 9.0036e-05 4.2367e-09 -144.54 -144.54 -0.86663 705.37 0.0014177 -144.54 -144.54 -0.86663 1.3363 1.9465 1952.1 -0.0075748 2039.2 0.19796 2.9258e-05 34178. 370.20 391.42 3.8964 0.79443 0.98298 162.03 2.9337 3.0679 0.0030815
-159.62 0.00011245 5.1708e-09 -142.59 -142.59 -0.84940 704.35 0.0014197 -142.59 -142.59 -0.84940 1.3360 1.9478 1945.3 -0.0075661 1954.2 0.19751 3.6221e-05 27609. 371.00 392.40 3.8632 0.79805 0.98660 162.68 2.8658 3.0955 0.0031365
-158.62 0.00013985 6.2830e-09 -140.64 -140.64 -0.83231 703.34 0.0014218 -140.64 -140.64 -0.83231 1.3358 1.9492 1938.5 -0.0075573 1874.8 0.19705 4.4652e-05 22395. 371.80 393.39 3.8307 0.80164 0.99020 163.32 2.8002 3.1230 0.0031918
-157.62 0.00017320 7.6014e-09 -138.69 -138.69 -0.81536 702.32 0.0014238 -138.69 -138.69 -0.81536 1.3356 1.9506 1931.7 -0.0075484 1800.3 0.19658 5.4822e-05 18241. 372.60 394.38 3.7990 0.80522 0.99378 163.96 2.7367 3.1505 0.0032474
-156.62 0.00021364 9.1577e-09 -136.74 -136.74 -0.79854 701.31 0.0014259 -136.74 -136.74 -0.79854 1.3354 1.9520 1924.9 -0.0075393 1730.5 0.19611 6.7040e-05 14916. 373.41 395.38 3.7680 0.80878 0.99734 164.60 2.6752 3.1780 0.0033033
-155.62 0.00026248 1.0987e-08 -134.79 -134.79 -0.78185 700.30 0.0014280 -134.79 -134.79 -0.78185 1.3352 1.9534 1918.1 -0.0075302 1664.9 0.19564 8.1666e-05 12245. 374.22 396.38 3.7377 0.81232 1.0009 165.24 2.6157 3.2055 0.0033595
-154.62 0.00032125 1.3129e-08 -132.83 -132.83 -0.76530 699.29 0.0014300 -132.83 -132.83 -0.76530 1.3350 1.9548 1911.3 -0.0075209 1603.3 0.19516 9.9109e-05 10090. 375.03 397.38 3.7081 0.81585 1.0044 165.87 2.5580 3.2330 0.0034160
-153.62 0.00039171 1.5626e-08 -130.88 -130.88 -0.74887 698.27 0.0014321 -130.88 -130.88 -0.74887 1.3349 1.9563 1904.5 -0.0075114 1545.3 0.19468 0.00011984 8344.6 375.85 398.39 3.6792 0.81935 1.0079 166.50 2.5022 3.2606 0.0034727
-152.62 0.00047590 1.8527e-08 -128.92 -128.92 -0.73256 697.26 0.0014342 -128.92 -128.92 -0.73256 1.3348 1.9577 1897.8 -0.0075019 1490.6 0.19419 0.00014439 6925.9 376.67 399.40 3.6509 0.82284 1.0114 167.13 2.4481 3.2881 0.0035298
-151.62 0.00057613 2.1884e-08 -126.96 -126.96 -0.71638 696.25 0.0014363 -126.96 -126.96 -0.71638 1.3346 1.9592 1891.0 -0.0074922 1438.9 0.19370 0.00017336 5768.4 377.49 400.41 3.6232 0.82631 1.0149 167.76 2.3957 3.3156 0.0035872
-150.62 0.00069507 2.5753e-08 -125.00 -125.00 -0.70032 695.24 0.0014384 -125.00 -125.00 -0.70032 1.3345 1.9606 1884.2 -0.0074824 1390.2 0.19320 0.00020744 4820.7 378.32 401.42 3.5962 0.82976 1.0183 168.38 2.3448 3.3431 0.0036448
-149.62 0.00083574 3.0196e-08 -123.04 -123.04 -0.68438 694.23 0.0014404 -123.04 -123.04 -0.68438 1.3345 1.9621 1877.4 -0.0074724 1344.0 0.19270 0.00024740 4042.0 379.15 402.44 3.5697 0.83319 1.0218 169.00 2.2956 3.3706 0.0037027
-148.62 0.0010016 3.5280e-08 -121.08 -121.08 -0.66855 693.22 0.0014425 -121.08 -121.08 -0.66855 1.3344 1.9636 1870.7 -0.0074623 1300.3 0.19220 0.00029412 3400.0 379.99 403.47 3.5438 0.83661 1.0252 169.62 2.2478 3.3982 0.0037610
-147.62 0.0011965 4.1076e-08 -119.11 -119.11 -0.65284 692.21 0.0014447 -119.11 -119.11 -0.65284 1.3343 1.9651 1863.9 -0.0074521 1258.9 0.19169 0.00034856 2869.0 380.83 404.49 3.5185 0.84001 1.0286 170.24 2.2014 3.4257 0.0038195
-146.62 0.0014249 4.7661e-08 -117.15 -117.15 -0.63724 691.20 0.0014468 -117.15 -117.15 -0.63724 1.3343 1.9666 1857.2 -0.0074417 1219.6 0.19117 0.00041181 2428.3 381.67 405.52 3.4938 0.84340 1.0320 170.85 2.1565 3.4532 0.0038783
-145.62 0.0016917 5.5115e-08 -115.18 -115.18 -0.62175 690.19 0.0014489 -115.18 -115.18 -0.62175 1.3343 1.9682 1850.4 -0.0074312 1182.3 0.19066 0.00048510 2061.4 382.51 406.56 3.4695 0.84677 1.0353 171.46 2.1128 3.4807 0.0039374
-144.62 0.0020026 6.3525e-08 -113.21 -113.21 -0.60637 689.18 0.0014510 -113.21 -113.21 -0.60637 1.3343 1.9697 1843.7 -0.0074206 1146.8 0.19014 0.00056976 1755.1 383.36 407.59 3.4458 0.85012 1.0387 172.07 2.0705 3.5082 0.0039967
-143.62 0.0023637 7.2980e-08 -111.24 -111.24 -0.59110 688.17 0.0014531 -111.24 -111.24 -0.59110 1.3343 1.9713 1836.9 -0.0074098 1113.0 0.18962 0.00066731 1498.6 384.21 408.63 3.4226 0.85346 1.0420 172.68 2.0294 3.5358 0.0040564
-142.62 0.0027820 8.3573e-08 -109.27 -109.27 -0.57593 687.16 0.0014553 -109.27 -109.27 -0.57593 1.3343 1.9728 1830.2 -0.0073988 1080.8 0.18909 0.00077939 1283.1 385.07 409.68 3.3999 0.85679 1.0454 173.28 1.9896 3.5633 0.0041164
-141.62 0.0032653 9.5403e-08 -107.30 -107.30 -0.56087 686.15 0.0014574 -107.30 -107.30 -0.56087 1.3343 1.9744 1823.5 -0.0073878 1050.1 0.18856 0.00090784 1101.5 385.93 410.72 3.3777 0.86011 1.0487 173.88 1.9508 3.5908 0.0041766
-140.62 0.0038222 1.0857e-07 -105.32 -105.32 -0.54591 685.14 0.0014596 -105.32 -105.32 -0.54591 1.3344 1.9760 1816.7 -0.0073765 1020.7 0.18803 0.0010547 948.16 386.79 411.77 3.3560 0.86341 1.0520 174.48 1.9133 3.6183 0.0042372
-139.62 0.0044623 1.2317e-07 -103.34 -103.34 -0.53105 684.13 0.0014617 -103.34 -103.34 -0.53105 1.3344 1.9776 1810.0 -0.0073651 992.74 0.18749 0.0012221 818.26 387.65 412.83 3.3347 0.86670 1.0553 175.08 1.8768 3.6459 0.0042980
-138.62 0.0051963 1.3931e-07 -101.37 -101.37 -0.51629 683.12 0.0014639 -101.37 -101.37 -0.51629 1.3345 1.9792 1803.3 -0.0073536 965.97 0.18695 0.0014125 707.94 388.52 413.88 3.3139 0.86998 1.0586 175.67 1.8413 3.6734 0.0043592
-137.62 0.0060358 1.5710e-07 -99.386 -99.386 -0.50162 682.11 0.0014660 -99.386 -99.386 -0.50162 1.3346 1.9808 1796.6 -0.0073419 940.35 0.18641 0.0016287 614.00 389.39 414.94 3.2935 0.87325 1.0619 176.26 1.8069 3.7009 0.0044206
-136.62 0.0069938 1.7662e-07 -97.404 -97.404 -0.48705 681.10 0.0014682 -97.404 -97.404 -0.48705 1.3347 1.9825 1789.9 -0.0073301 915.81 0.18586 0.0018733 533.80 390.26 416.00 3.2735 0.87650 1.0651 176.85 1.7734 3.7284 0.0044823
-135.62 0.0080843 1.9799e-07 -95.421 -95.421 -0.47258 680.09 0.0014704 -95.421 -95.421 -0.47258 1.3348 1.9841 1783.2 -0.0073180 892.30 0.18531 0.0021497 465.17 391.14 417.07 3.2540 0.87975 1.0684 177.44 1.7409 3.7559 0.0045443
-134.62 0.0093230 2.2130e-07 -93.436 -93.436 -0.45820 679.08 0.0014726 -93.436 -93.436 -0.45820 1.3350 1.9858 1776.5 -0.0073059 869.75 0.18476 0.0024613 406.30 392.02 418.14 3.2348 0.88299 1.0716 178.02 1.7093 3.7834 0.0046066
-133.62 0.010727 2.4663e-07 -91.449 -91.449 -0.44391 678.07 0.0014748 -91.450 -91.449 -0.44391 1.3351 1.9875 1769.8 -0.0072935 848.11 0.18421 0.0028116 355.67 392.91 419.21 3.2161 0.88622 1.0749 178.61 1.6786 3.8109 0.0046691
-132.62 0.012315 2.7407e-07 -89.461 -89.461 -0.42971 677.06 0.0014770 -89.461 -89.461 -0.42971 1.3353 1.9892 1763.1 -0.0072810 827.32 0.18365 0.0032049 312.03 393.79 420.29 3.1977 0.88944 1.0781 179.19 1.6488 3.8385 0.0047320
-131.62 0.014106 3.0368e-07 -87.471 -87.471 -0.41560 676.04 0.0014792 -87.471 -87.471 -0.41560 1.3354 1.9909 1756.4 -0.0072684 807.34 0.18309 0.0036453 274.33 394.68 421.36 3.1798 0.89266 1.0813 179.76 1.6197 3.8660 0.0047951
-130.62 0.016124 3.3551e-07 -85.479 -85.479 -0.40157 675.03 0.0014814 -85.479 -85.479 -0.40157 1.3356 1.9926 1749.7 -0.0072555 788.12 0.18253 0.0041375 241.69 395.58 422.44 3.1622 0.89586 1.0846 180.34 1.5915 3.8935 0.0048586
-129.62 0.018392 3.6962e-07 -83.486 -83.486 -0.38763 674.02 0.0014836 -83.486 -83.486 -0.38763 1.3358 1.9944 1743.0 -0.0072425 769.63 0.18196 0.0046867 213.37 396.47 423.53 3.1450 0.89906 1.0878 180.91 1.5641 3.9210 0.0049223
-128.62 0.020935 4.0602e-07 -81.490 -81.490 -0.37378 673.01 0.0014859 -81.491 -81.490 -0.37378 1.3360 1.9961 1736.3 -0.0072294 751.83 0.18140 0.0052981 188.75 397.37 424.62 3.1281 0.90226 1.0910 181.48 1.5374 3.9485 0.0049863
-127.62 0.023783 4.4471e-07 -79.493 -79.493 -0.36001 672.00 0.0014881 -79.494 -79.493 -0.36001 1.3363 1.9979 1729.6 -0.0072160 734.67 0.18083 0.0059776 167.29 398.27 425.71 3.1116 0.90545 1.0942 182.05 1.5114 3.9760 0.0050506
-126.62 0.026966 4.8566e-07 -77.495 -77.494 -0.34632 670.98 0.0014904 -77.495 -77.495 -0.34632 1.3365 1.9997 1722.9 -0.0072025 718.14 0.18025 0.0067313 148.56 399.18 426.80 3.0954 0.90863 1.0974 182.62 1.4861 4.0035 0.0051152
-125.62 0.030515 5.2881e-07 -75.494 -75.494 -0.33271 669.97 0.0014926 -75.494 -75.494 -0.33272 1.3368 2.0015 1716.2 -0.0071888 702.18 0.17968 0.0075660 132.17 400.09 427.89 3.0795 0.91181 1.1006 183.18 1.4615 4.0310 0.0051800
-124.62 0.034467 5.7408e-07 -73.492 -73.491 -0.31919 668.95 0.0014949 -73.492 -73.492 -0.31919 1.3371 2.0033 1709.5 -0.0071749 686.79 0.17910 0.0084885 117.81 401.00 428.99 3.0640 0.91499 1.1038 183.74 1.4375 4.0584 0.0052452
-123.62 0.038859 6.2134e-07 -71.487 -71.487 -0.30574 667.94 0.0014971 -71.488 -71.487 -0.30574 1.3374 2.0051 1702.8 -0.0071609 671.93 0.17852 0.0095065 105.19 401.91 430.10 3.0488 0.91816 1.1070 184.30 1.4141 4.0859 0.0053106
-122.62 0.043731 6.7041e-07 -69.481 -69.481 -0.29237 666.92 0.0014994 -69.482 -69.481 -0.29237 1.3377 2.0070 1696.2 -0.0071466 657.57 0.17794 0.010628 94.092 402.83 431.20 3.0339 0.92134 1.1102 184.86 1.3913 4.1134 0.0053764
-121.62 0.049128 7.2108e-07 -67.473 -67.473 -0.27907 665.91 0.0015017 -67.474 -67.473 -0.27907 1.3380 2.0089 1689.5 -0.0071322 643.70 0.17736 0.011861 84.309 403.75 432.31 3.0193 0.92451 1.1134 185.41 1.3691 4.1409 0.0054424
-120.62 0.055096 7.7307e-07 -65.464 -65.463 -0.26585 664.89 0.0015040 -65.464 -65.463 -0.26585 1.3384 2.0107 1682.8 -0.0071176 630.28 0.17678 0.013215 75.669 404.67 433.42 3.0050 0.92767 1.1166 185.96 1.3475 4.1683 0.0055087
-119.62 0.061684 8.2604e-07 -63.452 -63.451 -0.25270 663.87 0.0015063 -63.452 -63.452 -0.25271 1.3387 2.0126 1676.1 -0.0071028 617.30 0.17619 0.014700 68.027 405.60 434.53 2.9909 0.93084 1.1198 186.51 1.3264 4.1958 0.0055752
-118.62 0.068946 8.7961e-07 -61.438 -61.437 -0.23963 662.86 0.0015086 -61.439 -61.438 -0.23963 1.3391 2.0146 1669.4 -0.0070878 604.74 0.17560 0.016325 61.255 406.53 435.64 2.9772 0.93401 1.1231 187.06 1.3058 4.2233 0.0056421
-117.62 0.076937 9.3328e-07 -59.423 -59.422 -0.22663 661.84 0.0015109 -59.423 -59.422 -0.22663 1.3395 2.0165 1662.8 -0.0070726 592.58 0.17501 0.018101 55.245 407.46 436.76 2.9638 0.93718 1.1263 187.60 1.2857 4.2507 0.0057092
-116.62 0.085718 9.8653e-07 -57.405 -57.404 -0.21370 660.82 0.0015133 -57.406 -57.405 -0.21370 1.3400 2.0184 1656.1 -0.0070573 580.80 0.17442 0.020040 49.901 408.39 437.88 2.9506 0.94035 1.1295 188.14 1.2660 4.2782 0.0057767
-115.62 0.095353 1.0387e-06 -55.386 -55.385 -0.20084 659.80 0.0015156 -55.386 -55.385 -0.20084 1.3404 2.0204 1649.4 -0.0070417 569.38 0.17383 0.022152 45.142 409.33 439.01 2.9377 0.94352 1.1327 188.68 1.2468 4.3056 0.0058444
-114.62 0.10591 1.0891e-06 -53.364 -53.363 -0.18805 658.78 0.0015180 -53.365 -53.364 -0.18805 1.3409 2.0224 1642.7 -0.0070260 558.32 0.17323 0.024451 40.898 410.27 440.13 2.9250 0.94669 1.1360 189.22 1.2281 4.3330 0.0059123
-113.62 0.11746 1.1368e-06 -51.341 -51.340 -0.17532 657.76 0.0015203 -51.342 -51.340 -0.17533 1.3413 2.0244 1636.0 -0.0070100 547.59 0.17264 0.026949 37.107 411.21 441.26 2.9126 0.94987 1.1392 189.75 1.2097 4.3604 0.0059806
-112.62 0.13008 1.1810e-06 -49.316 -49.314 -0.16267 656.73 0.0015227 -49.316 -49.315 -0.16267 1.3418 2.0264 1629.3 -0.0069938 537.18 0.17204 0.029661 33.715 412.16 442.39 2.9005 0.95305 1.1424 190.28 1.1918 4.3879 0.0060491
-111.62 0.14384 1.2205e-06 -47.288 -47.287 -0.15007 655.71 0.0015251 -47.289 -47.287 -0.15008 1.3424 2.0285 1622.7 -0.0069774 527.08 0.17144 0.032600 30.675 413.10 443.53 2.8885 0.95623 1.1457 190.81 1.1742 4.4153 0.0061180
-110.62 0.15884 1.2543e-06 -45.259 -45.257 -0.13755 654.69 0.0015274 -45.259 -45.258 -0.13755 1.3429 2.0305 1616.0 -0.0069609 517.28 0.17084 0.035781 27.948 414.06 444.66 2.8769 0.95942 1.1490 191.34 1.1570 4.4427 0.0061871
-109.62 0.17516 1.2809e-06 -43.227 -43.225 -0.12509 653.66 0.0015298 -43.228 -43.226 -0.12509 1.3435 2.0326 1609.3 -0.0069441 507.76 0.17024 0.039220 25.497 415.01 445.80 2.8654 0.96261 1.1522 191.86 1.1402 4.4701 0.0062564
-108.62 0.19290 1.2989e-06 -41.194 -41.191 -0.11269 652.64 0.0015322 -41.194 -41.192 -0.11269 1.3441 2.0347 1602.6 -0.0069271 498.51 0.16964 0.042933 23.292 415.96 446.94 2.8542 0.96581 1.1555 192.38 1.1236 4.4974 0.0063261
-107.62 0.21215 1.3067e-06 -39.158 -39.155 -0.10035 651.61 0.0015347 -39.158 -39.156 -0.10036 1.3447 2.0369 1595.9 -0.0069098 489.52 0.16903 0.046937 21.305 416.92 448.09 2.8433 0.96901 1.1588 192.90 1.1075 4.5248 0.0063960
-106.62 0.23301 1.3025e-06 -37.120 -37.117 -0.088079 650.58 0.0015371 -37.120 -37.118 -0.088082 1.3453 2.0390 1589.2 -0.0068924 480.79 0.16843 0.051250 19.512 417.88 449.23 2.8325 0.97222 1.1621 193.41 1.0916 4.5522 0.0064662
-105.62 0.25561 1.2843e-06 -35.080 -35.077 -0.075865 649.55 0.0015395 -35.080 -35.078 -0.075868 1.3460 2.0412 1582.6 -0.0068747 472.30 0.16782 0.055891 17.892 418.85 450.38 2.8220 0.97544 1.1655 193.93 1.0760 4.5795 0.0065367
-104.62 0.28004 1.2501e-06 -33.038 -33.035 -0.063711 648.52 0.0015420 -33.038 -33.035 -0.063714 1.3467 2.0434 1575.9 -0.0068569 464.04 0.16721 0.060878 16.426 419.81 451.53 2.8116 0.97867 1.1688 194.44 1.0608 4.6069 0.0066074
-103.62 0.30643 1.1974e-06 -30.993 -30.990 -0.051616 647.49 0.0015444 -30.994 -30.991 -0.051619 1.3474 2.0456 1569.2 -0.0068387 456.00 0.16660 0.066231 15.099 420.78 452.68 2.8015 0.98191 1.1722 194.94 1.0458 4.6342 0.0066785
-102.62 0.33490 1.1236e-06 -28.947 -28.943 -0.039578 646.46 0.0015469 -28.947 -28.944 -0.039582 1.3481 2.0478 1562.5 -0.0068204 448.18 0.16600 0.071971 13.894 421.75 453.84 2.7916 0.98516 1.1755 195.44 1.0310 4.6615 0.0067498
-101.62 0.36558 1.0261e-06 -26.898 -26.894 -0.027599 645.43 0.0015494 -26.898 -26.894 -0.027602 1.3489 2.0501 1555.8 -0.0068018 440.57 0.16539 0.078120 12.801 422.73 454.99 2.7818 0.98841 1.1789 195.95 1.0166 4.6888 0.0068213
-100.62 0.39862 9.0187e-07 -24.847 -24.843 -0.015676 644.39 0.0015519 -24.847 -24.843 -0.015678 1.3497 2.0524 1549.1 -0.0067830 433.16 0.16478 0.084699 11.807 423.70 456.15 2.7723 0.99168 1.1823 196.44 1.0024 4.7161 0.0068932
-99.625 0.43414 7.4757e-07 -22.793 -22.789 -0.0038082 643.36 0.0015544 -22.794 -22.789 -0.0038103 1.3505 2.0547 1542.4 -0.0067639 425.95 0.16416 0.091731 10.901 424.68 457.31 2.7630 0.99496 1.1858 196.94 0.98838 4.7434 0.0069653
-98.625 0.47230 5.5974e-07 -20.738 -20.733 0.0080043 642.32 0.0015569 -20.738 -20.733 0.0080027 1.3514 2.0570 1535.7 -0.0067447 418.92 0.16355 0.099240 10.077 425.66 458.48 2.7538 0.99825 1.1892 197.43 0.97464 4.7707 0.0070377
-97.625 0.51325 3.3459e-07 -18.680 -18.674 0.019763 641.28 0.0015594 -18.680 -18.674 0.019762 1.3522 2.0594 1529.0 -0.0067251 412.07 0.16294 0.10725 9.3239 426.65 459.64 2.7448 1.0016 1.1927 197.92 0.96112 4.7979 0.0071103
-96.625 0.55714 6.8062e-08 -16.619 -16.613 0.031467 640.24 0.0015619 -16.620 -16.614 0.031467 1.3531 2.0618 1522.3 -0.0067053 405.39 0.16233 0.11579 8.6365 427.63 460.81 2.7360 1.0049 1.1962 198.40 0.94783 4.8251 0.0071832
-95.625 176.41 undefined -15.101 -13.201 0.040045 640.00 0.0015625 -15.101 -13.201 0.040045 1.3554 2.0618 1522.7 -0.0067075 402.89 0.16233 640.00 0.0015625 -15.101 -13.201 0.040045 1.3554 2.0618 1522.7 -0.0067075 402.89 0.16233
-94.625 404.74 undefined -13.745 -9.3844 0.047666 640.00 0.0015625 -13.745 -9.3844 0.047666 1.3580 2.0611 1525.2 -0.0067161 401.64 0.16251 640.00 0.0015625 -13.745 -9.3844 0.047666 1.3580 2.0611 1525.2 -0.0067161 401.64 0.16251
-93.625 632.52 undefined -12.385 -5.5711 0.055259 640.00 0.0015625 -12.385 -5.5711 0.055259 1.3607 2.0604 1527.7 -0.0067244 400.40 0.16270 640.00 0.0015625 -12.385 -5.5711 0.055259 1.3607 2.0604 1527.7 -0.0067244 400.40 0.16270
-92.625 859.77 undefined -11.023 -1.7610 0.062825 640.00 0.0015625 -11.023 -1.7610 0.062825 1.3633 2.0599 1530.2 -0.0067324 399.18 0.16288 640.00 0.0015625 -11.023 -1.7610 0.062825 1.3633 2.0599 1530.2 -0.0067324 399.18 0.16288
-91.625 1086.5 undefined -9.6586 2.0460 0.070363 640.00 0.0015625 -9.6586 2.0460 0.070363 1.3660 2.0593 1532.6 -0.0067402 397.98 0.16307 640.00 0.0015625 -9.6586 2.0460 0.070363 1.3660 2.0593 1532.6 -0.0067402 397.98 0.16307
-90.625 1312.7 undefined -8.2913 5.8500 0.077875 640.00 0.0015625 -8.2913 5.8500 0.077875 1.3687 2.0589 1535.1 -0.0067476 396.79 0.16325 640.00 0.0015625 -8.2913 5.8500 0.077875 1.3687 2.0589 1535.1 -0.0067476 396.79 0.16325
-89.625 1538.3 undefined -6.9212 9.6510 0.085361 640.00 0.0015625 -6.9212 9.6510 0.085361 1.3714 2.0585 1537.5 -0.0067548 395.62 0.16344 640.00 0.0015625 -6.9212 9.6510 0.085361 1.3714 2.0585 1537.5 -0.0067548 395.62 0.16344
-88.625 1763.4 undefined -5.5485 13.449 0.092820 640.00 0.0015625 -5.5485 13.449 0.092820 1.3741 2.0581 1539.9 -0.0067616 394.46 0.16363 640.00 0.0015625 -5.5485 13.449 0.092820 1.3741 2.0581 1539.9 -0.0067616 394.46 0.16363
-87.625 1988.1 undefined -4.1730 17.244 0.10025 640.00 0.0015625 -4.1730 17.244 0.10025 1.3768 2.0578 1542.3 -0.0067682 393.32 0.16381 640.00 0.0015625 -4.1730 17.244 0.10025 1.3768 2.0578 1542.3 -0.0067682 393.32 0.16381
-86.625 2212.2 undefined -2.7948 21.037 0.10766 640.00 0.0015625 -2.7948 21.037 0.10766 1.3796 2.0576 1544.7 -0.0067746 392.19 0.16400 640.00 0.0015625 -2.7948 21.037 0.10766 1.3796 2.0576 1544.7 -0.0067746 392.19 0.16400
-85.625 2435.8 undefined -1.4138 24.827 0.11505 640.00 0.0015625 -1.4138 24.827 0.11505 1.3823 2.0574 1547.1 -0.0067807 391.08 0.16419 640.00 0.0015625 -1.4138 24.827 0.11505 1.3823 2.0574 1547.1 -0.0067807 391.08 0.16419
-84.625 2658.9 undefined -0.030115 28.614 0.12241 640.00 0.0015625 -0.030115 28.614 0.12241 1.3851 2.0573 1549.5 -0.0067865 389.98 0.16438 640.00 0.0015625 -0.030115 28.614 0.12241 1.3851 2.0573 1549.5 -0.0067865 389.98 0.16438
-83.625 2881.5 undefined 1.3564 32.398 0.12974 640.00 0.0015625 1.3564 32.398 0.12974 1.3879 2.0572 1551.8 -0.0067920 388.90 0.16457 640.00 0.0015625 1.3564 32.398 0.12974 1.3879 2.0572 1551.8 -0.0067920 388.90 0.16457
-82.625 3103.6 undefined 2.7456 36.180 0.13705 640.00 0.0015625 2.7456 36.180 0.13705 1.3906 2.0572 1554.2 -0.0067973 387.84 0.16475 640.00 0.0015625 2.7456 36.180 0.13705 1.3906 2.0572 1554.2 -0.0067973 387.84 0.16475
-81.625 3325.2 undefined 4.1376 39.960 0.14434 640.00 0.0015625 4.1376 39.960 0.14434 1.3934 2.0572 1556.5 -0.0068024 386.78 0.16494 640.00 0.0015625 4.1376 39.960 0.14434 1.3934 2.0572 1556.5 -0.0068024 386.78 0.16494
-80.625 3546.3 undefined 5.5325 43.737 0.15160 640.00 0.0015625 5.5325 43.737 0.15160 1.3962 2.0573 1558.8 -0.0068072 385.74 0.16513 640.00 0.0015625 5.5325 43.737 0.15160 1.3962 2.0573 1558.8 -0.0068072 385.74 0.16513
-79.625 3766.9 undefined 6.9301 47.512 0.15884 640.00 0.0015625 6.9301 47.512 0.15884 1.3991 2.0574 1561.1 -0.0068117 384.72 0.16532 640.00 0.0015625 6.9301 47.512 0.15884 1.3991 2.0574 1561.1 -0.0068117 384.72 0.16532
-78.625 3987.1 undefined 8.3306 51.284 0.16606 640.00 0.0015625 8.3306 51.284 0.16606 1.4019 2.0576 1563.4 -0.0068160 383.71 0.16551 640.00 0.0015625 8.3306 51.284 0.16606 1.4019 2.0576 1563.4 -0.0068160 383.71 0.16551
-77.625 4206.8 undefined 9.7339 55.054 0.17326 640.00 0.0015625 9.7339 55.054 0.17326 1.4047 2.0579 1565.7 -0.0068201 382.71 0.16570 640.00 0.0015625 9.7339 55.054 0.17326 1.4047 2.0579 1565.7 -0.0068201 382.71 0.16570
-76.625 4426.0 undefined 11.140 58.822 0.18043 640.00 0.0015625 11.140 58.822 0.18043 1.4076 2.0581 1568.0 -0.0068239 381.72 0.16589 640.00 0.0015625 11.140 58.822 0.18043 1.4076 2.0581 1568.0 -0.0068239 381.72 0.16589
-75.625 4644.8 undefined 12.549 62.588 0.18758 640.00 0.0015625 12.549 62.588 0.18758 1.4105 2.0585 1570.2 -0.0068275 380.75 0.16608 640.00 0.0015625 12.549 62.588 0.18758 1.4105 2.0585 1570.2 -0.0068275 380.75 0.16608
-74.625 4863.1 undefined 13.961 66.351 0.19471 640.00 0.0015625 13.961 66.351 0.19471 1.4134 2.0588 1572.5 -0.0068309 379.79 0.16627 640.00 0.0015625 13.961 66.351 0.19471 1.4134 2.0588 1572.5 -0.0068309 379.79 0.16627
-73.625 5080.9 undefined 15.376 70.113 0.20182 640.00 0.0015625 15.376 70.113 0.20182 1.4163 2.0592 1574.7 -0.0068341 378.85 0.16647 640.00 0.0015625 15.376 70.113 0.20182 1.4163 2.0592 1574.7 -0.0068341 378.85 0.16647
-72.625 5298.3 undefined 16.794 73.873 0.20891 640.00 0.0015625 16.794 73.873 0.20891 1.4192 2.0597 1576.9 -0.0068370 377.91 0.16666 640.00 0.0015625 16.794 73.873 0.20891 1.4192 2.0597 1576.9 -0.0068370 377.91 0.16666
-71.625 5515.2 undefined 18.214 77.630 0.21598 640.00 0.0015625 18.214 77.630 0.21598 1.4221 2.0602 1579.1 -0.0068398 376.99 0.16685 640.00 0.0015625 18.214 77.630 0.21598 1.4221 2.0602 1579.1 -0.0068398 376.99 0.16685
-70.625 5731.7 undefined 19.638 81.386 0.22302 640.00 0.0015625 19.638 81.386 0.22302 1.4251 2.0608 1581.3 -0.0068423 376.08 0.16704 640.00 0.0015625 19.638 81.386 0.22302 1.4251 2.0608 1581.3 -0.0068423 376.08 0.16704
-69.625 5947.8 undefined 21.064 85.140 0.23005 640.00 0.0015625 21.064 85.140 0.23005 1.4280 2.0613 1583.5 -0.0068446 375.18 0.16723 640.00 0.0015625 21.064 85.140 0.23005 1.4280 2.0613 1583.5 -0.0068446 375.18 0.16723
-68.625 6163.3 undefined 22.494 88.892 0.23706 640.00 0.0015625 22.494 88.892 0.23706 1.4310 2.0620 1585.6 -0.0068467 374.29 0.16743 640.00 0.0015625 22.494 88.892 0.23706 1.4310 2.0620 1585.6 -0.0068467 374.29 0.16743
-67.625 6378.5 undefined 23.926 92.642 0.24404 640.00 0.0015625 23.926 92.642 0.24404 1.4340 2.0627 1587.8 -0.0068486 373.42 0.16762 640.00 0.0015625 23.926 92.642 0.24404 1.4340 2.0627 1587.8 -0.0068486 373.42 0.16762
-66.625 6593.2 undefined 25.362 96.391 0.25101 640.00 0.0015625 25.362 96.391 0.25101 1.4370 2.0634 1589.9 -0.0068503 372.56 0.16781 640.00 0.0015625 25.362 96.391 0.25101 1.4370 2.0634 1589.9 -0.0068503 372.56 0.16781
-65.625 6807.5 undefined 26.800 100.14 0.25796 640.00 0.0015625 26.800 100.14 0.25796 1.4400 2.0642 1592.0 -0.0068518 371.70 0.16801 640.00 0.0015625 26.800 100.14 0.25796 1.4400 2.0642 1592.0 -0.0068518 371.70 0.16801
-64.625 7021.3 undefined 28.242 103.88 0.26489 640.00 0.0015625 28.242 103.88 0.26489 1.4430 2.0650 1594.1 -0.0068531 370.86 0.16820 640.00 0.0015625 28.242 103.88 0.26489 1.4430 2.0650 1594.1 -0.0068531 370.86 0.16820
-63.625 7234.7 undefined 29.686 107.63 0.27180 640.00 0.0015625 29.686 107.63 0.27180 1.4461 2.0658 1596.2 -0.0068542 370.03 0.16839 640.00 0.0015625 29.686 107.63 0.27180 1.4461 2.0658 1596.2 -0.0068542 370.03 0.16839
-62.625 7447.7 undefined 31.134 111.37 0.27869 640.00 0.0015625 31.134 111.37 0.27869 1.4492 2.0667 1598.3 -0.0068551 369.21 0.16859 640.00 0.0015625 31.134 111.37 0.27869 1.4492 2.0667 1598.3 -0.0068551 369.21 0.16859
-61.625 7660.3 undefined 32.585 115.11 0.28557 640.00 0.0015625 32.585 115.11 0.28557 1.4522 2.0676 1600.4 -0.0068558 368.40 0.16878 640.00 0.0015625 32.585 115.11 0.28557 1.4522 2.0676 1600.4 -0.0068558 368.40 0.16878
-60.625 7872.4 undefined 34.038 118.85 0.29242 640.00 0.0015625 34.038 118.85 0.29242 1.4553 2.0686 1602.4 -0.0068564 367.60 0.16898 640.00 0.0015625 34.038 118.85 0.29242 1.4553 2.0686 1602.4 -0.0068564 367.60 0.16898
-59.625 8084.2 undefined 35.495 122.59 0.29926 640.00 0.0015625 35.495 122.59 0.29926 1.4584 2.0696 1604.5 -0.0068567 366.81 0.16917 640.00 0.0015625 35.495 122.59 0.29926 1.4584 2.0696 1604.5 -0.0068567 366.81 0.16917
-58.625 8295.5 undefined 36.955 126.32 0.30608 640.00 0.0015625 36.955 126.32 0.30608 1.4616 2.0706 1606.5 -0.0068569 366.03 0.16937 640.00 0.0015625 36.955 126.32 0.30608 1.4616 2.0706 1606.5 -0.0068569 366.03 0.16937
-57.625 8506.4 undefined 38.419 130.06 0.31289 640.00 0.0015625 38.419 130.06 0.31289 1.4647 2.0717 1608.5 -0.0068569 365.26 0.16956 640.00 0.0015625 38.419 130.06 0.31289 1.4647 2.0717 1608.5 -0.0068569 365.26 0.16956
-56.625 8716.9 undefined 39.885 133.79 0.31968 640.00 0.0015625 39.885 133.79 0.31968 1.4679 2.0729 1610.5 -0.0068568 364.50 0.16976 640.00 0.0015625 39.885 133.79 0.31968 1.4679 2.0729 1610.5 -0.0068568 364.50 0.16976
-55.625 8926.9 undefined 41.354 137.52 0.32645 640.00 0.0015625 41.354 137.52 0.32645 1.4711 2.0740 1612.5 -0.0068564 363.75 0.16996 640.00 0.0015625 41.354 137.52 0.32645 1.4711 2.0740 1612.5 -0.0068564 363.75 0.16996
-54.625 9136.6 undefined 42.827 141.26 0.33320 640.00 0.0015625 42.827 141.26 0.33320 1.4743 2.0752 1614.5 -0.0068559 363.01 0.17015 640.00 0.0015625 42.827 141.26 0.33320 1.4743 2.0752 1614.5 -0.0068559 363.01 0.17015
-53.625 9345.9 undefined 44.303 144.99 0.33994 640.00 0.0015625 44.303 144.99 0.33994 1.4775 2.0764 1616.5 -0.0068552 362.28 0.17035 640.00 0.0015625 44.303 144.99 0.33994 1.4775 2.0764 1616.5 -0.0068552 362.28 0.17035
-52.625 9554.8 undefined 45.782 148.72 0.34666 640.00 0.0015625 45.782 148.72 0.34666 1.4807 2.0777 1618.4 -0.0068544 361.55 0.17055 640.00 0.0015625 45.782 148.72 0.34666 1.4807 2.0777 1618.4 -0.0068544 361.55 0.17055
-51.625 9763.2 undefined 47.264 152.44 0.35337 640.00 0.0015625 47.264 152.44 0.35337 1.4839 2.0790 1620.4 -0.0068534 360.84 0.17075 640.00 0.0015625 47.264 152.44 0.35337 1.4839 2.0790 1620.4 -0.0068534 360.84 0.17075
-50.625 9971.3 undefined 48.750 156.17 0.36006 640.00 0.0015625 48.750 156.17 0.36006 1.4872 2.0804 1622.3 -0.0068523 360.13 0.17094 640.00 0.0015625 48.750 156.17 0.36006 1.4872 2.0804 1622.3 -0.0068523 360.13 0.17094
-49.625 10179. undefined 50.239 159.90 0.36673 640.00 0.0015625 50.239 159.90 0.36673 1.4905 2.0817 1624.2 -0.0068510 359.44 0.17114 640.00 0.0015625 50.239 159.90 0.36673 1.4905 2.0817 1624.2 -0.0068510 359.44 0.17114
-48.625 10386. undefined 51.731 163.62 0.37340 640.00 0.0015625 51.731 163.62 0.37340 1.4938 2.0832 1626.1 -0.0068495 358.75 0.17134 640.00 0.0015625 51.731 163.62 0.37340 1.4938 2.0832 1626.1 -0.0068495 358.75 0.17134
-47.625 10593. undefined 53.226 167.35 0.38004 640.00 0.0015625 53.226 167.35 0.38004 1.4971 2.0846 1628.0 -0.0068479 358.07 0.17154 640.00 0.0015625 53.226 167.35 0.38004 1.4971 2.0846 1628.0 -0.0068479 358.07 0.17154
-46.625 10800. undefined 54.725 171.07 0.38667 640.00 0.0015625 54.725 171.07 0.38667 1.5004 2.0861 1629.9 -0.0068461 357.40 0.17174 640.00 0.0015625 54.725 171.07 0.38667 1.5004 2.0861 1629.9 -0.0068461 357.40 0.17174
-45.625 11006. undefined 56.227 174.79 0.39329 640.00 0.0015625 56.227 174.79 0.39329 1.5037 2.0876 1631.8 -0.0068442 356.74 0.17194 640.00 0.0015625 56.227 174.79 0.39329 1.5037 2.0876 1631.8 -0.0068442 356.74 0.17194
-44.625 11212. undefined 57.732 178.51 0.39989 640.00 0.0015625 57.732 178.51 0.39989 1.5071 2.0892 1633.6 -0.0068421 356.08 0.17214 640.00 0.0015625 57.732 178.51 0.39989 1.5071 2.0892 1633.6 -0.0068421 356.08 0.17214
-43.625 11417. undefined 59.241 182.24 0.40648 640.00 0.0015625 59.241 182.24 0.40648 1.5105 2.0907 1635.5 -0.0068399 355.44 0.17234 640.00 0.0015625 59.241 182.24 0.40648 1.5105 2.0907 1635.5 -0.0068399 355.44 0.17234
-42.625 11622. undefined 60.753 185.96 0.41305 640.00 0.0015625 60.753 185.96 0.41305 1.5139 2.0924 1637.3 -0.0068376 354.80 0.17254 640.00 0.0015625 60.753 185.96 0.41305 1.5139 2.0924 1637.3 -0.0068376 354.80 0.17254
-41.625 11826. undefined 62.269 189.68 0.41961 640.00 0.0015625 62.269 189.68 0.41961 1.5173 2.0940 1639.1 -0.0068351 354.16 0.17274 640.00 0.0015625 62.269 189.68 0.41961 1.5173 2.0940 1639.1 -0.0068351 354.16 0.17274
-40.625 12031. undefined 63.788 193.40 0.42616 640.00 0.0015625 63.788 193.40 0.42616 1.5207 2.0957 1640.9 -0.0068325 353.54 0.17294 640.00 0.0015625 63.788 193.40 0.42616 1.5207 2.0957 1640.9 -0.0068325 353.54 0.17294
-39.625 12235. undefined 65.310 197.11 0.43269 640.00 0.0015625 65.310 197.11 0.43269 1.5241 2.0974 1642.7 -0.0068298 352.92 0.17314 640.00 0.0015625 65.310 197.11 0.43269 1.5241 2.0974 1642.7 -0.0068298 352.92 0.17314
-38.625 12438. undefined 66.836 200.83 0.43921 640.00 0.0015625 66.836 200.83 0.43921 1.5276 2.0992 1644.5 -0.0068269 352.32 0.17334 640.00 0.0015625 66.836 200.83 0.43921 1.5276 2.0992 1644.5 -0.0068269 352.32 0.17334
-37.625 12641. undefined 68.365 204.55 0.44572 640.00 0.0015625 68.365 204.55 0.44572 1.5311 2.1009 1646.3 -0.0068239 351.71 0.17354 640.00 0.0015625 68.365 204.55 0.44572 1.5311 2.1009 1646.3 -0.0068239 351.71 0.17354
-36.625 12844. undefined 69.898 208.27 0.45221 640.00 0.0015625 69.898 208.27 0.45221 1.5345 2.1028 1648.1 -0.0068207 351.12 0.17375 640.00 0.0015625 69.898 208.27 0.45221 1.5345 2.1028 1648.1 -0.0068207 351.12 0.17375
-35.625 13046. undefined 71.434 211.98 0.45869 640.00 0.0015625 71.434 211.98 0.45869 1.5380 2.1046 1649.8 -0.0068174 350.53 0.17395 640.00 0.0015625 71.434 211.98 0.45869 1.5380 2.1046 1649.8 -0.0068174 350.53 0.17395
-34.625 13248. undefined 72.974 215.70 0.46516 640.00 0.0015625 72.974 215.70 0.46516 1.5416 2.1065 1651.6 -0.0068140 349.95 0.17415 640.00 0.0015625 72.974 215.70 0.46516 1.5416 2.1065 1651.6 -0.0068140 349.95 0.17415
-33.625 13450. undefined 74.518 219.41 0.47162 640.00 0.0015625 74.518 219.41 0.47162 1.5451 2.1084 1653.3 -0.0068105 349.38 0.17435 640.00 0.0015625 74.518 219.41 0.47162 1.5451 2.1084 1653.3 -0.0068105 349.38 0.17435
-32.625 13651. undefined 76.064 223.13 0.47806 640.00 0.0015625 76.064 223.13 0.47806 1.5487 2.1103 1655.1 -0.0068069 348.81 0.17456 640.00 0.0015625 76.064 223.13 0.47806 1.5487 2.1103 1655.1 -0.0068069 348.81 0.17456
-31.625 13852. undefined 77.615 226.84 0.48450 640.00 0.0015625 77.615 226.84 0.48450 1.5522 2.1123 1656.8 -0.0068031 348.25 0.17476 640.00 0.0015625 77.615 226.84 0.48450 1.5522 2.1123 1656.8 -0.0068031 348.25 0.17476
-30.625 14053. undefined 79.169 230.56 0.49092 640.00 0.0015625 79.169 230.56 0.49092 1.5558 2.1143 1658.5 -0.0067993 347.70 0.17496 640.00 0.0015625 79.169 230.56 0.49092 1.5558 2.1143 1658.5 -0.0067993 347.70 0.17496
-29.625 14253. undefined 80.727 234.27 0.49733 640.00 0.0015625 80.727 234.27 0.49733 1.5594 2.1163 1660.2 -0.0067953 347.15 0.17517 640.00 0.0015625 80.727 234.27 0.49733 1.5594 2.1163 1660.2 -0.0067953 347.15 0.17517
-28.625 14453. undefined 82.288 237.99 0.50373 640.00 0.0015625 82.288 237.99 0.50373 1.5630 2.1183 1661.9 -0.0067912 346.61 0.17537 640.00 0.0015625 82.288 237.99 0.50373 1.5630 2.1183 1661.9 -0.0067912 346.61 0.17537
-27.625 14652. undefined 83.853 241.70 0.51011 640.00 0.0015625 83.853 241.70 0.51011 1.5666 2.1204 1663.6 -0.0067870 346.08 0.17558 640.00 0.0015625 83.853 241.70 0.51011 1.5666 2.1204 1663.6 -0.0067870 346.08 0.17558
-26.625 14851. undefined 85.421 245.42 0.51649 640.00 0.0015625 85.421 245.42 0.51649 1.5703 2.1225 1665.3 -0.0067827 345.55 0.17578 640.00 0.0015625 85.421 245.42 0.51649 1.5703 2.1225 1665.3 -0.0067827 345.55 0.17578
-25.625 15050. undefined 86.993 249.13 0.52285 640.00 0.0015625 86.993 249.13 0.52285 1.5739 2.1246 1666.9 -0.0067782 345.03 0.17599 640.00 0.0015625 86.993 249.13 0.52285 1.5739 2.1246 1666.9 -0.0067782 345.03 0.17599
-24.625 15249. undefined 88.569 252.84 0.52920 640.00 0.0015625 88.569 252.84 0.52920 1.5776 2.1268 1668.6 -0.0067737 344.51 0.17619 640.00 0.0015625 88.569 252.84 0.52920 1.5776 2.1268 1668.6 -0.0067737 344.51 0.17619
-23.625 15447. undefined 90.148 256.56 0.53555 640.00 0.0015625 90.148 256.56 0.53555 1.5813 2.1290 1670.2 -0.0067691 344.00 0.17640 640.00 0.0015625 90.148 256.56 0.53555 1.5813 2.1290 1670.2 -0.0067691 344.00 0.17640
-22.625 15645. undefined 91.731 260.27 0.54188 640.00 0.0015625 91.731 260.27 0.54188 1.5850 2.1312 1671.9 -0.0067644 343.49 0.17661 640.00 0.0015625 91.731 260.27 0.54188 1.5850 2.1312 1671.9 -0.0067644 343.49 0.17661
-21.625 15842. undefined 93.318 263.99 0.54820 640.00 0.0015625 93.318 263.99 0.54820 1.5887 2.1334 1673.5 -0.0067595 343.00 0.17681 640.00 0.0015625 93.318 263.99 0.54820 1.5887 2.1334 1673.5 -0.0067595 343.00 0.17681
-20.625 16039. undefined 94.909 267.70 0.55451 640.00 0.0015625 94.909 267.70 0.55451 1.5924 2.1357 1675.1 -0.0067546 342.50 0.17702 640.00 0.0015625 94.909 267.70 0.55451 1.5924 2.1357 1675.1 -0.0067546 342.50 0.17702
-19.625 16236. undefined 96.503 271.41 0.56081 640.00 0.0015625 96.503 271.41 0.56081 1.5962 2.1380 1676.8 -0.0067496 342.02 0.17723 640.00 0.0015625 96.503 271.41 0.56081 1.5962 2.1380 1676.8 -0.0067496 342.02 0.17723
-18.625 16432. undefined 98.101 275.13 0.56710 640.00 0.0015625 98.101 275.13 0.56710 1.5999 2.1403 1678.4 -0.0067444 341.53 0.17743 640.00 0.0015625 98.101 275.13 0.56710 1.5999 2.1403 1678.4 -0.0067444 341.53 0.17743
-17.625 16629. undefined 99.703 278.84 0.57338 640.00 0.0015625 99.703 278.84 0.57338 1.6037 2.1427 1680.0 -0.0067392 341.06 0.17764 640.00 0.0015625 99.703 278.84 0.57338 1.6037 2.1427 1680.0 -0.0067392 341.06 0.17764
-16.625 16824. undefined 101.31 282.56 0.57966 640.00 0.0015625 101.31 282.56 0.57966 1.6075 2.1450 1681.6 -0.0067339 340.59 0.17785 640.00 0.0015625 101.31 282.56 0.57966 1.6075 2.1450 1681.6 -0.0067339 340.59 0.17785
-15.625 17020. undefined 102.92 286.27 0.58592 640.00 0.0015625 102.92 286.27 0.58592 1.6113 2.1474 1683.1 -0.0067285 340.12 0.17806 640.00 0.0015625 102.92 286.27 0.58592 1.6113 2.1474 1683.1 -0.0067285 340.12 0.17806
-14.625 17215. undefined 104.53 289.99 0.59217 640.00 0.0015625 104.53 289.99 0.59217 1.6151 2.1499 1684.7 -0.0067231 339.66 0.17827 640.00 0.0015625 104.53 289.99 0.59217 1.6151 2.1499 1684.7 -0.0067231 339.66 0.17827
-13.625 17410. undefined 106.15 293.70 0.59841 640.00 0.0015625 106.15 293.70 0.59841 1.6189 2.1523 1686.3 -0.0067175 339.21 0.17847 640.00 0.0015625 106.15 293.70 0.59841 1.6189 2.1523 1686.3 -0.0067175 339.21 0.17847
-12.625 17604. undefined 107.77 297.42 0.60464 640.00 0.0015625 107.77 297.42 0.60464 1.6227 2.1548 1687.9 -0.0067119 338.75 0.17868 640.00 0.0015625 107.77 297.42 0.60464 1.6227 2.1548 1687.9 -0.0067119 338.75 0.17868
-11.625 17798. undefined 109.39 301.14 0.61087 640.00 0.0015625 109.39 301.14 0.61087 1.6266 2.1573 1689.4 -0.0067061 338.31 0.17889 640.00 0.0015625 109.39 301.14 0.61087 1.6266 2.1573 1689.4 -0.0067061 338.31 0.17889
-10.625 17992. undefined 111.02 304.85 0.61708 640.00 0.0015625 111.02 304.85 0.61708 1.6304 2.1598 1691.0 -0.0067003 337.87 0.17910 640.00 0.0015625 111.02 304.85 0.61708 1.6304 2.1598 1691.0 -0.0067003 337.87 0.17910
-9.6250 18186. undefined 112.65 308.57 0.62329 640.00 0.0015625 112.65 308.57 0.62329 1.6343 2.1623 1692.5 -0.0066944 337.43 0.17931 640.00 0.0015625 112.65 308.57 0.62329 1.6343 2.1623 1692.5 -0.0066944 337.43 0.17931
-8.6250 18379. undefined 114.29 312.29 0.62949 640.00 0.0015625 114.29 312.29 0.62949 1.6382 2.1649 1694.0 -0.0066885 337.00 0.17952 640.00 0.0015625 114.29 312.29 0.62949 1.6382 2.1649 1694.0 -0.0066885 337.00 0.17952
-7.6250 18572. undefined 115.93 316.00 0.63568 640.00 0.0015625 115.93 316.00 0.63568 1.6421 2.1674 1695.6 -0.0066824 336.58 0.17973 640.00 0.0015625 115.93 316.00 0.63568 1.6421 2.1674 1695.6 -0.0066824 336.58 0.17973
-6.6250 18764. undefined 117.57 319.72 0.64186 640.00 0.0015625 117.57 319.72 0.64186 1.6460 2.1700 1697.1 -0.0066763 336.16 0.17994 640.00 0.0015625 117.57 319.72 0.64186 1.6460 2.1700 1697.1 -0.0066763 336.16 0.17994
-5.6250 18956. undefined 119.22 323.44 0.64803 640.00 0.0015625 119.22 323.44 0.64803 1.6499 2.1727 1698.6 -0.0066702 335.74 0.18016 640.00 0.0015625 119.22 323.44 0.64803 1.6499 2.1727 1698.6 -0.0066702 335.74 0.18016
-4.6250 19148. undefined 120.87 327.16 0.65419 640.00 0.0015625 120.87 327.16 0.65419 1.6538 2.1753 1700.1 -0.0066639 335.33 0.18037 640.00 0.0015625 120.87 327.16 0.65419 1.6538 2.1753 1700.1 -0.0066639 335.33 0.18037
-3.6250 19340. undefined 122.53 330.88 0.66034 640.00 0.0015625 122.53 330.88 0.66034 1.6577 2.1780 1701.6 -0.0066576 334.92 0.18058 640.00 0.0015625 122.53 330.88 0.66034 1.6577 2.1780 1701.6 -0.0066576 334.92 0.18058
-2.6250 19531. undefined 124.19 334.60 0.66649 640.00 0.0015625 124.19 334.60 0.66649 1.6617 2.1807 1703.1 -0.0066512 334.52 0.18079 640.00 0.0015625 124.19 334.60 0.66649 1.6617 2.1807 1703.1 -0.0066512 334.52 0.18079
-1.6250 19722. undefined 125.85 338.32 0.67263 640.00 0.0015625 125.85 338.32 0.67263 1.6656 2.1834 1704.6 -0.0066447 334.12 0.18100 640.00 0.0015625 125.85 338.32 0.67263 1.6656 2.1834 1704.6 -0.0066447 334.12 0.18100
-0.62500 19913. undefined 127.52 342.04 0.67876 640.00 0.0015625 127.52 342.04 0.67876 1.6696 2.1861 1706.1 -0.0066382 333.72 0.18121 640.00 0.0015625 127.52 342.04 0.67876 1.6696 2.1861 1706.1 -0.0066382 333.72 0.18121
0.37500 20103. undefined 129.19 345.77 0.68488 640.00 0.0015625 129.19 345.77 0.68488 1.6736 2.1889 1707.6 -0.0066316 333.33 0.18143 640.00 0.0015625 129.19 345.77 0.68488 1.6736 2.1889 1707.6 -0.0066316 333.33 0.18143
1.3750 20293. undefined 130.87 349.49 0.69100 640.00 0.0015625 130.87 349.49 0.69100 1.6776 2.1916 1709.0 -0.0066250 332.95 0.18164 640.00 0.0015625 130.87 349.49 0.69100 1.6776 2.1916 1709.0 -0.0066250 332.95 0.18164
2.3750 20483. undefined 132.55 353.21 0.69710 640.00 0.0015625 132.55 353.21 0.69710 1.6816 2.1944 1710.5 -0.0066183 332.56 0.18185 640.00 0.0015625 132.55 353.21 0.69710 1.6816 2.1944 1710.5 -0.0066183 332.56 0.18185
3.3750 20673. undefined 134.23 356.94 0.70320 640.00 0.0015625 134.23 356.94 0.70320 1.6856 2.1972 1712.0 -0.0066115 332.19 0.18207 640.00 0.0015625 134.23 356.94 0.70320 1.6856 2.1972 1712.0 -0.0066115 332.19 0.18207
4.3750 20862. undefined 135.92 360.66 0.70929 640.00 0.0015625 135.92 360.66 0.70929 1.6896 2.2001 1713.4 -0.0066047 331.81 0.18228 640.00 0.0015625 135.92 360.66 0.70929 1.6896 2.2001 1713.4 -0.0066047 331.81 0.18228
5.3750 21051. undefined 137.61 364.39 0.71538 640.00 0.0015625 137.61 364.39 0.71538 1.6936 2.2029 1714.9 -0.0065978 331.44 0.18250 640.00 0.0015625 137.61 364.39 0.71538 1.6936 2.2029 1714.9 -0.0065978 331.44 0.18250
6.3750 21239. undefined 139.31 368.12 0.72146 640.00 0.0015625 139.31 368.12 0.72146 1.6977 2.2058 1716.3 -0.0065909 331.08 0.18271 640.00 0.0015625 139.31 368.12 0.72146 1.6977 2.2058 1716.3 -0.0065909 331.08 0.18271
7.3750 21428. undefined 141.01 371.85 0.72753 640.00 0.0015625 141.01 371.85 0.72753 1.7017 2.2086 1717.8 -0.0065839 330.72 0.18293 640.00 0.0015625 141.01 371.85 0.72753 1.7017 2.2086 1717.8 -0.0065839 330.72 0.18293
8.3750 21616. undefined 142.71 375.57 0.73359 640.00 0.0015625 142.71 375.57 0.73359 1.7058 2.2115 1719.2 -0.0065769 330.36 0.18314 640.00 0.0015625 142.71 375.57 0.73359 1.7058 2.2115 1719.2 -0.0065769 330.36 0.18314
9.3750 21803. undefined 144.42 379.30 0.73964 640.00 0.0015625 144.42 379.30 0.73964 1.7098 2.2145 1720.6 -0.0065698 330.00 0.18336 640.00 0.0015625 144.42 379.30 0.73964 1.7098 2.2145 1720.6 -0.0065698 330.00 0.18336
10.375 21991. undefined 146.13 383.04 0.74569 640.00 0.0015625 146.13 383.04 0.74569 1.7139 2.2174 1722.0 -0.0065627 329.65 0.18357 640.00 0.0015625 146.13 383.04 0.74569 1.7139 2.2174 1722.0 -0.0065627 329.65 0.18357
11.375 22178. undefined 147.85 386.77 0.75173 640.00 0.0015625 147.85 386.77 0.75173 1.7180 2.2203 1723.5 -0.0065555 329.30 0.18379 640.00 0.0015625 147.85 386.77 0.75173 1.7180 2.2203 1723.5 -0.0065555 329.30 0.18379
12.375 22365. undefined 149.57 390.50 0.75777 640.00 0.0015625 149.57 390.50 0.75777 1.7221 2.2233 1724.9 -0.0065483 328.96 0.18401 640.00 0.0015625 149.57 390.50 0.75777 1.7221 2.2233 1724.9 -0.0065483 328.96 0.18401
13.375 22551. undefined 151.29 394.23 0.76380 640.00 0.0015625 151.29 394.23 0.76380 1.7262 2.2263 1726.3 -0.0065410 328.62 0.18422 640.00 0.0015625 151.29 394.23 0.76380 1.7262 2.2263 1726.3 -0.0065410 328.62 0.18422
14.375 22737. undefined 153.02 397.97 0.76982 640.00 0.0015625 153.02 397.97 0.76982 1.7303 2.2293 1727.7 -0.0065337 328.28 0.18444 640.00 0.0015625 153.02 397.97 0.76982 1.7303 2.2293 1727.7 -0.0065337 328.28 0.18444
15.375 22923. undefined 154.75 401.71 0.77583 640.00 0.0015625 154.75 401.71 0.77583 1.7344 2.2323 1729.1 -0.0065264 327.95 0.18466 640.00 0.0015625 154.75 401.71 0.77583 1.7344 2.2323 1729.1 -0.0065264 327.95 0.18466
16.375 23109. undefined 156.49 405.44 0.78184 640.00 0.0015625 156.49 405.44 0.78184 1.7385 2.2353 1730.5 -0.0065190 327.62 0.18487 640.00 0.0015625 156.49 405.44 0.78184 1.7385 2.2353 1730.5 -0.0065190 327.62 0.18487
17.375 23295. undefined 158.23 409.18 0.78784 640.00 0.0015625 158.23 409.18 0.78784 1.7426 2.2384 1731.9 -0.0065115 327.30 0.18509 640.00 0.0015625 158.23 409.18 0.78784 1.7426 2.2384 1731.9 -0.0065115 327.30 0.18509
18.375 23480. undefined 159.97 412.92 0.79384 640.00 0.0015625 159.97 412.92 0.79384 1.7468 2.2415 1733.3 -0.0065041 326.97 0.18531 640.00 0.0015625 159.97 412.92 0.79384 1.7468 2.2415 1733.3 -0.0065041 326.97 0.18531
19.375 23665. undefined 161.72 416.66 0.79982 640.00 0.0015625 161.72 416.66 0.79982 1.7509 2.2445 1734.6 -0.0064966 326.65 0.18553 640.00 0.0015625 161.72 416.66 0.79982 1.7509 2.2445 1734.6 -0.0064966 326.65 0.18553
20.375 23849. undefined 163.47 420.40 0.80581 640.00 0.0015625 163.47 420.40 0.80581 1.7550 2.2476 1736.0 -0.0064890 326.34 0.18575 640.00 0.0015625 163.47 420.40 0.80581 1.7550 2.2476 1736.0 -0.0064890 326.34 0.18575
21.375 24034. undefined 165.23 424.15 0.81178 640.00 0.0015625 165.23 424.15 0.81178 1.7592 2.2507 1737.4 -0.0064814 326.03 0.18597 640.00 0.0015625 165.23 424.15 0.81178 1.7592 2.2507 1737.4 -0.0064814 326.03 0.18597
22.375 24218. undefined 166.99 427.89 0.81775 640.00 0.0015625 166.99 427.89 0.81775 1.7634 2.2539 1738.8 -0.0064738 325.72 0.18618 640.00 0.0015625 166.99 427.89 0.81775 1.7634 2.2539 1738.8 -0.0064738 325.72 0.18618
23.375 24401. undefined 168.76 431.64 0.82372 640.00 0.0015625 168.76 431.64 0.82372 1.7675 2.2570 1740.1 -0.0064662 325.41 0.18640 640.00 0.0015625 168.76 431.64 0.82372 1.7675 2.2570 1740.1 -0.0064662 325.41 0.18640
24.375 24585. undefined 170.53 435.38 0.82967 640.00 0.0015625 170.53 435.38 0.82967 1.7717 2.2601 1741.5 -0.0064585 325.11 0.18662 640.00 0.0015625 170.53 435.38 0.82967 1.7717 2.2601 1741.5 -0.0064585 325.11 0.18662
25.375 24768. undefined 172.30 439.13 0.83563 640.00 0.0015625 172.30 439.13 0.83563 1.7759 2.2633 1742.8 -0.0064508 324.81 0.18684 640.00 0.0015625 172.30 439.13 0.83563 1.7759 2.2633 1742.8 -0.0064508 324.81 0.18684
26.375 24951. undefined 174.08 442.88 0.84157 640.00 0.0015625 174.08 442.88 0.84157 1.7801 2.2665 1744.2 -0.0064431 324.51 0.18707 640.00 0.0015625 174.08 442.88 0.84157 1.7801 2.2665 1744.2 -0.0064431 324.51 0.18707
27.375 25134. undefined 175.86 446.63 0.84751 640.00 0.0015625 175.86 446.63 0.84751 1.7843 2.2697 1745.5 -0.0064353 324.21 0.18729 640.00 0.0015625 175.86 446.63 0.84751 1.7843 2.2697 1745.5 -0.0064353 324.21 0.18729
28.375 25316. undefined 177.65 450.38 0.85345 640.00 0.0015625 177.65 450.38 0.85345 1.7885 2.2729 1746.9 -0.0064275 323.92 0.18751 640.00 0.0015625 177.65 450.38 0.85345 1.7885 2.2729 1746.9 -0.0064275 323.92 0.18751
29.375 25498. undefined 179.44 454.13 0.85938 640.00 0.0015625 179.44 454.13 0.85938 1.7927 2.2761 1748.2 -0.0064197 323.63 0.18773 640.00 0.0015625 179.44 454.13 0.85938 1.7927 2.2761 1748.2 -0.0064197 323.63 0.18773
30.375 25680. undefined 181.23 457.89 0.86530 640.00 0.0015625 181.23 457.89 0.86530 1.7969 2.2793 1749.6 -0.0064118 323.35 0.18795 640.00 0.0015625 181.23 457.89 0.86530 1.7969 2.2793 1749.6 -0.0064118 323.35 0.18795
31.375 25862. undefined 183.03 461.65 0.87122 640.00 0.0015625 183.03 461.65 0.87122 1.8011 2.2826 1750.9 -0.0064040 323.07 0.18817 640.00 0.0015625 183.03 461.65 0.87122 1.8011 2.2826 1750.9 -0.0064040 323.07 0.18817
32.375 26043. undefined 184.83 465.40 0.87713 640.00 0.0015625 184.83 465.40 0.87713 1.8053 2.2858 1752.2 -0.0063961 322.79 0.18839 640.00 0.0015625 184.83 465.40 0.87713 1.8053 2.2858 1752.2 -0.0063961 322.79 0.18839
33.375 26225. undefined 186.64 469.16 0.88303 640.00 0.0015625 186.64 469.16 0.88303 1.8095 2.2891 1753.5 -0.0063882 322.51 0.18862 640.00 0.0015625 186.64 469.16 0.88303 1.8095 2.2891 1753.5 -0.0063882 322.51 0.18862
34.375 26406. undefined 188.45 472.92 0.88893 640.00 0.0015625 188.45 472.92 0.88893 1.8138 2.2923 1754.9 -0.0063802 322.23 0.18884 640.00 0.0015625 188.45 472.92 0.88893 1.8138 2.2923 1754.9 -0.0063802 322.23 0.18884
35.375 26586. undefined 190.27 476.68 0.89483 640.00 0.0015625 190.27 476.68 0.89483 1.8180 2.2956 1756.2 -0.0063723 321.96 0.18906 640.00 0.0015625 190.27 476.68 0.89483 1.8180 2.2956 1756.2 -0.0063723 321.96 0.18906
36.375 26767. undefined 192.09 480.45 0.90072 640.00 0.0015625 192.09 480.45 0.90072 1.8222 2.2989 1757.5 -0.0063643 321.69 0.18929 640.00 0.0015625 192.09 480.45 0.90072 1.8222 2.2989 1757.5 -0.0063643 321.69 0.18929
37.375 26947. undefined 193.91 484.21 0.90660 640.00 0.0015625 193.91 484.21 0.90660 1.8265 2.3022 1758.8 -0.0063563 321.43 0.18951 640.00 0.0015625 193.91 484.21 0.90660 1.8265 2.3022 1758.8 -0.0063563 321.43 0.18951
38.375 27127. undefined 195.74 487.98 0.91248 640.00 0.0015625 195.74 487.98 0.91248 1.8307 2.3056 1760.1 -0.0063483 321.16 0.18973 640.00 0.0015625 195.74 487.98 0.91248 1.8307 2.3056 1760.1 -0.0063483 321.16 0.18973
39.375 27306. undefined 197.58 491.75 0.91836 640.00 0.0015625 197.58 491.75 0.91836 1.8350 2.3089 1761.4 -0.0063402 320.90 0.18996 640.00 0.0015625 197.58 491.75 0.91836 1.8350 2.3089 1761.4 -0.0063402 320.90 0.18996
40.375 27485. undefined 199.41 495.52 0.92423 640.00 0.0015625 199.41 495.52 0.92423 1.8392 2.3122 1762.7 -0.0063322 320.64 0.19018 640.00 0.0015625 199.41 495.52 0.92423 1.8392 2.3122 1762.7 -0.0063322 320.64 0.19018
41.375 27665. undefined 201.25 499.29 0.93009 640.00 0.0015625 201.25 499.29 0.93009 1.8435 2.3156 1764.0 -0.0063241 320.39 0.19041 640.00 0.0015625 201.25 499.29 0.93009 1.8435 2.3156 1764.0 -0.0063241 320.39 0.19041
42.375 27843. undefined 203.10 503.06 0.93595 640.00 0.0015625 203.10 503.06 0.93595 1.8478 2.3189 1765.3 -0.0063160 320.13 0.19063 640.00 0.0015625 203.10 503.06 0.93595 1.8478 2.3189 1765.3 -0.0063160 320.13 0.19063
43.375 28022. undefined 204.95 506.83 0.94180 640.00 0.0015625 204.95 506.83 0.94180 1.8520 2.3223 1766.6 -0.0063079 319.88 0.19086 640.00 0.0015625 204.95 506.83 0.94180 1.8520 2.3223 1766.6 -0.0063079 319.88 0.19086
44.375 28200. undefined 206.80 510.61 0.94765 640.00 0.0015625 206.80 510.61 0.94765 1.8563 2.3257 1767.9 -0.0062998 319.63 0.19108 640.00 0.0015625 206.80 510.61 0.94765 1.8563 2.3257 1767.9 -0.0062998 319.63 0.19108
45.375 28379. undefined 208.66 514.39 0.95349 640.00 0.0015625 208.66 514.39 0.95349 1.8606 2.3291 1769.2 -0.0062917 319.39 0.19131 640.00 0.0015625 208.66 514.39 0.95349 1.8606 2.3291 1769.2 -0.0062917 319.39 0.19131
46.375 28557. undefined 210.52 518.17 0.95933 640.00 0.0015625 210.52 518.17 0.95933 1.8648 2.3325 1770.4 -0.0062836 319.14 0.19154 640.00 0.0015625 210.52 518.17 0.95933 1.8648 2.3325 1770.4 -0.0062836 319.14 0.19154
47.375 28734. undefined 212.39 521.95 0.96517 640.00 0.0015625 212.39 521.95 0.96517 1.8691 2.3359 1771.7 -0.0062755 318.90 0.19176 640.00 0.0015625 212.39 521.95 0.96517 1.8691 2.3359 1771.7 -0.0062755 318.90 0.19176
48.375 28912. undefined 214.26 525.73 0.97100 640.00 0.0015625 214.26 525.73 0.97100 1.8734 2.3393 1773.0 -0.0062673 318.66 0.19199 640.00 0.0015625 214.26 525.73 0.97100 1.8734 2.3393 1773.0 -0.0062673 318.66 0.19199
49.375 29089. undefined 216.14 529.51 0.97682 640.00 0.0015625 216.14 529.51 0.97682 1.8777 2.3427 1774.3 -0.0062592 318.43 0.19222 640.00 0.0015625 216.14 529.51 0.97682 1.8777 2.3427 1774.3 -0.0062592 318.43 0.19222
50.375 29266. undefined 218.02 533.30 0.98264 640.00 0.0015625 218.02 533.30 0.98264 1.8820 2.3462 1775.5 -0.0062510 318.19 0.19244 640.00 0.0015625 218.02 533.30 0.98264 1.8820 2.3462 1775.5 -0.0062510 318.19 0.19244
51.375 29442. undefined 219.90 537.09 0.98845 640.00 0.0015625 219.90 537.09 0.98845 1.8863 2.3496 1776.8 -0.0062428 317.96 0.19267 640.00 0.0015625 219.90 537.09 0.98845 1.8863 2.3496 1776.8 -0.0062428 317.96 0.19267
52.375 29619. undefined 221.79 540.88 0.99426 640.00 0.0015625 221.79 540.88 0.99426 1.8906 2.3531 1778.1 -0.0062346 317.73 0.19290 640.00 0.0015625 221.79 540.88 0.99426 1.8906 2.3531 1778.1 -0.0062346 317.73 0.19290
53.375 29795. undefined 223.68 544.67 1.0001 640.00 0.0015625 223.68 544.67 1.0001 1.8949 2.3565 1779.3 -0.0062264 317.50 0.19313 640.00 0.0015625 223.68 544.67 1.0001 1.8949 2.3565 1779.3 -0.0062264 317.50 0.19313
54.375 29971. undefined 225.58 548.46 1.0059 640.00 0.0015625 225.58 548.46 1.0059 1.8992 2.3600 1780.6 -0.0062182 317.28 0.19336 640.00 0.0015625 225.58 548.46 1.0059 1.8992 2.3600 1780.6 -0.0062182 317.28 0.19336
55.375 30147. undefined 227.48 552.25 1.0117 640.00 0.0015625 227.48 552.25 1.0117 1.9035 2.3635 1781.8 -0.0062101 317.05 0.19359 640.00 0.0015625 227.48 552.25 1.0117 1.9035 2.3635 1781.8 -0.0062101 317.05 0.19359
56.375 30322. undefined 229.39 556.05 1.0175 640.00 0.0015625 229.39 556.05 1.0175 1.9078 2.3669 1783.1 -0.0062018 316.83 0.19382 640.00 0.0015625 229.39 556.05 1.0175 1.9078 2.3669 1783.1 -0.0062018 316.83 0.19382
57.375 30498. undefined 231.30 559.85 1.0232 640.00 0.0015625 231.30 559.85 1.0232 1.9121 2.3704 1784.3 -0.0061936 316.61 0.19404 640.00 0.0015625 231.30 559.85 1.0232 1.9121 2.3704 1784.3 -0.0061936 316.61 0.19404
58.375 30673. undefined 233.21 563.65 1.0290 640.00 0.0015625 233.21 563.65 1.0290 1.9164 2.3739 1785.6 -0.0061854 316.39 0.19427 640.00 0.0015625 233.21 563.65 1.0290 1.9164 2.3739 1785.6 -0.0061854 316.39 0.19427
59.375 30847. undefined 235.13 567.45 1.0348 640.00 0.0015625 235.13 567.45 1.0348 1.9207 2.3774 1786.8 -0.0061772 316.18 0.19450 640.00 0.0015625 235.13 567.45 1.0348 1.9207 2.3774 1786.8 -0.0061772 316.18 0.19450
60.375 31022. undefined 237.05 571.26 1.0406 640.00 0.0015625 237.05 571.26 1.0406 1.9250 2.3809 1788.0 -0.0061690 315.97 0.19473 640.00 0.0015625 237.05 571.26 1.0406 1.9250 2.3809 1788.0 -0.0061690 315.97 0.19473
61.375 31196. undefined 238.98 575.06 1.0463 640.00 0.0015625 238.98 575.06 1.0463 1.9293 2.3845 1789.3 -0.0061608 315.75 0.19497 640.00 0.0015625 238.98 575.06 1.0463 1.9293 2.3845 1789.3 -0.0061608 315.75 0.19497
62.375 31371. undefined 240.91 578.87 1.0521 640.00 0.0015625 240.91 578.87 1.0521 1.9336 2.3880 1790.5 -0.0061526 315.54 0.19520 640.00 0.0015625 240.91 578.87 1.0521 1.9336 2.3880 1790.5 -0.0061526 315.54 0.19520
63.375 31545. undefined 242.85 582.68 1.0579 640.00 0.0015625 242.85 582.68 1.0579 1.9379 2.3915 1791.7 -0.0061444 315.34 0.19543 640.00 0.0015625 242.85 582.68 1.0579 1.9379 2.3915 1791.7 -0.0061444 315.34 0.19543
64.375 31718. undefined 244.79 586.49 1.0636 640.00 0.0015625 244.79 586.49 1.0636 1.9423 2.3951 1793.0 -0.0061361 315.13 0.19566 640.00 0.0015625 244.79 586.49 1.0636 1.9423 2.3951 1793.0 -0.0061361 315.13 0.19566
65.375 31892. undefined 246.73 590.30 1.0694 640.00 0.0015625 246.73 590.30 1.0694 1.9466 2.3986 1794.2 -0.0061279 314.93 0.19589 640.00 0.0015625 246.73 590.30 1.0694 1.9466 2.3986 1794.2 -0.0061279 314.93 0.19589
66.375 32065. undefined 248.68 594.12 1.0751 640.00 0.0015625 248.68 594.12 1.0751 1.9509 2.4021 1795.4 -0.0061197 314.73 0.19612 640.00 0.0015625 248.68 594.12 1.0751 1.9509 2.4021 1795.4 -0.0061197 314.73 0.19612
67.375 32238. undefined 250.63 597.94 1.0809 640.00 0.0015625 250.63 597.94 1.0809 1.9552 2.4057 1796.6 -0.0061115 314.53 0.19636 640.00 0.0015625 250.63 597.94 1.0809 1.9552 2.4057 1796.6 -0.0061115 314.53 0.19636
68.375 32411. undefined 252.59 601.75 1.0866 640.00 0.0015625 252.59 601.75 1.0866 1.9595 2.4093 1797.8 -0.0061033 314.33 0.19659 640.00 0.0015625 252.59 601.75 1.0866 1.9595 2.4093 1797.8 -0.0061033 314.33 0.19659
69.375 32583. undefined 254.55 605.58 1.0924 640.00 0.0015625 254.55 605.58 1.0924 1.9639 2.4128 1799.1 -0.0060951 314.13 0.19682 640.00 0.0015625 254.55 605.58 1.0924 1.9639 2.4128 1799.1 -0.0060951 314.13 0.19682
70.375 32756. undefined 256.52 609.40 1.0981 640.00 0.0015625 256.52 609.40 1.0981 1.9682 2.4164 1800.3 -0.0060869 313.94 0.19706 640.00 0.0015625 256.52 609.40 1.0981 1.9682 2.4164 1800.3 -0.0060869 313.94 0.19706
71.375 32928. undefined 258.49 613.22 1.1038 640.00 0.0015625 258.49 613.22 1.1038 1.9725 2.4200 1801.5 -0.0060787 313.75 0.19729 640.00 0.0015625 258.49 613.22 1.1038 1.9725 2.4200 1801.5 -0.0060787 313.75 0.19729
72.375 33100. undefined 260.46 617.05 1.1095 640.00 0.0015625 260.46 617.05 1.1095 1.9768 2.4235 1802.7 -0.0060705 313.55 0.19752 640.00 0.0015625 260.46 617.05 1.1095 1.9768 2.4235 1802.7 -0.0060705 313.55 0.19752
73.375 33272. undefined 262.44 620.88 1.1153 640.00 0.0015625 262.44 620.88 1.1153 1.9812 2.4271 1803.9 -0.0060623 313.37 0.19776 640.00 0.0015625 262.44 620.88 1.1153 1.9812 2.4271 1803.9 -0.0060623 313.37 0.19776
74.375 33443. undefined 264.43 624.71 1.1210 640.00 0.0015625 264.43 624.71 1.1210 1.9855 2.4307 1805.1 -0.0060541 313.18 0.19799 640.00 0.0015625 264.43 624.71 1.1210 1.9855 2.4307 1805.1 -0.0060541 313.18 0.19799
75.375 33614. undefined 266.41 628.54 1.1267 640.00 0.0015625 266.41 628.54 1.1267 1.9898 2.4343 1806.3 -0.0060459 312.99 0.19823 640.00 0.0015625 266.41 628.54 1.1267 1.9898 2.4343 1806.3 -0.0060459 312.99 0.19823
76.375 33786. undefined 268.41 632.38 1.1324 640.00 0.0015625 268.41 632.38 1.1324 1.9941 2.4379 1807.5 -0.0060378 312.81 0.19846 640.00 0.0015625 268.41 632.38 1.1324 1.9941 2.4379 1807.5 -0.0060378 312.81 0.19846
77.375 33956. undefined 270.40 636.22 1.1381 640.00 0.0015625 270.40 636.22 1.1381 1.9985 2.4415 1808.7 -0.0060296 312.63 0.19870 640.00 0.0015625 270.40 636.22 1.1381 1.9985 2.4415 1808.7 -0.0060296 312.63 0.19870
78.375 34127. undefined 272.40 640.06 1.1438 640.00 0.0015625 272.40 640.06 1.1438 2.0028 2.4451 1809.9 -0.0060214 312.45 0.19893 640.00 0.0015625 272.40 640.06 1.1438 2.0028 2.4451 1809.9 -0.0060214 312.45 0.19893
79.375 34298. undefined 274.41 643.90 1.1495 640.00 0.0015625 274.41 643.90 1.1495 2.0071 2.4487 1811.0 -0.0060133 312.27 0.19917 640.00 0.0015625 274.41 643.90 1.1495 2.0071 2.4487 1811.0 -0.0060133 312.27 0.19917
80.375 34468. undefined 276.42 647.74 1.1552 640.00 0.0015625 276.42 647.74 1.1552 2.0114 2.4524 1812.2 -0.0060051 312.09 0.19940 640.00 0.0015625 276.42 647.74 1.1552 2.0114 2.4524 1812.2 -0.0060051 312.09 0.19940
81.375 34638. undefined 278.43 651.59 1.1609 640.00 0.0015625 278.43 651.59 1.1609 2.0158 2.4560 1813.4 -0.0059970 311.91 0.19964 640.00 0.0015625 278.43 651.59 1.1609 2.0158 2.4560 1813.4 -0.0059970 311.91 0.19964
82.375 34808. undefined 280.45 655.43 1.1665 640.00 0.0015625 280.45 655.43 1.1665 2.0201 2.4596 1814.6 -0.0059889 311.74 0.19988 640.00 0.0015625 280.45 655.43 1.1665 2.0201 2.4596 1814.6 -0.0059889 311.74 0.19988
83.375 34977. undefined 282.47 659.28 1.1722 640.00 0.0015625 282.47 659.28 1.1722 2.0244 2.4632 1815.8 -0.0059808 311.57 0.20011 640.00 0.0015625 282.47 659.28 1.1722 2.0244 2.4632 1815.8 -0.0059808 311.57 0.20011
84.375 35147. undefined 284.50 663.13 1.1779 640.00 0.0015625 284.50 663.13 1.1779 2.0287 2.4669 1817.0 -0.0059726 311.40 0.20035 640.00 0.0015625 284.50 663.13 1.1779 2.0287 2.4669 1817.0 -0.0059726 311.40 0.20035
85.375 35316. undefined 286.53 666.99 1.1836 640.00 0.0015625 286.53 666.99 1.1836 2.0330 2.4705 1818.1 -0.0059645 311.23 0.20059 640.00 0.0015625 286.53 666.99 1.1836 2.0330 2.4705 1818.1 -0.0059645 311.23 0.20059
86.375 35485. undefined 288.56 670.84 1.1892 640.00 0.0015625 288.56 670.84 1.1892 2.0374 2.4741 1819.3 -0.0059565 311.06 0.20083 640.00 0.0015625 288.56 670.84 1.1892 2.0374 2.4741 1819.3 -0.0059565 311.06 0.20083
87.375 35654. undefined 290.60 674.70 1.1949 640.00 0.0015625 290.60 674.70 1.1949 2.0417 2.4778 1820.5 -0.0059484 310.89 0.20107 640.00 0.0015625 290.60 674.70 1.1949 2.0417 2.4778 1820.5 -0.0059484 310.89 0.20107
88.375 35822. undefined 292.65 678.56 1.2006 640.00 0.0015625 292.65 678.56 1.2006 2.0460 2.4814 1821.6 -0.0059403 310.73 0.20130 640.00 0.0015625 292.65 678.56 1.2006 2.0460 2.4814 1821.6 -0.0059403 310.73 0.20130
89.375 35991. undefined 294.70 682.42 1.2062 640.00 0.0015625 294.70 682.42 1.2062 2.0503 2.4851 1822.8 -0.0059323 310.56 0.20154 640.00 0.0015625 294.70 682.42 1.2062 2.0503 2.4851 1822.8 -0.0059323 310.56 0.20154
90.375 36159. undefined 296.75 686.29 1.2119 640.00 0.0015625 296.75 686.29 1.2119 2.0546 2.4887 1824.0 -0.0059242 310.40 0.20178 640.00 0.0015625 296.75 686.29 1.2119 2.0546 2.4887 1824.0 -0.0059242 310.40 0.20178
91.375 36327. undefined 298.80 690.16 1.2175 640.00 0.0015625 298.80 690.16 1.2175 2.0590 2.4924 1825.1 -0.0059162 310.24 0.20202 640.00 0.0015625 298.80 690.16 1.2175 2.0590 2.4924 1825.1 -0.0059162 310.24 0.20202
92.375 36495. undefined 300.87 694.03 1.2232 640.00 0.0015625 300.87 694.03 1.2232 2.0633 2.4960 1826.3 -0.0059081 310.08 0.20226 640.00 0.0015625 300.87 694.03 1.2232 2.0633 2.4960 1826.3 -0.0059081 310.08 0.20226
93.375 36662. undefined 302.93 697.90 1.2288 640.00 0.0015625 302.93 697.90 1.2288 2.0676 2.4997 1827.4 -0.0059001 309.92 0.20250 640.00 0.0015625 302.93 697.90 1.2288 2.0676 2.4997 1827.4 -0.0059001 309.92 0.20250
94.375 36830. undefined 305.00 701.77 1.2345 640.00 0.0015625 305.00 701.77 1.2345 2.0719 2.5033 1828.6 -0.0058921 309.77 0.20274 640.00 0.0015625 305.00 701.77 1.2345 2.0719 2.5033 1828.6 -0.0058921 309.77 0.20274
95.375 36997. undefined 307.07 705.64 1.2401 640.00 0.0015625 307.07 705.64 1.2401 2.0762 2.5070 1829.8 -0.0058841 309.61 0.20298 640.00 0.0015625 307.07 705.64 1.2401 2.0762 2.5070 1829.8 -0.0058841 309.61 0.20298
96.375 37164. undefined 309.15 709.52 1.2457 640.00 0.0015625 309.15 709.52 1.2457 2.0805 2.5107 1830.9 -0.0058762 309.46 0.20322 640.00 0.0015625 309.15 709.52 1.2457 2.0805 2.5107 1830.9 -0.0058762 309.46 0.20322
97.375 37331. undefined 311.24 713.40 1.2514 640.00 0.0015625 311.24 713.40 1.2514 2.0848 2.5143 1832.1 -0.0058682 309.31 0.20347 640.00 0.0015625 311.24 713.40 1.2514 2.0848 2.5143 1832.1 -0.0058682 309.31 0.20347
98.375 37497. undefined 313.32 717.28 1.2570 640.00 0.0015625 313.32 717.28 1.2570 2.0891 2.5180 1833.2 -0.0058603 309.16 0.20371 640.00 0.0015625 313.32 717.28 1.2570 2.0891 2.5180 1833.2 -0.0058603 309.16 0.20371
99.375 37664. undefined 315.41 721.17 1.2626 640.00 0.0015625 315.41 721.17 1.2626 2.0935 2.5217 1834.3 -0.0058523 309.01 0.20395 640.00 0.0015625 315.41 721.17 1.2626 2.0935 2.5217 1834.3 -0.0058523 309.01 0.20395
100.38 37830. undefined 317.51 725.05 1.2682 640.00 0.0015625 317.51 725.05 1.2682 2.0978 2.5253 1835.5 -0.0058444 308.86 0.20419 640.00 0.0015625 317.51 725.05 1.2682 2.0978 2.5253 1835.5 -0.0058444 308.86 0.20419
101.38 37996. undefined 319.61 728.94 1.2738 640.00 0.0015625 319.61 728.94 1.2738 2.1021 2.5290 1836.6 -0.0058365 308.71 0.20443 640.00 0.0015625 319.61 728.94 1.2738 2.1021 2.5290 1836.6 -0.0058365 308.71 0.20443
102.38 38162. undefined 321.71 732.83 1.2794 640.00 0.0015625 321.71 732.83 1.2794 2.1064 2.5327 1837.8 -0.0058286 308.56 0.20468 640.00 0.0015625 321.71 732.83 1.2794 2.1064 2.5327 1837.8 -0.0058286 308.56 0.20468
103.38 38328. undefined 323.82 736.73 1.2851 640.00 0.0015625 323.82 736.73 1.2851 2.1107 2.5364 1838.9 -0.0058207 308.42 0.20492 640.00 0.0015625 323.82 736.73 1.2851 2.1107 2.5364 1838.9 -0.0058207 308.42 0.20492
104.38 38493. undefined 325.94 740.62 1.2907 640.00 0.0015625 325.94 740.62 1.2907 2.1150 2.5400 1840.0 -0.0058129 308.28 0.20516 640.00 0.0015625 325.94 740.62 1.2907 2.1150 2.5400 1840.0 -0.0058129 308.28 0.20516
105.38 38658. undefined 328.05 744.52 1.2963 640.00 0.0015625 328.05 744.52 1.2963 2.1192 2.5437 1841.2 -0.0058050 308.13 0.20541 640.00 0.0015625 328.05 744.52 1.2963 2.1192 2.5437 1841.2 -0.0058050 308.13 0.20541
106.38 38823. undefined 330.17 748.42 1.3019 640.00 0.0015625 330.17 748.42 1.3019 2.1235 2.5474 1842.3 -0.0057972 307.99 0.20565 640.00 0.0015625 330.17 748.42 1.3019 2.1235 2.5474 1842.3 -0.0057972 307.99 0.20565
107.38 38988. undefined 332.30 752.32 1.3075 640.00 0.0015625 332.30 752.32 1.3075 2.1278 2.5511 1843.4 -0.0057894 307.85 0.20589 640.00 0.0015625 332.30 752.32 1.3075 2.1278 2.5511 1843.4 -0.0057894 307.85 0.20589
108.38 39153. undefined 334.43 756.23 1.3130 640.00 0.0015625 334.43 756.23 1.3130 2.1321 2.5547 1844.5 -0.0057816 307.72 0.20614 640.00 0.0015625 334.43 756.23 1.3130 2.1321 2.5547 1844.5 -0.0057816 307.72 0.20614
109.38 39318. undefined 336.56 760.13 1.3186 640.00 0.0015625 336.56 760.13 1.3186 2.1364 2.5584 1845.7 -0.0057738 307.58 0.20638 640.00 0.0015625 336.56 760.13 1.3186 2.1364 2.5584 1845.7 -0.0057738 307.58 0.20638
110.38 39482. undefined 338.70 764.04 1.3242 640.00 0.0015625 338.70 764.04 1.3242 2.1407 2.5621 1846.8 -0.0057660 307.44 0.20663 640.00 0.0015625 338.70 764.04 1.3242 2.1407 2.5621 1846.8 -0.0057660 307.44 0.20663
111.38 39646. undefined 340.84 767.96 1.3298 640.00 0.0015625 340.84 767.96 1.3298 2.1450 2.5658 1847.9 -0.0057583 307.31 0.20687 640.00 0.0015625 340.84 767.96 1.3298 2.1450 2.5658 1847.9 -0.0057583 307.31 0.20687
112.38 39810. undefined 342.99 771.87 1.3354 640.00 0.0015625 342.99 771.87 1.3354 2.1492 2.5695 1849.0 -0.0057506 307.17 0.20712 640.00 0.0015625 342.99 771.87 1.3354 2.1492 2.5695 1849.0 -0.0057506 307.17 0.20712
113.38 39974. undefined 345.14 775.78 1.3409 640.00 0.0015625 345.14 775.78 1.3409 2.1535 2.5732 1850.2 -0.0057428 307.04 0.20736 640.00 0.0015625 345.14 775.78 1.3409 2.1535 2.5732 1850.2 -0.0057428 307.04 0.20736
114.38 40138. undefined 347.30 779.70 1.3465 640.00 0.0015625 347.30 779.70 1.3465 2.1578 2.5769 1851.3 -0.0057351 306.91 0.20761 640.00 0.0015625 347.30 779.70 1.3465 2.1578 2.5769 1851.3 -0.0057351 306.91 0.20761
115.38 40301. undefined 349.46 783.62 1.3521 640.00 0.0015625 349.46 783.62 1.3521 2.1621 2.5805 1852.4 -0.0057275 306.78 0.20786 640.00 0.0015625 349.46 783.62 1.3521 2.1621 2.5805 1852.4 -0.0057275 306.78 0.20786
116.38 40464. undefined 351.62 787.55 1.3576 640.00 0.0015625 351.62 787.55 1.3576 2.1663 2.5842 1853.5 -0.0057198 306.65 0.20810 640.00 0.0015625 351.62 787.55 1.3576 2.1663 2.5842 1853.5 -0.0057198 306.65 0.20810
117.38 40627. undefined 353.79 791.47 1.3632 640.00 0.0015625 353.79 791.47 1.3632 2.1706 2.5879 1854.6 -0.0057121 306.52 0.20835 640.00 0.0015625 353.79 791.47 1.3632 2.1706 2.5879 1854.6 -0.0057121 306.52 0.20835
118.38 40790. undefined 355.96 795.40 1.3688 640.00 0.0015625 355.96 795.40 1.3688 2.1749 2.5916 1855.7 -0.0057045 306.40 0.20860 640.00 0.0015625 355.96 795.40 1.3688 2.1749 2.5916 1855.7 -0.0057045 306.40 0.20860
119.38 40953. undefined 358.14 799.33 1.3743 640.00 0.0015625 358.14 799.33 1.3743 2.1791 2.5953 1856.8 -0.0056969 306.27 0.20885 640.00 0.0015625 358.14 799.33 1.3743 2.1791 2.5953 1856.8 -0.0056969 306.27 0.20885
120.38 41115. undefined 360.32 803.26 1.3799 640.00 0.0015625 360.32 803.26 1.3799 2.1834 2.5990 1857.9 -0.0056893 306.15 0.20909 640.00 0.0015625 360.32 803.26 1.3799 2.1834 2.5990 1857.9 -0.0056893 306.15 0.20909
121.38 41278. undefined 362.51 807.20 1.3854 640.00 0.0015625 362.51 807.20 1.3854 2.1876 2.6027 1859.0 -0.0056817 306.02 0.20934 640.00 0.0015625 362.51 807.20 1.3854 2.1876 2.6027 1859.0 -0.0056817 306.02 0.20934
122.38 41440. undefined 364.70 811.13 1.3909 640.00 0.0015625 364.70 811.13 1.3909 2.1919 2.6063 1860.1 -0.0056742 305.90 0.20959 640.00 0.0015625 364.70 811.13 1.3909 2.1919 2.6063 1860.1 -0.0056742 305.90 0.20959
123.38 41602. undefined 366.89 815.07 1.3965 640.00 0.0015625 366.89 815.07 1.3965 2.1961 2.6100 1861.2 -0.0056666 305.78 0.20984 640.00 0.0015625 366.89 815.07 1.3965 2.1961 2.6100 1861.2 -0.0056666 305.78 0.20984
124.38 41764. undefined 369.09 819.01 1.4020 640.00 0.0015625 369.09 819.01 1.4020 2.2004 2.6137 1862.3 -0.0056591 305.66 0.21009 640.00 0.0015625 369.09 819.01 1.4020 2.2004 2.6137 1862.3 -0.0056591 305.66 0.21009
125.38 41925. undefined 371.29 822.96 1.4076 640.00 0.0015625 371.29 822.96 1.4076 2.2046 2.6174 1863.4 -0.0056516 305.54 0.21034 640.00 0.0015625 371.29 822.96 1.4076 2.2046 2.6174 1863.4 -0.0056516 305.54 0.21034
126.38 42087. undefined 373.50 826.90 1.4131 640.00 0.0015625 373.50 826.90 1.4131 2.2088 2.6211 1864.5 -0.0056441 305.42 0.21059 640.00 0.0015625 373.50 826.90 1.4131 2.2088 2.6211 1864.5 -0.0056441 305.42 0.21059
127.38 42248. undefined 375.71 830.85 1.4186 640.00 0.0015625 375.71 830.85 1.4186 2.2131 2.6248 1865.6 -0.0056366 305.30 0.21084 640.00 0.0015625 375.71 830.85 1.4186 2.2131 2.6248 1865.6 -0.0056366 305.30 0.21084
128.38 42409. undefined 377.93 834.80 1.4241 640.00 0.0015625 377.93 834.80 1.4241 2.2173 2.6285 1866.7 -0.0056292 305.18 0.21109 640.00 0.0015625 377.93 834.80 1.4241 2.2173 2.6285 1866.7 -0.0056292 305.18 0.21109
129.38 42570. undefined 380.14 838.76 1.4297 640.00 0.0015625 380.14 838.76 1.4297 2.2215 2.6321 1867.8 -0.0056217 305.07 0.21134 640.00 0.0015625 380.14 838.76 1.4297 2.2215 2.6321 1867.8 -0.0056217 305.07 0.21134
130.38 42731. undefined 382.37 842.71 1.4352 640.00 0.0015625 382.37 842.71 1.4352 2.2258 2.6358 1868.8 -0.0056143 304.95 0.21159 640.00 0.0015625 382.37 842.71 1.4352 2.2258 2.6358 1868.8 -0.0056143 304.95 0.21159
131.38 42892. undefined 384.60 846.67 1.4407 640.00 0.0015625 384.60 846.67 1.4407 2.2300 2.6395 1869.9 -0.0056069 304.84 0.21184 640.00 0.0015625 384.60 846.67 1.4407 2.2300 2.6395 1869.9 -0.0056069 304.84 0.21184
132.38 43052. undefined 386.83 850.63 1.4462 640.00 0.0015625 386.83 850.63 1.4462 2.2342 2.6432 1871.0 -0.0055996 304.73 0.21209 640.00 0.0015625 386.83 850.63 1.4462 2.2342 2.6432 1871.0 -0.0055996 304.73 0.21209
133.38 43212. undefined 389.06 854.59 1.4517 640.00 0.0015625 389.06 854.59 1.4517 2.2384 2.6469 1872.1 -0.0055922 304.62 0.21234 640.00 0.0015625 389.06 854.59 1.4517 2.2384 2.6469 1872.1 -0.0055922 304.62 0.21234
134.38 43372. undefined 391.31 858.56 1.4572 640.00 0.0015625 391.31 858.56 1.4572 2.2426 2.6505 1873.2 -0.0055849 304.50 0.21260 640.00 0.0015625 391.31 858.56 1.4572 2.2426 2.6505 1873.2 -0.0055849 304.50 0.21260
135.38 43532. undefined 393.55 862.53 1.4627 640.00 0.0015625 393.55 862.53 1.4627 2.2468 2.6542 1874.3 -0.0055775 304.39 0.21285 640.00 0.0015625 393.55 862.53 1.4627 2.2468 2.6542 1874.3 -0.0055775 304.39 0.21285
136.38 43692. undefined 395.80 866.50 1.4682 640.00 0.0015625 395.80 866.50 1.4682 2.2510 2.6579 1875.3 -0.0055702 304.29 0.21310 640.00 0.0015625 395.80 866.50 1.4682 2.2510 2.6579 1875.3 -0.0055702 304.29 0.21310
137.38 43852. undefined 398.05 870.47 1.4737 640.00 0.0015625 398.05 870.47 1.4737 2.2552 2.6616 1876.4 -0.0055630 304.18 0.21335 640.00 0.0015625 398.05 870.47 1.4737 2.2552 2.6616 1876.4 -0.0055630 304.18 0.21335
138.38 44011. undefined 400.31 874.44 1.4792 640.00 0.0015625 400.31 874.44 1.4792 2.2594 2.6652 1877.5 -0.0055557 304.07 0.21361 640.00 0.0015625 400.31 874.44 1.4792 2.2594 2.6652 1877.5 -0.0055557 304.07 0.21361
139.38 44170. undefined 402.57 878.42 1.4847 640.00 0.0015625 402.57 878.42 1.4847 2.2636 2.6689 1878.5 -0.0055485 303.96 0.21386 640.00 0.0015625 402.57 878.42 1.4847 2.2636 2.6689 1878.5 -0.0055485 303.96 0.21386
140.38 44330. undefined 404.84 882.40 1.4902 640.00 0.0015625 404.84 882.40 1.4902 2.2678 2.6726 1879.6 -0.0055412 303.86 0.21411 640.00 0.0015625 404.84 882.40 1.4902 2.2678 2.6726 1879.6 -0.0055412 303.86 0.21411
141.38 44488. undefined 407.11 886.38 1.4957 640.00 0.0015625 407.11 886.38 1.4957 2.2720 2.6763 1880.7 -0.0055340 303.75 0.21437 640.00 0.0015625 407.11 886.38 1.4957 2.2720 2.6763 1880.7 -0.0055340 303.75 0.21437
142.38 44647. undefined 409.38 890.37 1.5011 640.00 0.0015625 409.38 890.37 1.5011 2.2762 2.6799 1881.7 -0.0055269 303.65 0.21462 640.00 0.0015625 409.38 890.37 1.5011 2.2762 2.6799 1881.7 -0.0055269 303.65 0.21462
143.38 44806. undefined 411.66 894.35 1.5066 640.00 0.0015625 411.66 894.35 1.5066 2.2804 2.6836 1882.8 -0.0055197 303.55 0.21488 640.00 0.0015625 411.66 894.35 1.5066 2.2804 2.6836 1882.8 -0.0055197 303.55 0.21488
144.38 44964. undefined 413.94 898.34 1.5121 640.00 0.0015625 413.94 898.34 1.5121 2.2845 2.6873 1883.9 -0.0055125 303.45 0.21513 640.00 0.0015625 413.94 898.34 1.5121 2.2845 2.6873 1883.9 -0.0055125 303.45 0.21513
145.38 45123. undefined 416.23 902.34 1.5176 640.00 0.0015625 416.23 902.34 1.5176 2.2887 2.6909 1884.9 -0.0055054 303.34 0.21539 640.00 0.0015625 416.23 902.34 1.5176 2.2887 2.6909 1884.9 -0.0055054 303.34 0.21539
146.38 45281. undefined 418.52 906.33 1.5230 640.00 0.0015625 418.52 906.33 1.5230 2.2929 2.6946 1886.0 -0.0054983 303.24 0.21564 640.00 0.0015625 418.52 906.33 1.5230 2.2929 2.6946 1886.0 -0.0054983 303.24 0.21564
147.38 45439. undefined 420.81 910.33 1.5285 640.00 0.0015625 420.81 910.33 1.5285 2.2970 2.6982 1887.1 -0.0054912 303.14 0.21590 640.00 0.0015625 420.81 910.33 1.5285 2.2970 2.6982 1887.1 -0.0054912 303.14 0.21590
148.38 45596. undefined 423.11 914.32 1.5339 640.00 0.0015625 423.11 914.32 1.5339 2.3012 2.7019 1888.1 -0.0054842 303.05 0.21616 640.00 0.0015625 423.11 914.32 1.5339 2.3012 2.7019 1888.1 -0.0054842 303.05 0.21616
149.38 45754. undefined 425.42 918.33 1.5394 640.00 0.0015625 425.42 918.33 1.5394 2.3053 2.7056 1889.2 -0.0054771 302.95 0.21641 640.00 0.0015625 425.42 918.33 1.5394 2.3053 2.7056 1889.2 -0.0054771 302.95 0.21641
150.38 45911. undefined 427.72 922.33 1.5449 640.00 0.0015625 427.72 922.33 1.5449 2.3095 2.7092 1890.2 -0.0054701 302.85 0.21667 640.00 0.0015625 427.72 922.33 1.5449 2.3095 2.7092 1890.2 -0.0054701 302.85 0.21667
151.38 46069. undefined 430.03 926.34 1.5503 640.00 0.0015625 430.03 926.34 1.5503 2.3136 2.7129 1891.3 -0.0054631 302.75 0.21693 640.00 0.0015625 430.03 926.34 1.5503 2.3136 2.7129 1891.3 -0.0054631 302.75 0.21693
152.38 46226. undefined 432.35 930.34 1.5558 640.00 0.0015625 432.35 930.34 1.5558 2.3178 2.7165 1892.3 -0.0054561 302.66 0.21718 640.00 0.0015625 432.35 930.34 1.5558 2.3178 2.7165 1892.3 -0.0054561 302.66 0.21718
153.38 46383. undefined 434.67 934.36 1.5612 640.00 0.0015625 434.67 934.36 1.5612 2.3219 2.7202 1893.4 -0.0054492 302.56 0.21744 640.00 0.0015625 434.67 934.36 1.5612 2.3219 2.7202 1893.4 -0.0054492 302.56 0.21744
154.38 46540. undefined 436.99 938.37 1.5666 640.00 0.0015625 436.99 938.37 1.5666 2.3260 2.7238 1894.4 -0.0054422 302.47 0.21770 640.00 0.0015625 436.99 938.37 1.5666 2.3260 2.7238 1894.4 -0.0054422 302.47 0.21770
155.38 46696. undefined 439.32 942.38 1.5721 640.00 0.0015625 439.32 942.38 1.5721 2.3302 2.7275 1895.5 -0.0054353 302.38 0.21796 640.00 0.0015625 439.32 942.38 1.5721 2.3302 2.7275 1895.5 -0.0054353 302.38 0.21796
156.38 46853. undefined 441.65 946.40 1.5775 640.00 0.0015625 441.65 946.40 1.5775 2.3343 2.7311 1896.5 -0.0054284 302.28 0.21821 640.00 0.0015625 441.65 946.40 1.5775 2.3343 2.7311 1896.5 -0.0054284 302.28 0.21821
157.38 47009. undefined 443.99 950.42 1.5830 640.00 0.0015625 443.99 950.42 1.5830 2.3384 2.7347 1897.5 -0.0054215 302.19 0.21847 640.00 0.0015625 443.99 950.42 1.5830 2.3384 2.7347 1897.5 -0.0054215 302.19 0.21847
158.38 47165. undefined 446.33 954.45 1.5884 640.00 0.0015625 446.33 954.45 1.5884 2.3425 2.7384 1898.6 -0.0054146 302.10 0.21873 640.00 0.0015625 446.33 954.45 1.5884 2.3425 2.7384 1898.6 -0.0054146 302.10 0.21873
159.38 47321. undefined 448.68 958.47 1.5938 640.00 0.0015625 448.68 958.47 1.5938 2.3466 2.7420 1899.6 -0.0054078 302.01 0.21899 640.00 0.0015625 448.68 958.47 1.5938 2.3466 2.7420 1899.6 -0.0054078 302.01 0.21899
160.38 47477. undefined 451.02 962.50 1.5992 640.00 0.0015625 451.02 962.50 1.5992 2.3507 2.7456 1900.7 -0.0054010 301.92 0.21925 640.00 0.0015625 451.02 962.50 1.5992 2.3507 2.7456 1900.7 -0.0054010 301.92 0.21925
161.38 47633. undefined 453.38 966.53 1.6047 640.00 0.0015625 453.38 966.53 1.6047 2.3548 2.7493 1901.7 -0.0053942 301.83 0.21951 640.00 0.0015625 453.38 966.53 1.6047 2.3548 2.7493 1901.7 -0.0053942 301.83 0.21951
162.38 47789. undefined 455.73 970.56 1.6101 640.00 0.0015625 455.73 970.56 1.6101 2.3589 2.7529 1902.7 -0.0053874 301.75 0.21977 640.00 0.0015625 455.73 970.56 1.6101 2.3589 2.7529 1902.7 -0.0053874 301.75 0.21977
163.38 47944. undefined 458.10 974.60 1.6155 640.00 0.0015625 458.10 974.60 1.6155 2.3630 2.7565 1903.8 -0.0053806 301.66 0.22003 640.00 0.0015625 458.10 974.60 1.6155 2.3630 2.7565 1903.8 -0.0053806 301.66 0.22003
164.38 48099. undefined 460.46 978.64 1.6209 640.00 0.0015625 460.46 978.64 1.6209 2.3671 2.7602 1904.8 -0.0053739 301.57 0.22029 640.00 0.0015625 460.46 978.64 1.6209 2.3671 2.7602 1904.8 -0.0053739 301.57 0.22029
165.38 48254. undefined 462.83 982.68 1.6263 640.00 0.0015625 462.83 982.68 1.6263 2.3712 2.7638 1905.8 -0.0053672 301.49 0.22055 640.00 0.0015625 462.83 982.68 1.6263 2.3712 2.7638 1905.8 -0.0053672 301.49 0.22055
166.38 48409. undefined 465.20 986.72 1.6317 640.00 0.0015625 465.20 986.72 1.6317 2.3753 2.7674 1906.9 -0.0053605 301.40 0.22082 640.00 0.0015625 465.20 986.72 1.6317 2.3753 2.7674 1906.9 -0.0053605 301.40 0.22082
167.38 48564. undefined 467.58 990.77 1.6371 640.00 0.0015625 467.58 990.77 1.6371 2.3793 2.7710 1907.9 -0.0053538 301.32 0.22108 640.00 0.0015625 467.58 990.77 1.6371 2.3793 2.7710 1907.9 -0.0053538 301.32 0.22108
168.38 48719. undefined 469.96 994.81 1.6425 640.00 0.0015625 469.96 994.81 1.6425 2.3834 2.7746 1908.9 -0.0053471 301.23 0.22134 640.00 0.0015625 469.96 994.81 1.6425 2.3834 2.7746 1908.9 -0.0053471 301.23 0.22134
169.38 48873. undefined 472.35 998.86 1.6479 640.00 0.0015625 472.35 998.86 1.6479 2.3875 2.7782 1909.9 -0.0053405 301.15 0.22160 640.00 0.0015625 472.35 998.86 1.6479 2.3875 2.7782 1909.9 -0.0053405 301.15 0.22160
170.38 49028. undefined 474.74 1002.9 1.6533 640.00 0.0015625 474.74 1002.9 1.6533 2.3915 2.7818 1911.0 -0.0053338 301.07 0.22186 640.00 0.0015625 474.74 1002.9 1.6533 2.3915 2.7818 1911.0 -0.0053338 301.07 0.22186
171.38 49182. undefined 477.13 1007.0 1.6587 640.00 0.0015625 477.13 1007.0 1.6587 2.3956 2.7854 1912.0 -0.0053272 300.98 0.22213 640.00 0.0015625 477.13 1007.0 1.6587 2.3956 2.7854 1912.0 -0.0053272 300.98 0.22213
172.38 49336. undefined 479.53 1011.0 1.6641 640.00 0.0015625 479.53 1011.0 1.6641 2.3996 2.7890 1913.0 -0.0053207 300.90 0.22239 640.00 0.0015625 479.53 1011.0 1.6641 2.3996 2.7890 1913.0 -0.0053207 300.90 0.22239
173.38 49490. undefined 481.93 1015.1 1.6695 640.00 0.0015625 481.93 1015.1 1.6695 2.4037 2.7926 1914.0 -0.0053141 300.82 0.22265 640.00 0.0015625 481.93 1015.1 1.6695 2.4037 2.7926 1914.0 -0.0053141 300.82 0.22265
174.38 49644. undefined 484.33 1019.1 1.6749 640.00 0.0015625 484.33 1019.1 1.6749 2.4077 2.7962 1915.0 -0.0053076 300.74 0.22292 640.00 0.0015625 484.33 1019.1 1.6749 2.4077 2.7962 1915.0 -0.0053076 300.74 0.22292
175.38 49797. undefined 486.74 1023.2 1.6802 640.00 0.0015625 486.74 1023.2 1.6802 2.4117 2.7998 1916.0 -0.0053010 300.66 0.22318 640.00 0.0015625 486.74 1023.2 1.6802 2.4117 2.7998 1916.0 -0.0053010 300.66 0.22318
176.38 49951. undefined 489.16 1027.3 1.6856 640.00 0.0015625 489.16 1027.3 1.6856 2.4158 2.8034 1917.1 -0.0052945 300.59 0.22344 640.00 0.0015625 489.16 1027.3 1.6856 2.4158 2.8034 1917.1 -0.0052945 300.59 0.22344
177.38 50104. undefined 491.58 1031.4 1.6910 640.00 0.0015625 491.58 1031.4 1.6910 2.4198 2.8070 1918.1 -0.0052881 300.51 0.22371 640.00 0.0015625 491.58 1031.4 1.6910 2.4198 2.8070 1918.1 -0.0052881 300.51 0.22371
178.38 50257. undefined 494.00 1035.4 1.6964 640.00 0.0015625 494.00 1035.4 1.6964 2.4238 2.8106 1919.1 -0.0052816 300.43 0.22397 640.00 0.0015625 494.00 1035.4 1.6964 2.4238 2.8106 1919.1 -0.0052816 300.43 0.22397
179.38 50410. undefined 496.42 1039.5 1.7017 640.00 0.0015625 496.42 1039.5 1.7017 2.4278 2.8142 1920.1 -0.0052752 300.35 0.22424 640.00 0.0015625 496.42 1039.5 1.7017 2.4278 2.8142 1920.1 -0.0052752 300.35 0.22424
180.38 50563. undefined 498.85 1043.6 1.7071 640.00 0.0015625 498.85 1043.6 1.7071 2.4319 2.8178 1921.1 -0.0052687 300.28 0.22450 640.00 0.0015625 498.85 1043.6 1.7071 2.4319 2.8178 1921.1 -0.0052687 300.28 0.22450
181.38 50716. undefined 501.29 1047.7 1.7124 640.00 0.0015625 501.29 1047.7 1.7124 2.4359 2.8213 1922.1 -0.0052623 300.20 0.22477 640.00 0.0015625 501.29 1047.7 1.7124 2.4359 2.8213 1922.1 -0.0052623 300.20 0.22477
182.38 50869. undefined 503.73 1051.7 1.7178 640.00 0.0015625 503.73 1051.7 1.7178 2.4399 2.8249 1923.1 -0.0052559 300.13 0.22504 640.00 0.0015625 503.73 1051.7 1.7178 2.4399 2.8249 1923.1 -0.0052559 300.13 0.22504
183.38 51021. undefined 506.17 1055.8 1.7232 640.00 0.0015625 506.17 1055.8 1.7232 2.4439 2.8285 1924.1 -0.0052496 300.05 0.22530 640.00 0.0015625 506.17 1055.8 1.7232 2.4439 2.8285 1924.1 -0.0052496 300.05 0.22530
184.38 51173. undefined 508.61 1059.9 1.7285 640.00 0.0015625 508.61 1059.9 1.7285 2.4478 2.8320 1925.1 -0.0052432 299.98 0.22557 640.00 0.0015625 508.61 1059.9 1.7285 2.4478 2.8320 1925.1 -0.0052432 299.98 0.22557
185.38 51326. undefined 511.06 1064.0 1.7339 640.00 0.0015625 511.06 1064.0 1.7339 2.4518 2.8356 1926.1 -0.0052369 299.91 0.22584 640.00 0.0015625 511.06 1064.0 1.7339 2.4518 2.8356 1926.1 -0.0052369 299.91 0.22584
186.38 51478. undefined 513.52 1068.1 1.7392 640.00 0.0015625 513.52 1068.1 1.7392 2.4558 2.8392 1927.1 -0.0052306 299.83 0.22610 640.00 0.0015625 513.52 1068.1 1.7392 2.4558 2.8392 1927.1 -0.0052306 299.83 0.22610
187.38 51629. undefined 515.97 1072.2 1.7445 640.00 0.0015625 515.97 1072.2 1.7445 2.4598 2.8427 1928.1 -0.0052243 299.76 0.22637 640.00 0.0015625 515.97 1072.2 1.7445 2.4598 2.8427 1928.1 -0.0052243 299.76 0.22637
188.38 51781. undefined 518.44 1076.3 1.7499 640.00 0.0015625 518.44 1076.3 1.7499 2.4638 2.8463 1929.1 -0.0052181 299.69 0.22664 640.00 0.0015625 518.44 1076.3 1.7499 2.4638 2.8463 1929.1 -0.0052181 299.69 0.22664
189.38 51933. undefined 520.90 1080.4 1.7552 640.00 0.0015625 520.90 1080.4 1.7552 2.4677 2.8498 1930.1 -0.0052118 299.62 0.22691 640.00 0.0015625 520.90 1080.4 1.7552 2.4677 2.8498 1930.1 -0.0052118 299.62 0.22691
190.38 52084. undefined 523.37 1084.5 1.7606 640.00 0.0015625 523.37 1084.5 1.7606 2.4717 2.8534 1931.1 -0.0052056 299.55 0.22718 640.00 0.0015625 523.37 1084.5 1.7606 2.4717 2.8534 1931.1 -0.0052056 299.55 0.22718
191.38 52236. undefined 525.85 1088.6 1.7659 640.00 0.0015625 525.85 1088.6 1.7659 2.4757 2.8569 1932.1 -0.0051994 299.48 0.22744 640.00 0.0015625 525.85 1088.6 1.7659 2.4757 2.8569 1932.1 -0.0051994 299.48 0.22744
192.38 52387. undefined 528.32 1092.7 1.7712 640.00 0.0015625 528.32 1092.7 1.7712 2.4796 2.8604 1933.1 -0.0051932 299.41 0.22771 640.00 0.0015625 528.32 1092.7 1.7712 2.4796 2.8604 1933.1 -0.0051932 299.41 0.22771
193.38 52538. undefined 530.80 1096.8 1.7765 640.00 0.0015625 530.80 1096.8 1.7765 2.4835 2.8640 1934.1 -0.0051871 299.34 0.22798 640.00 0.0015625 530.80 1096.8 1.7765 2.4835 2.8640 1934.1 -0.0051871 299.34 0.22798
194.38 52689. undefined 533.29 1100.9 1.7819 640.00 0.0015625 533.29 1100.9 1.7819 2.4875 2.8675 1935.1 -0.0051809 299.27 0.22825 640.00 0.0015625 533.29 1100.9 1.7819 2.4875 2.8675 1935.1 -0.0051809 299.27 0.22825
195.38 52839. undefined 535.78 1105.0 1.7872 640.00 0.0015625 535.78 1105.0 1.7872 2.4914 2.8710 1936.1 -0.0051748 299.21 0.22852 640.00 0.0015625 535.78 1105.0 1.7872 2.4914 2.8710 1936.1 -0.0051748 299.21 0.22852
196.38 52990. undefined 538.27 1109.1 1.7925 640.00 0.0015625 538.27 1109.1 1.7925 2.4954 2.8746 1937.1 -0.0051687 299.14 0.22879 640.00 0.0015625 538.27 1109.1 1.7925 2.4954 2.8746 1937.1 -0.0051687 299.14 0.22879
197.38 53141. undefined 540.77 1113.3 1.7978 640.00 0.0015625 540.77 1113.3 1.7978 2.4993 2.8781 1938.1 -0.0051626 299.07 0.22906 640.00 0.0015625 540.77 1113.3 1.7978 2.4993 2.8781 1938.1 -0.0051626 299.07 0.22906
198.38 53291. undefined 543.27 1117.4 1.8031 640.00 0.0015625 543.27 1117.4 1.8031 2.5032 2.8816 1939.0 -0.0051565 299.01 0.22933 640.00 0.0015625 543.27 1117.4 1.8031 2.5032 2.8816 1939.0 -0.0051565 299.01 0.22933
199.38 53441. undefined 545.78 1121.5 1.8084 640.00 0.0015625 545.78 1121.5 1.8084 2.5071 2.8851 1940.0 -0.0051505 298.94 0.22960 640.00 0.0015625 545.78 1121.5 1.8084 2.5071 2.8851 1940.0 -0.0051505 298.94 0.22960
200.38 53591. undefined 548.29 1125.6 1.8137 640.00 0.0015625 548.29 1125.6 1.8137 2.5110 2.8886 1941.0 -0.0051445 298.88 0.22988 640.00 0.0015625 548.29 1125.6 1.8137 2.5110 2.8886 1941.0 -0.0051445 298.88 0.22988
201.38 53741. undefined 550.80 1129.8 1.8190 640.00 0.0015625 550.80 1129.8 1.8190 2.5149 2.8921 1942.0 -0.0051384 298.81 0.23015 640.00 0.0015625 550.80 1129.8 1.8190 2.5149 2.8921 1942.0 -0.0051384 298.81 0.23015
202.38 53891. undefined 553.32 1133.9 1.8243 640.00 0.0015625 553.32 1133.9 1.8243 2.5188 2.8957 1943.0 -0.0051325 298.75 0.23042 640.00 0.0015625 553.32 1133.9 1.8243 2.5188 2.8957 1943.0 -0.0051325 298.75 0.23042
203.38 54041. undefined 555.84 1138.0 1.8296 640.00 0.0015625 555.84 1138.0 1.8296 2.5227 2.8992 1943.9 -0.0051265 298.69 0.23069 640.00 0.0015625 555.84 1138.0 1.8296 2.5227 2.8992 1943.9 -0.0051265 298.69 0.23069
204.38 54190. undefined 558.36 1142.2 1.8349 640.00 0.0015625 558.36 1142.2 1.8349 2.5266 2.9027 1944.9 -0.0051205 298.62 0.23096 640.00 0.0015625 558.36 1142.2 1.8349 2.5266 2.9027 1944.9 -0.0051205 298.62 0.23096
205.38 54340. undefined 560.89 1146.3 1.8402 640.00 0.0015625 560.89 1146.3 1.8402 2.5305 2.9061 1945.9 -0.0051146 298.56 0.23124 640.00 0.0015625 560.89 1146.3 1.8402 2.5305 2.9061 1945.9 -0.0051146 298.56 0.23124
206.38 54489. undefined 563.42 1150.4 1.8455 640.00 0.0015625 563.42 1150.4 1.8455 2.5344 2.9096 1946.9 -0.0051087 298.50 0.23151 640.00 0.0015625 563.42 1150.4 1.8455 2.5344 2.9096 1946.9 -0.0051087 298.50 0.23151
207.38 54638. undefined 565.96 1154.6 1.8508 640.00 0.0015625 565.96 1154.6 1.8508 2.5383 2.9131 1947.8 -0.0051028 298.44 0.23178 640.00 0.0015625 565.96 1154.6 1.8508 2.5383 2.9131 1947.8 -0.0051028 298.44 0.23178
208.38 54787. undefined 568.50 1158.7 1.8561 640.00 0.0015625 568.50 1158.7 1.8561 2.5421 2.9166 1948.8 -0.0050969 298.38 0.23206 640.00 0.0015625 568.50 1158.7 1.8561 2.5421 2.9166 1948.8 -0.0050969 298.38 0.23206
209.38 54936. undefined 571.04 1162.9 1.8613 640.00 0.0015625 571.04 1162.9 1.8613 2.5460 2.9201 1949.8 -0.0050911 298.32 0.23233 640.00 0.0015625 571.04 1162.9 1.8613 2.5460 2.9201 1949.8 -0.0050911 298.32 0.23233
210.38 55085. undefined 573.59 1167.0 1.8666 640.00 0.0015625 573.59 1167.0 1.8666 2.5499 2.9236 1950.8 -0.0050852 298.26 0.23260 640.00 0.0015625 573.59 1167.0 1.8666 2.5499 2.9236 1950.8 -0.0050852 298.26 0.23260
211.38 55233. undefined 576.14 1171.2 1.8719 640.00 0.0015625 576.14 1171.2 1.8719 2.5537 2.9270 1951.7 -0.0050794 298.20 0.23288 640.00 0.0015625 576.14 1171.2 1.8719 2.5537 2.9270 1951.7 -0.0050794 298.20 0.23288
212.38 55382. undefined 578.70 1175.3 1.8772 640.00 0.0015625 578.70 1175.3 1.8772 2.5576 2.9305 1952.7 -0.0050736 298.14 0.23315 640.00 0.0015625 578.70 1175.3 1.8772 2.5576 2.9305 1952.7 -0.0050736 298.14 0.23315
213.38 55530. undefined 581.26 1179.5 1.8824 640.00 0.0015625 581.26 1179.5 1.8824 2.5614 2.9340 1953.7 -0.0050678 298.08 0.23343 640.00 0.0015625 581.26 1179.5 1.8824 2.5614 2.9340 1953.7 -0.0050678 298.08 0.23343
214.38 55678. undefined 583.82 1183.6 1.8877 640.00 0.0015625 583.82 1183.6 1.8877 2.5652 2.9374 1954.6 -0.0050620 298.02 0.23370 640.00 0.0015625 583.82 1183.6 1.8877 2.5652 2.9374 1954.6 -0.0050620 298.02 0.23370
215.38 55826. undefined 586.39 1187.8 1.8929 640.00 0.0015625 586.39 1187.8 1.8929 2.5691 2.9409 1955.6 -0.0050563 297.96 0.23398 640.00 0.0015625 586.39 1187.8 1.8929 2.5691 2.9409 1955.6 -0.0050563 297.96 0.23398
216.38 55974. undefined 588.96 1192.0 1.8982 640.00 0.0015625 588.96 1192.0 1.8982 2.5729 2.9443 1956.5 -0.0050506 297.91 0.23426 640.00 0.0015625 588.96 1192.0 1.8982 2.5729 2.9443 1956.5 -0.0050506 297.91 0.23426
217.38 56122. undefined 591.53 1196.1 1.9035 640.00 0.0015625 591.53 1196.1 1.9035 2.5767 2.9478 1957.5 -0.0050449 297.85 0.23453 640.00 0.0015625 591.53 1196.1 1.9035 2.5767 2.9478 1957.5 -0.0050449 297.85 0.23453
218.38 56270. undefined 594.11 1200.3 1.9087 640.00 0.0015625 594.11 1200.3 1.9087 2.5805 2.9512 1958.5 -0.0050392 297.79 0.23481 640.00 0.0015625 594.11 1200.3 1.9087 2.5805 2.9512 1958.5 -0.0050392 297.79 0.23481
219.38 56417. undefined 596.69 1204.5 1.9140 640.00 0.0015625 596.69 1204.5 1.9140 2.5844 2.9547 1959.4 -0.0050335 297.74 0.23509 640.00 0.0015625 596.69 1204.5 1.9140 2.5844 2.9547 1959.4 -0.0050335 297.74 0.23509
220.38 56565. undefined 599.28 1208.7 1.9192 640.00 0.0015625 599.28 1208.7 1.9192 2.5882 2.9581 1960.4 -0.0050278 297.68 0.23536 640.00 0.0015625 599.28 1208.7 1.9192 2.5882 2.9581 1960.4 -0.0050278 297.68 0.23536
221.38 56712. undefined 601.87 1212.8 1.9244 640.00 0.0015625 601.87 1212.8 1.9244 2.5920 2.9615 1961.3 -0.0050222 297.63 0.23564 640.00 0.0015625 601.87 1212.8 1.9244 2.5920 2.9615 1961.3 -0.0050222 297.63 0.23564
222.38 56859. undefined 604.47 1217.0 1.9297 640.00 0.0015625 604.47 1217.0 1.9297 2.5958 2.9650 1962.3 -0.0050166 297.57 0.23592 640.00 0.0015625 604.47 1217.0 1.9297 2.5958 2.9650 1962.3 -0.0050166 297.57 0.23592
223.38 57006. undefined 607.06 1221.2 1.9349 640.00 0.0015625 607.06 1221.2 1.9349 2.5996 2.9684 1963.2 -0.0050110 297.52 0.23620 640.00 0.0015625 607.06 1221.2 1.9349 2.5996 2.9684 1963.2 -0.0050110 297.52 0.23620
224.38 57153. undefined 609.66 1225.4 1.9402 640.00 0.0015625 609.66 1225.4 1.9402 2.6033 2.9718 1964.2 -0.0050054 297.46 0.23647 640.00 0.0015625 609.66 1225.4 1.9402 2.6033 2.9718 1964.2 -0.0050054 297.46 0.23647
225.38 57300. undefined 612.27 1229.6 1.9454 640.00 0.0015625 612.27 1229.6 1.9454 2.6071 2.9752 1965.2 -0.0049998 297.41 0.23675 640.00 0.0015625 612.27 1229.6 1.9454 2.6071 2.9752 1965.2 -0.0049998 297.41 0.23675
226.38 57447. undefined 614.88 1233.8 1.9506 640.00 0.0015625 614.88 1233.8 1.9506 2.6109 2.9787 1966.1 -0.0049943 297.36 0.23703 640.00 0.0015625 614.88 1233.8 1.9506 2.6109 2.9787 1966.1 -0.0049943 297.36 0.23703
227.38 57593. undefined 617.49 1237.9 1.9558 640.00 0.0015625 617.49 1237.9 1.9558 2.6147 2.9821 1967.1 -0.0049888 297.31 0.23731 640.00 0.0015625 617.49 1237.9 1.9558 2.6147 2.9821 1967.1 -0.0049888 297.31 0.23731
228.38 57740. undefined 620.11 1242.1 1.9611 640.00 0.0015625 620.11 1242.1 1.9611 2.6184 2.9855 1968.0 -0.0049833 297.25 0.23759 640.00 0.0015625 620.11 1242.1 1.9611 2.6184 2.9855 1968.0 -0.0049833 297.25 0.23759
229.38 57886. undefined 622.73 1246.3 1.9663 640.00 0.0015625 622.73 1246.3 1.9663 2.6222 2.9889 1968.9 -0.0049778 297.20 0.23787 640.00 0.0015625 622.73 1246.3 1.9663 2.6222 2.9889 1968.9 -0.0049778 297.20 0.23787
230.38 58032. undefined 625.35 1250.5 1.9715 640.00 0.0015625 625.35 1250.5 1.9715 2.6259 2.9923 1969.9 -0.0049723 297.15 0.23815 640.00 0.0015625 625.35 1250.5 1.9715 2.6259 2.9923 1969.9 -0.0049723 297.15 0.23815
231.38 58178. undefined 627.98 1254.7 1.9767 640.00 0.0015625 627.98 1254.7 1.9767 2.6297 2.9957 1970.8 -0.0049668 297.10 0.23843 640.00 0.0015625 627.98 1254.7 1.9767 2.6297 2.9957 1970.8 -0.0049668 297.10 0.23843
232.38 58324. undefined 630.61 1258.9 1.9819 640.00 0.0015625 630.61 1258.9 1.9819 2.6334 2.9991 1971.8 -0.0049614 297.05 0.23871 640.00 0.0015625 630.61 1258.9 1.9819 2.6334 2.9991 1971.8 -0.0049614 297.05 0.23871
233.38 58470. undefined 633.25 1263.1 1.9871 640.00 0.0015625 633.25 1263.1 1.9871 2.6372 3.0024 1972.7 -0.0049560 297.00 0.23899 640.00 0.0015625 633.25 1263.1 1.9871 2.6372 3.0024 1972.7 -0.0049560 297.00 0.23899
234.38 58615. undefined 635.89 1267.4 1.9923 640.00 0.0015625 635.89 1267.4 1.9923 2.6409 3.0058 1973.7 -0.0049506 296.95 0.23927 640.00 0.0015625 635.89 1267.4 1.9923 2.6409 3.0058 1973.7 -0.0049506 296.95 0.23927
235.38 58761. undefined 638.53 1271.6 1.9975 640.00 0.0015625 638.53 1271.6 1.9975 2.6446 3.0092 1974.6 -0.0049452 296.90 0.23955 640.00 0.0015625 638.53 1271.6 1.9975 2.6446 3.0092 1974.6 -0.0049452 296.90 0.23955
236.38 58906. undefined 641.18 1275.8 2.0027 640.00 0.0015625 641.18 1275.8 2.0027 2.6484 3.0126 1975.5 -0.0049398 296.85 0.23984 640.00 0.0015625 641.18 1275.8 2.0027 2.6484 3.0126 1975.5 -0.0049398 296.85 0.23984
237.38 59052. undefined 643.83 1280.0 2.0079 640.00 0.0015625 643.83 1280.0 2.0079 2.6521 3.0160 1976.5 -0.0049345 296.80 0.24012 640.00 0.0015625 643.83 1280.0 2.0079 2.6521 3.0160 1976.5 -0.0049345 296.80 0.24012
238.38 59197. undefined 646.48 1284.2 2.0131 640.00 0.0015625 646.48 1284.2 2.0131 2.6558 3.0193 1977.4 -0.0049291 296.76 0.24040 640.00 0.0015625 646.48 1284.2 2.0131 2.6558 3.0193 1977.4 -0.0049291 296.76 0.24040
239.38 59342. undefined 649.14 1288.4 2.0183 640.00 0.0015625 649.14 1288.4 2.0183 2.6595 3.0227 1978.4 -0.0049238 296.71 0.24068 640.00 0.0015625 649.14 1288.4 2.0183 2.6595 3.0227 1978.4 -0.0049238 296.71 0.24068
240.38 59487. undefined 651.80 1292.7 2.0235 640.00 0.0015625 651.80 1292.7 2.0235 2.6632 3.0260 1979.3 -0.0049185 296.66 0.24097 640.00 0.0015625 651.80 1292.7 2.0235 2.6632 3.0260 1979.3 -0.0049185 296.66 0.24097
241.38 59632. undefined 654.46 1296.9 2.0287 640.00 0.0015625 654.46 1296.9 2.0287 2.6669 3.0294 1980.2 -0.0049132 296.61 0.24125 640.00 0.0015625 654.46 1296.9 2.0287 2.6669 3.0294 1980.2 -0.0049132 296.61 0.24125
242.38 59776. undefined 657.13 1301.1 2.0339 640.00 0.0015625 657.13 1301.1 2.0339 2.6706 3.0327 1981.2 -0.0049080 296.57 0.24153 640.00 0.0015625 657.13 1301.1 2.0339 2.6706 3.0327 1981.2 -0.0049080 296.57 0.24153
243.38 59921. undefined 659.80 1305.3 2.0390 640.00 0.0015625 659.80 1305.3 2.0390 2.6743 3.0361 1982.1 -0.0049027 296.52 0.24182 640.00 0.0015625 659.80 1305.3 2.0390 2.6743 3.0361 1982.1 -0.0049027 296.52 0.24182
244.38 60065. undefined 662.48 1309.6 2.0442 640.00 0.0015625 662.48 1309.6 2.0442 2.6780 3.0394 1983.0 -0.0048975 296.48 0.24210 640.00 0.0015625 662.48 1309.6 2.0442 2.6780 3.0394 1983.0 -0.0048975 296.48 0.24210
245.38 60210. undefined 665.16 1313.8 2.0494 640.00 0.0015625 665.16 1313.8 2.0494 2.6816 3.0428 1983.9 -0.0048923 296.43 0.24239 640.00 0.0015625 665.16 1313.8 2.0494 2.6816 3.0428 1983.9 -0.0048923 296.43 0.24239
246.38 60354. undefined 667.84 1318.0 2.0546 640.00 0.0015625 667.84 1318.0 2.0546 2.6853 3.0461 1984.9 -0.0048871 296.38 0.24267 640.00 0.0015625 667.84 1318.0 2.0546 2.6853 3.0461 1984.9 -0.0048871 296.38 0.24267
247.38 60498. undefined 670.53 1322.3 2.0597 640.00 0.0015625 670.53 1322.3 2.0597 2.6890 3.0494 1985.8 -0.0048819 296.34 0.24296 640.00 0.0015625 670.53 1322.3 2.0597 2.6890 3.0494 1985.8 -0.0048819 296.34 0.24296
248.38 60642. undefined 673.22 1326.5 2.0649 640.00 0.0015625 673.22 1326.5 2.0649 2.6926 3.0528 1986.7 -0.0048767 296.30 0.24324 640.00 0.0015625 673.22 1326.5 2.0649 2.6926 3.0528 1986.7 -0.0048767 296.30 0.24324
249.38 60786. undefined 675.92 1330.8 2.0701 640.00 0.0015625 675.92 1330.8 2.0701 2.6963 3.0561 1987.6 -0.0048716 296.25 0.24353 640.00 0.0015625 675.92 1330.8 2.0701 2.6963 3.0561 1987.6 -0.0048716 296.25 0.24353
250.38 60930. undefined 678.61 1335.0 2.0752 640.00 0.0015625 678.61 1335.0 2.0752 2.6999 3.0594 1988.6 -0.0048664 296.21 0.24381 640.00 0.0015625 678.61 1335.0 2.0752 2.6999 3.0594 1988.6 -0.0048664 296.21 0.24381
251.38 61073. undefined 681.32 1339.3 2.0804 640.00 0.0015625 681.32 1339.3 2.0804 2.7036 3.0627 1989.5 -0.0048613 296.16 0.24410 640.00 0.0015625 681.32 1339.3 2.0804 2.7036 3.0627 1989.5 -0.0048613 296.16 0.24410
252.38 61217. undefined 684.02 1343.5 2.0855 640.00 0.0015625 684.02 1343.5 2.0855 2.7072 3.0660 1990.4 -0.0048562 296.12 0.24439 640.00 0.0015625 684.02 1343.5 2.0855 2.7072 3.0660 1990.4 -0.0048562 296.12 0.24439
253.38 61360. undefined 686.73 1347.8 2.0907 640.00 0.0015625 686.73 1347.8 2.0907 2.7109 3.0693 1991.3 -0.0048511 296.08 0.24467 640.00 0.0015625 686.73 1347.8 2.0907 2.7109 3.0693 1991.3 -0.0048511 296.08 0.24467
254.38 61504. undefined 689.44 1352.0 2.0958 640.00 0.0015625 689.44 1352.0 2.0958 2.7145 3.0726 1992.2 -0.0048460 296.04 0.24496 640.00 0.0015625 689.44 1352.0 2.0958 2.7145 3.0726 1992.2 -0.0048460 296.04 0.24496
255.38 61647. undefined 692.16 1356.3 2.1010 640.00 0.0015625 692.16 1356.3 2.1010 2.7181 3.0759 1993.2 -0.0048410 295.99 0.24525 640.00 0.0015625 692.16 1356.3 2.1010 2.7181 3.0759 1993.2 -0.0048410 295.99 0.24525
256.38 61790. undefined 694.88 1360.5 2.1061 640.00 0.0015625 694.88 1360.5 2.1061 2.7217 3.0792 1994.1 -0.0048360 295.95 0.24553 640.00 0.0015625 694.88 1360.5 2.1061 2.7217 3.0792 1994.1 -0.0048360 295.95 0.24553
257.38 61933. undefined 697.60 1364.8 2.1112 640.00 0.0015625 697.60 1364.8 2.1112 2.7253 3.0825 1995.0 -0.0048309 295.91 0.24582 640.00 0.0015625 697.60 1364.8 2.1112 2.7253 3.0825 1995.0 -0.0048309 295.91 0.24582
258.38 62076. undefined 700.33 1369.1 2.1164 640.00 0.0015625 700.33 1369.1 2.1164 2.7289 3.0858 1995.9 -0.0048259 295.87 0.24611 640.00 0.0015625 700.33 1369.1 2.1164 2.7289 3.0858 1995.9 -0.0048259 295.87 0.24611
259.38 62218. undefined 703.06 1373.3 2.1215 640.00 0.0015625 703.06 1373.3 2.1215 2.7325 3.0891 1996.8 -0.0048209 295.83 0.24640 640.00 0.0015625 703.06 1373.3 2.1215 2.7325 3.0891 1996.8 -0.0048209 295.83 0.24640
260.38 62361. undefined 705.80 1377.6 2.1266 640.00 0.0015625 705.80 1377.6 2.1266 2.7361 3.0924 1997.7 -0.0048160 295.79 0.24669 640.00 0.0015625 705.80 1377.6 2.1266 2.7361 3.0924 1997.7 -0.0048160 295.79 0.24669
261.38 62503. undefined 708.53 1381.9 2.1318 640.00 0.0015625 708.53 1381.9 2.1318 2.7397 3.0956 1998.6 -0.0048110 295.75 0.24698 640.00 0.0015625 708.53 1381.9 2.1318 2.7397 3.0956 1998.6 -0.0048110 295.75 0.24698
262.38 62646. undefined 711.27 1386.2 2.1369 640.00 0.0015625 711.27 1386.2 2.1369 2.7433 3.0989 1999.6 -0.0048061 295.71 0.24727 640.00 0.0015625 711.27 1386.2 2.1369 2.7433 3.0989 1999.6 -0.0048061 295.71 0.24727
263.38 62788. undefined 714.02 1390.4 2.1420 640.00 0.0015625 714.02 1390.4 2.1420 2.7469 3.1022 2000.5 -0.0048012 295.67 0.24756 640.00 0.0015625 714.02 1390.4 2.1420 2.7469 3.1022 2000.5 -0.0048012 295.67 0.24756
264.38 62930. undefined 716.77 1394.7 2.1471 640.00 0.0015625 716.77 1394.7 2.1471 2.7505 3.1054 2001.4 -0.0047962 295.63 0.24785 640.00 0.0015625 716.77 1394.7 2.1471 2.7505 3.1054 2001.4 -0.0047962 295.63 0.24785
265.38 63072. undefined 719.52 1399.0 2.1523 640.00 0.0015625 719.52 1399.0 2.1523 2.7541 3.1087 2002.3 -0.0047914 295.59 0.24814 640.00 0.0015625 719.52 1399.0 2.1523 2.7541 3.1087 2002.3 -0.0047914 295.59 0.24814
266.38 63214. undefined 722.28 1403.3 2.1574 640.00 0.0015625 722.28 1403.3 2.1574 2.7576 3.1119 2003.2 -0.0047865 295.55 0.24843 640.00 0.0015625 722.28 1403.3 2.1574 2.7576 3.1119 2003.2 -0.0047865 295.55 0.24843
267.38 63356. undefined 725.04 1407.6 2.1625 640.00 0.0015625 725.04 1407.6 2.1625 2.7612 3.1152 2004.1 -0.0047816 295.51 0.24872 640.00 0.0015625 725.04 1407.6 2.1625 2.7612 3.1152 2004.1 -0.0047816 295.51 0.24872
268.38 63497. undefined 727.80 1411.9 2.1676 640.00 0.0015625 727.80 1411.9 2.1676 2.7647 3.1184 2005.0 -0.0047768 295.48 0.24901 640.00 0.0015625 727.80 1411.9 2.1676 2.7647 3.1184 2005.0 -0.0047768 295.48 0.24901
269.38 63639. undefined 730.57 1416.2 2.1727 640.00 0.0015625 730.57 1416.2 2.1727 2.7683 3.1217 2005.9 -0.0047719 295.44 0.24930 640.00 0.0015625 730.57 1416.2 2.1727 2.7683 3.1217 2005.9 -0.0047719 295.44 0.24930
270.38 63780. undefined 733.34 1420.4 2.1778 640.00 0.0015625 733.34 1420.4 2.1778 2.7718 3.1249 2006.8 -0.0047671 295.40 0.24959 640.00 0.0015625 733.34 1420.4 2.1778 2.7718 3.1249 2006.8 -0.0047671 295.40 0.24959
271.38 63922. undefined 736.11 1424.7 2.1829 640.00 0.0015625 736.11 1424.7 2.1829 2.7754 3.1282 2007.7 -0.0047623 295.36 0.24988 640.00 0.0015625 736.11 1424.7 2.1829 2.7754 3.1282 2007.7 -0.0047623 295.36 0.24988
272.38 64063. undefined 738.89 1429.0 2.1880 640.00 0.0015625 738.89 1429.0 2.1880 2.7789 3.1314 2008.6 -0.0047575 295.33 0.25018 640.00 0.0015625 738.89 1429.0 2.1880 2.7789 3.1314 2008.6 -0.0047575 295.33 0.25018
273.38 64204. undefined 741.67 1433.3 2.1931 640.00 0.0015625 741.67 1433.3 2.1931 2.7824 3.1346 2009.5 -0.0047528 295.29 0.25047 640.00 0.0015625 741.67 1433.3 2.1931 2.7824 3.1346 2009.5 -0.0047528 295.29 0.25047
274.38 64345. undefined 744.45 1437.6 2.1982 640.00 0.0015625 744.45 1437.6 2.1982 2.7860 3.1378 2010.4 -0.0047480 295.25 0.25076 640.00 0.0015625 744.45 1437.6 2.1982 2.7860 3.1378 2010.4 -0.0047480 295.25 0.25076
275.38 64486. undefined 747.24 1442.0 2.2033 640.00 0.0015625 747.24 1442.0 2.2033 2.7895 3.1410 2011.3 -0.0047433 295.22 0.25105 640.00 0.0015625 747.24 1442.0 2.2033 2.7895 3.1410 2011.3 -0.0047433 295.22 0.25105
276.38 64627. undefined 750.03 1446.3 2.2083 640.00 0.0015625 750.03 1446.3 2.2083 2.7930 3.1443 2012.2 -0.0047385 295.18 0.25135 640.00 0.0015625 750.03 1446.3 2.2083 2.7930 3.1443 2012.2 -0.0047385 295.18 0.25135
277.38 64768. undefined 752.83 1450.6 2.2134 640.00 0.0015625 752.83 1450.6 2.2134 2.7965 3.1475 2013.1 -0.0047338 295.15 0.25164 640.00 0.0015625 752.83 1450.6 2.2134 2.7965 3.1475 2013.1 -0.0047338 295.15 0.25164
278.38 64908. undefined 755.62 1454.9 2.2185 640.00 0.0015625 755.62 1454.9 2.2185 2.8000 3.1507 2014.0 -0.0047291 295.11 0.25194 640.00 0.0015625 755.62 1454.9 2.2185 2.8000 3.1507 2014.0 -0.0047291 295.11 0.25194
279.38 65049. undefined 758.43 1459.2 2.2236 640.00 0.0015625 758.43 1459.2 2.2236 2.8035 3.1539 2014.9 -0.0047244 295.08 0.25223 640.00 0.0015625 758.43 1459.2 2.2236 2.8035 3.1539 2014.9 -0.0047244 295.08 0.25223
280.38 65189. undefined 761.23 1463.5 2.2286 640.00 0.0015625 761.23 1463.5 2.2286 2.8070 3.1571 2015.8 -0.0047198 295.04 0.25253 640.00 0.0015625 761.23 1463.5 2.2286 2.8070 3.1571 2015.8 -0.0047198 295.04 0.25253
281.38 65329. undefined 764.04 1467.8 2.2337 640.00 0.0015625 764.04 1467.8 2.2337 2.8105 3.1603 2016.6 -0.0047151 295.01 0.25282 640.00 0.0015625 764.04 1467.8 2.2337 2.8105 3.1603 2016.6 -0.0047151 295.01 0.25282
282.38 65469. undefined 766.85 1472.2 2.2388 640.00 0.0015625 766.85 1472.2 2.2388 2.8140 3.1634 2017.5 -0.0047105 294.98 0.25297 640.00 0.0015625 766.85 1472.2 2.2388 2.8140 3.1634 2017.5 -0.0047105 294.98 0.25297
283.38 65609. undefined 769.67 1476.5 2.2438 640.00 0.0015625 769.67 1476.5 2.2438 2.8175 3.1666 2018.4 -0.0047059 294.94 0.25326 640.00 0.0015625 769.67 1476.5 2.2438 2.8175 3.1666 2018.4 -0.0047059 294.94 0.25326
284.38 65749. undefined 772.49 1480.8 2.2489 640.00 0.0015625 772.49 1480.8 2.2489 2.8209 3.1698 2019.3 -0.0047012 294.91 0.25356 640.00 0.0015625 772.49 1480.8 2.2489 2.8209 3.1698 2019.3 -0.0047012 294.91 0.25356
285.38 65889. undefined 775.31 1485.1 2.2540 640.00 0.0015625 775.31 1485.1 2.2540 2.8244 3.1730 2020.2 -0.0046967 294.87 0.25386 640.00 0.0015625 775.31 1485.1 2.2540 2.8244 3.1730 2020.2 -0.0046967 294.87 0.25386
286.38 66029. undefined 778.14 1489.5 2.2590 640.00 0.0015625 778.14 1489.5 2.2590 2.8279 3.1762 2021.1 -0.0046921 294.84 0.25415 640.00 0.0015625 778.14 1489.5 2.2590 2.8279 3.1762 2021.1 -0.0046921 294.84 0.25415
287.38 66169. undefined 780.96 1493.8 2.2641 640.00 0.0015625 780.96 1493.8 2.2641 2.8313 3.1793 2022.0 -0.0046875 294.81 0.25445 640.00 0.0015625 780.96 1493.8 2.2641 2.8313 3.1793 2022.0 -0.0046875 294.81 0.25445
288.38 66308. undefined 783.80 1498.1 2.2691 640.00 0.0015625 783.80 1498.1 2.2691 2.8348 3.1825 2022.9 -0.0046830 294.78 0.25474 640.00 0.0015625 783.80 1498.1 2.2691 2.8348 3.1825 2022.9 -0.0046830 294.78 0.25474
289.38 66447. undefined 786.63 1502.5 2.2742 640.00 0.0015625 786.63 1502.5 2.2742 2.8382 3.1856 2023.7 -0.0046784 294.74 0.25504 640.00 0.0015625 786.63 1502.5 2.2742 2.8382 3.1856 2023.7 -0.0046784 294.74 0.25504
290.38 66587. undefined 789.47 1506.8 2.2792 640.00 0.0015625 789.47 1506.8 2.2792 2.8417 3.1888 2024.6 -0.0046739 294.71 0.25534 640.00 0.0015625 789.47 1506.8 2.2792 2.8417 3.1888 2024.6 -0.0046739 294.71 0.25534
291.38 66726. undefined 792.32 1511.2 2.2843 640.00 0.0015625 792.32 1511.2 2.2843 2.8451 3.1919 2025.5 -0.0046694 294.68 0.25564 640.00 0.0015625 792.32 1511.2 2.2843 2.8451 3.1919 2025.5 -0.0046694 294.68 0.25564
292.38 66865. undefined 795.16 1515.5 2.2893 640.00 0.0015625 795.16 1515.5 2.2893 2.8485 3.1951 2026.4 -0.0046649 294.65 0.25593 640.00 0.0015625 795.16 1515.5 2.2893 2.8485 3.1951 2026.4 -0.0046649 294.65 0.25593
293.38 67004. undefined 798.01 1519.9 2.2943 640.00 0.0015625 798.01 1519.9 2.2943 2.8520 3.1982 2027.3 -0.0046604 294.62 0.25623 640.00 0.0015625 798.01 1519.9 2.2943 2.8520 3.1982 2027.3 -0.0046604 294.62 0.25623
294.38 67143. undefined 800.87 1524.2 2.2994 640.00 0.0015625 800.87 1524.2 2.2994 2.8554 3.2014 2028.1 -0.0046559 294.59 0.25653 640.00 0.0015625 800.87 1524.2 2.2994 2.8554 3.2014 2028.1 -0.0046559 294.59 0.25653
295.38 67282. undefined 803.73 1528.6 2.3044 640.00 0.0015625 803.73 1528.6 2.3044 2.8588 3.2045 2029.0 -0.0046515 294.56 0.25683 640.00 0.0015625 803.73 1528.6 2.3044 2.8588 3.2045 2029.0 -0.0046515 294.56 0.25683
296.38 67420. undefined 806.59 1532.9 2.3094 640.00 0.0015625 806.59 1532.9 2.3094 2.8622 3.2076 2029.9 -0.0046470 294.53 0.25713 640.00 0.0015625 806.59 1532.9 2.3094 2.8622 3.2076 2029.9 -0.0046470 294.53 0.25713
297.38 67559. undefined 809.45 1537.3 2.3144 640.00 0.0015625 809.45 1537.3 2.3144 2.8656 3.2108 2030.8 -0.0046426 294.50 0.25743 640.00 0.0015625 809.45 1537.3 2.3144 2.8656 3.2108 2030.8 -0.0046426 294.50 0.25743
298.38 67697. undefined 812.32 1541.6 2.3195 640.00 0.0015625 812.32 1541.6 2.3195 2.8690 3.2139 2031.6 -0.0046382 294.47 0.25773 640.00 0.0015625 812.32 1541.6 2.3195 2.8690 3.2139 2031.6 -0.0046382 294.47 0.25773
299.38 67836. undefined 815.19 1546.0 2.3245 640.00 0.0015625 815.19 1546.0 2.3245 2.8724 3.2170 2032.5 -0.0046338 294.44 0.25803 640.00 0.0015625 815.19 1546.0 2.3245 2.8724 3.2170 2032.5 -0.0046338 294.44 0.25803
300.38 67974. undefined 818.06 1550.3 2.3295 640.00 0.0015625 818.06 1550.3 2.3295 2.8758 3.2201 2033.4 -0.0046294 294.41 0.25833 640.00 0.0015625 818.06 1550.3 2.3295 2.8758 3.2201 2033.4 -0.0046294 294.41 0.25833