Temperature (C) Pressure (psia) Quality (l+v) Internal Energy (l+v, kJ/kg) Enthalpy (l+v, kJ/kg) Entropy (l+v, J/g*K) Density (l, kg/m3) Volume (l, m3/kg) Internal Energy (l, kJ/kg) Enthalpy (l, kJ/kg) Entropy (l, J/g*K) Cv (l, J/g*K) Cp (l, J/g*K) Sound Spd. (l, m/s) Joule-Thomson (l, F/psia) Viscosity (l, uPa*s) Therm. Cond. (l, W/m*K) Density (v, kg/m3) Volume (v, m3/kg) Internal Energy (v, kJ/kg) Enthalpy (v, kJ/kg) Entropy (v, J/g*K) Cv (v, J/g*K) Cp (v, J/g*K) Sound Spd. (v, m/s) Joule-Thomson (v, F/psia) Viscosity (v, uPa*s) Therm. Cond. (v, W/m*K)
-187.62 2.4953e-08 1.9883e-12 -196.64 -196.64 -1.3959 733.13 0.0013640 -196.64 -196.64 -1.3959 1.3553 1.9158 2136.4 -0.0077592 10960. 0.20792 1.0669e-08 9.3732e+07 350.13 366.26 5.1858 0.69067 0.87923 143.28 6.1051 2.3259 0.0017061
-186.62 3.7339e-08 2.9101e-12 -194.73 -194.73 -1.3736 732.08 0.0013660 -194.73 -194.73 -1.3736 1.3539 1.9166 2129.6 -0.0077546 10073. 0.20765 1.5780e-08 6.3371e+07 350.82 367.14 5.1200 0.69462 0.88317 144.03 5.9178 2.3534 0.0017533
-185.62 5.5322e-08 4.2174e-12 -192.81 -192.81 -1.3516 731.04 0.0013679 -192.81 -192.81 -1.3516 1.3525 1.9174 2122.9 -0.0077498 9276.1 0.20737 2.3112e-08 4.3267e+07 351.52 368.02 5.0561 0.69857 0.88713 144.77 5.7383 2.3808 0.0018007
-184.62 8.1182e-08 6.0535e-12 -190.89 -190.89 -1.3298 730.00 0.0013699 -190.89 -190.89 -1.3298 1.3513 1.9182 2116.1 -0.0077448 8557.8 0.20708 3.3533e-08 2.9821e+07 352.22 368.91 4.9939 0.70253 0.89108 145.51 5.5662 2.4083 0.0018485
-183.62 1.1803e-07 8.6089e-12 -188.97 -188.97 -1.3083 728.96 0.0013718 -188.97 -188.97 -1.3083 1.3501 1.9191 2109.3 -0.0077395 7909.8 0.20678 4.8211e-08 2.0742e+07 352.92 369.81 4.9333 0.70648 0.89504 146.24 5.4011 2.4357 0.0018965
-182.62 1.7009e-07 1.2134e-11 -187.05 -187.05 -1.2869 727.92 0.0013738 -187.05 -187.05 -1.2869 1.3490 1.9201 2102.5 -0.0077340 7324.3 0.20647 6.8704e-08 1.4555e+07 353.63 370.70 4.8744 0.71043 0.89899 146.97 5.2426 2.4632 0.0019448
-181.62 2.4299e-07 1.6955e-11 -185.13 -185.13 -1.2658 726.88 0.0013757 -185.13 -185.13 -1.2658 1.3480 1.9210 2095.7 -0.0077283 6794.5 0.20616 9.7079e-08 1.0301e+07 354.35 371.60 4.8170 0.71438 0.90294 147.69 5.0904 2.4906 0.0019934
-180.62 3.4425e-07 2.3494e-11 -183.21 -183.21 -1.2450 725.85 0.0013777 -183.21 -183.21 -1.2450 1.3470 1.9220 2088.9 -0.0077225 6314.4 0.20584 1.3605e-07 7.3504e+06 355.06 372.51 4.7612 0.71833 0.90688 148.41 4.9442 2.5181 0.0020423
-179.62 4.8378e-07 3.2292e-11 -181.29 -181.29 -1.2243 724.81 0.0013797 -181.29 -181.29 -1.2243 1.3461 1.9231 2082.0 -0.0077164 5878.8 0.20551 1.8915e-07 5.2868e+06 355.78 373.42 4.7068 0.72227 0.91082 149.13 4.8038 2.5456 0.0020915
-178.62 6.7459e-07 4.4039e-11 -179.37 -179.37 -1.2038 723.78 0.0013816 -179.37 -179.37 -1.2038 1.3453 1.9241 2075.2 -0.0077102 5482.9 0.20517 2.6096e-07 3.8320e+06 356.51 374.33 4.6538 0.72620 0.91475 149.84 4.6688 2.5731 0.0021410
-177.62 9.3358e-07 5.9603e-11 -177.44 -177.44 -1.1836 722.75 0.0013836 -177.44 -177.44 -1.1836 1.3445 1.9252 2068.4 -0.0077039 5122.6 0.20483 3.5737e-07 2.7982e+06 357.23 375.25 4.6022 0.73012 0.91867 150.54 4.5390 2.6005 0.0021907
-176.62 1.2826e-06 8.0077e-11 -175.52 -175.52 -1.1635 721.72 0.0013856 -175.52 -175.52 -1.1635 1.3437 1.9263 2061.5 -0.0076973 4794.1 0.20447 4.8588e-07 2.0581e+06 357.97 376.17 4.5519 0.73403 0.92258 151.25 4.4142 2.6280 0.0022408
-175.62 1.7496e-06 1.0682e-10 -173.59 -173.59 -1.1437 720.69 0.0013876 -173.59 -173.59 -1.1437 1.3430 1.9274 2054.7 -0.0076907 4494.3 0.20411 6.5601e-07 1.5244e+06 358.70 377.09 4.5029 0.73792 0.92648 151.95 4.2941 2.6555 0.0022912
-174.62 2.3705e-06 1.4151e-10 -171.66 -171.66 -1.1240 719.66 0.0013895 -171.66 -171.66 -1.1240 1.3423 1.9286 2047.9 -0.0076838 4220.2 0.20375 8.7976e-07 1.1367e+06 359.44 378.02 4.4551 0.74181 0.93036 152.64 4.1784 2.6830 0.0023418
-173.62 3.1903e-06 1.8621e-10 -169.73 -169.73 -1.1045 718.64 0.0013915 -169.73 -169.73 -1.1045 1.3417 1.9298 2041.0 -0.0076769 3969.3 0.20338 1.1721e-06 8.5314e+05 360.19 378.95 4.4085 0.74568 0.93423 153.33 4.0671 2.7105 0.0023928
-172.62 4.2661e-06 2.4344e-10 -167.80 -167.80 -1.0852 717.61 0.0013935 -167.80 -167.80 -1.0852 1.3411 1.9310 2034.2 -0.0076698 3739.3 0.20300 1.5518e-06 6.4441e+05 360.93 379.89 4.3631 0.74953 0.93809 154.02 3.9599 2.7379 0.0024440
-171.62 5.6692e-06 3.1625e-10 -165.87 -165.87 -1.0661 716.58 0.0013955 -165.87 -165.87 -1.0661 1.3405 1.9322 2027.3 -0.0076625 3528.0 0.20261 2.0419e-06 4.8974e+05 361.69 380.83 4.3188 0.75337 0.94193 154.71 3.8566 2.7654 0.0024955
-170.62 7.4884e-06 4.0832e-10 -163.94 -163.94 -1.0472 715.56 0.0013975 -163.94 -163.94 -1.0472 1.3400 1.9334 2020.5 -0.0076552 3333.8 0.20222 2.6708e-06 3.7442e+05 362.44 381.77 4.2755 0.75720 0.94575 155.39 3.7570 2.7929 0.0025473
-169.62 9.8334e-06 5.2405e-10 -162.00 -162.00 -1.0284 714.54 0.0013995 -162.00 -162.00 -1.0284 1.3395 1.9347 2013.6 -0.0076477 3154.9 0.20182 3.4733e-06 2.8791e+05 363.20 382.72 4.2334 0.76100 0.94956 156.07 3.6609 2.8204 0.0025994
-168.62 1.2839e-05 6.6870e-10 -160.07 -160.07 -1.0098 713.52 0.0014015 -160.07 -160.07 -1.0098 1.3390 1.9359 2006.8 -0.0076401 2989.9 0.20141 4.4917e-06 2.2263e+05 363.96 383.67 4.1922 0.76479 0.95335 156.74 3.5683 2.8479 0.0026518
-167.62 1.6672e-05 8.4848e-10 -158.13 -158.13 -0.99134 712.49 0.0014035 -158.13 -158.13 -0.99134 1.3386 1.9372 2000.0 -0.0076323 2837.5 0.20100 5.7771e-06 1.7310e+05 364.73 384.63 4.1521 0.76856 0.95712 157.41 3.4790 2.8754 0.0027045
-166.62 2.1533e-05 1.0707e-09 -156.19 -156.19 -0.97306 711.47 0.0014055 -156.19 -156.19 -0.97306 1.3382 1.9385 1993.1 -0.0076245 2696.5 0.20058 7.3914e-06 1.3529e+05 365.50 385.59 4.1129 0.77232 0.96087 158.08 3.3927 2.9029 0.0027575
-165.62 2.7666e-05 1.3439e-09 -154.25 -154.25 -0.95494 710.45 0.0014075 -154.25 -154.25 -0.95494 1.3378 1.9398 1986.3 -0.0076165 2566.0 0.20016 9.4084e-06 1.0629e+05 366.27 386.55 4.0746 0.77605 0.96460 158.75 3.3095 2.9304 0.0028108
-164.62 3.5367e-05 1.6780e-09 -152.31 -152.31 -0.93698 709.44 0.0014096 -152.31 -152.31 -0.93698 1.3375 1.9411 1979.4 -0.0076084 2444.9 0.19973 1.1916e-05 83918. 367.05 387.52 4.0372 0.77976 0.96832 159.41 3.2291 2.9579 0.0028643
-163.62 4.4989e-05 2.0847e-09 -150.37 -150.37 -0.91917 708.42 0.0014116 -150.37 -150.37 -0.91917 1.3371 1.9424 1972.6 -0.0076002 2332.3 0.19930 1.5020e-05 66577. 367.83 388.49 4.0008 0.78346 0.97201 160.07 3.1514 2.9854 0.0029182
-162.62 5.6956e-05 2.5771e-09 -148.43 -148.43 -0.90151 707.40 0.0014136 -148.43 -148.43 -0.90151 1.3368 1.9437 1965.8 -0.0075919 2227.7 0.19886 1.8844e-05 53068. 368.62 389.46 3.9651 0.78713 0.97569 160.72 3.0764 3.0129 0.0029723
-161.62 7.1773e-05 3.1705e-09 -146.48 -146.48 -0.88400 706.38 0.0014157 -146.48 -146.48 -0.88400 1.3365 1.9451 1959.0 -0.0075834 2130.2 0.19841 2.3533e-05 42494. 369.41 390.44 3.9304 0.79079 0.97935 161.38 3.0038 3.0404 0.0030268
-160.62 9.0036e-05 3.8823e-09 -144.54 -144.54 -0.86663 705.37 0.0014177 -144.54 -144.54 -0.86663 1.3363 1.9465 1952.1 -0.0075748 2039.2 0.19796 2.9258e-05 34178. 370.20 391.42 3.8964 0.79443 0.98298 162.03 2.9337 3.0679 0.0030815
-159.62 0.00011245 4.7321e-09 -142.59 -142.59 -0.84940 704.35 0.0014197 -142.59 -142.59 -0.84940 1.3360 1.9478 1945.3 -0.0075661 1954.2 0.19751 3.6221e-05 27609. 371.00 392.40 3.8632 0.79805 0.98660 162.68 2.8658 3.0955 0.0031365
-158.62 0.00013985 5.7421e-09 -140.64 -140.64 -0.83231 703.34 0.0014218 -140.64 -140.64 -0.83231 1.3358 1.9492 1938.5 -0.0075573 1874.8 0.19705 4.4652e-05 22395. 371.80 393.39 3.8307 0.80164 0.99020 163.32 2.8002 3.1230 0.0031918
-157.62 0.00017320 6.9374e-09 -138.69 -138.69 -0.81536 702.32 0.0014238 -138.69 -138.69 -0.81536 1.3356 1.9506 1931.7 -0.0075484 1800.3 0.19658 5.4822e-05 18241. 372.60 394.38 3.7990 0.80522 0.99378 163.96 2.7367 3.1505 0.0032474
-156.62 0.00021364 8.3457e-09 -136.74 -136.74 -0.79854 701.31 0.0014259 -136.74 -136.74 -0.79854 1.3354 1.9520 1924.9 -0.0075393 1730.5 0.19611 6.7040e-05 14916. 373.41 395.38 3.7680 0.80878 0.99734 164.60 2.6752 3.1780 0.0033033
-155.62 0.00026248 9.9979e-09 -134.79 -134.79 -0.78185 700.30 0.0014280 -134.79 -134.79 -0.78185 1.3352 1.9534 1918.1 -0.0075302 1664.9 0.19564 8.1666e-05 12245. 374.22 396.38 3.7377 0.81232 1.0009 165.24 2.6157 3.2055 0.0033595
-154.62 0.00032125 1.1928e-08 -132.83 -132.83 -0.76530 699.29 0.0014300 -132.83 -132.83 -0.76530 1.3350 1.9548 1911.3 -0.0075209 1603.3 0.19516 9.9109e-05 10090. 375.03 397.38 3.7081 0.81585 1.0044 165.87 2.5580 3.2330 0.0034160
-153.62 0.00039171 1.4175e-08 -130.88 -130.88 -0.74887 698.27 0.0014321 -130.88 -130.88 -0.74887 1.3349 1.9563 1904.5 -0.0075114 1545.3 0.19468 0.00011984 8344.6 375.85 398.39 3.6792 0.81935 1.0079 166.50 2.5022 3.2606 0.0034727
-152.62 0.00047590 1.6778e-08 -128.92 -128.92 -0.73256 697.26 0.0014342 -128.92 -128.92 -0.73256 1.3348 1.9577 1897.8 -0.0075019 1490.6 0.19419 0.00014439 6925.9 376.67 399.40 3.6509 0.82284 1.0114 167.13 2.4481 3.2881 0.0035298
-151.62 0.00057613 1.9784e-08 -126.96 -126.96 -0.71638 696.25 0.0014363 -126.96 -126.96 -0.71638 1.3346 1.9592 1891.0 -0.0074922 1438.9 0.19370 0.00017336 5768.4 377.49 400.41 3.6232 0.82631 1.0149 167.76 2.3957 3.3156 0.0035872
-150.62 0.00069507 2.3240e-08 -125.00 -125.00 -0.70032 695.24 0.0014384 -125.00 -125.00 -0.70032 1.3345 1.9606 1884.2 -0.0074824 1390.2 0.19320 0.00020744 4820.7 378.32 401.42 3.5962 0.82976 1.0183 168.38 2.3448 3.3431 0.0036448
-149.62 0.00083574 2.7199e-08 -123.04 -123.04 -0.68438 694.23 0.0014404 -123.04 -123.04 -0.68438 1.3345 1.9621 1877.4 -0.0074724 1344.0 0.19270 0.00024740 4042.0 379.15 402.44 3.5697 0.83319 1.0218 169.00 2.2956 3.3706 0.0037027
-148.62 0.0010016 3.1717e-08 -121.08 -121.08 -0.66855 693.22 0.0014425 -121.08 -121.08 -0.66855 1.3344 1.9636 1870.7 -0.0074623 1300.3 0.19220 0.00029412 3400.0 379.99 403.47 3.5438 0.83661 1.0252 169.62 2.2478 3.3982 0.0037610
-147.62 0.0011965 3.6854e-08 -119.11 -119.11 -0.65284 692.21 0.0014447 -119.11 -119.11 -0.65284 1.3343 1.9651 1863.9 -0.0074521 1258.9 0.19169 0.00034856 2869.0 380.83 404.49 3.5185 0.84001 1.0286 170.24 2.2014 3.4257 0.0038195
-146.62 0.0014249 4.2673e-08 -117.15 -117.15 -0.63724 691.20 0.0014468 -117.15 -117.15 -0.63724 1.3343 1.9666 1857.2 -0.0074417 1219.6 0.19117 0.00041181 2428.3 381.67 405.52 3.4938 0.84340 1.0320 170.85 2.1565 3.4532 0.0038783
-145.62 0.0016917 4.9239e-08 -115.18 -115.18 -0.62175 690.19 0.0014489 -115.18 -115.18 -0.62175 1.3343 1.9682 1850.4 -0.0074312 1182.3 0.19066 0.00048510 2061.4 382.51 406.56 3.4695 0.84677 1.0353 171.46 2.1128 3.4807 0.0039374
-144.62 0.0020026 5.6624e-08 -113.21 -113.21 -0.60637 689.18 0.0014510 -113.21 -113.21 -0.60637 1.3343 1.9697 1843.7 -0.0074206 1146.8 0.19014 0.00056976 1755.1 383.36 407.59 3.4458 0.85012 1.0387 172.07 2.0705 3.5082 0.0039967
-143.62 0.0023637 6.4897e-08 -111.24 -111.24 -0.59110 688.17 0.0014531 -111.24 -111.24 -0.59110 1.3343 1.9713 1836.9 -0.0074098 1113.0 0.18962 0.00066731 1498.6 384.21 408.63 3.4226 0.85346 1.0420 172.68 2.0294 3.5358 0.0040564
-142.62 0.0027820 7.4133e-08 -109.27 -109.27 -0.57593 687.16 0.0014553 -109.27 -109.27 -0.57593 1.3343 1.9728 1830.2 -0.0073988 1080.8 0.18909 0.00077939 1283.1 385.07 409.68 3.3999 0.85679 1.0454 173.28 1.9896 3.5633 0.0041164
-141.62 0.0032653 8.4406e-08 -107.30 -107.30 -0.56087 686.15 0.0014574 -107.30 -107.30 -0.56087 1.3343 1.9744 1823.5 -0.0073878 1050.1 0.18856 0.00090784 1101.5 385.93 410.72 3.3777 0.86011 1.0487 173.88 1.9508 3.5908 0.0041766
-140.62 0.0038222 9.5793e-08 -105.32 -105.32 -0.54591 685.14 0.0014596 -105.32 -105.32 -0.54591 1.3344 1.9760 1816.7 -0.0073765 1020.7 0.18803 0.0010547 948.16 386.79 411.77 3.3560 0.86341 1.0520 174.48 1.9133 3.6183 0.0042372
-139.62 0.0044623 1.0837e-07 -103.34 -103.34 -0.53105 684.13 0.0014617 -103.34 -103.34 -0.53105 1.3344 1.9776 1810.0 -0.0073651 992.74 0.18749 0.0012221 818.26 387.65 412.83 3.3347 0.86670 1.0553 175.08 1.8768 3.6459 0.0042980
-138.62 0.0051963 1.2220e-07 -101.37 -101.37 -0.51629 683.12 0.0014639 -101.37 -101.37 -0.51629 1.3345 1.9792 1803.3 -0.0073536 965.97 0.18695 0.0014125 707.94 388.52 413.88 3.3139 0.86998 1.0586 175.67 1.8413 3.6734 0.0043592
-137.62 0.0060358 1.3737e-07 -99.386 -99.386 -0.50162 682.11 0.0014660 -99.386 -99.386 -0.50162 1.3346 1.9808 1796.6 -0.0073419 940.35 0.18641 0.0016287 614.00 389.39 414.94 3.2935 0.87325 1.0619 176.26 1.8069 3.7009 0.0044206
-136.62 0.0069938 1.5393e-07 -97.404 -97.404 -0.48705 681.10 0.0014682 -97.404 -97.404 -0.48705 1.3347 1.9825 1789.9 -0.0073301 915.81 0.18586 0.0018733 533.80 390.26 416.00 3.2735 0.87650 1.0651 176.85 1.7734 3.7284 0.0044823
-135.62 0.0080843 1.7196e-07 -95.421 -95.421 -0.47258 680.09 0.0014704 -95.421 -95.421 -0.47258 1.3348 1.9841 1783.2 -0.0073180 892.30 0.18531 0.0021497 465.17 391.14 417.07 3.2540 0.87975 1.0684 177.44 1.7409 3.7559 0.0045443
-134.62 0.0093230 1.9149e-07 -93.436 -93.436 -0.45820 679.08 0.0014726 -93.436 -93.436 -0.45820 1.3350 1.9858 1776.5 -0.0073059 869.75 0.18476 0.0024613 406.30 392.02 418.14 3.2348 0.88299 1.0716 178.02 1.7093 3.7834 0.0046066
-133.62 0.010727 2.1258e-07 -91.449 -91.449 -0.44391 678.07 0.0014748 -91.450 -91.449 -0.44391 1.3351 1.9875 1769.8 -0.0072935 848.11 0.18421 0.0028116 355.67 392.91 419.21 3.2161 0.88622 1.0749 178.61 1.6786 3.8109 0.0046691
-132.62 0.012315 2.3525e-07 -89.461 -89.461 -0.42971 677.06 0.0014770 -89.461 -89.461 -0.42971 1.3353 1.9892 1763.1 -0.0072810 827.32 0.18365 0.0032049 312.03 393.79 420.29 3.1977 0.88944 1.0781 179.19 1.6488 3.8385 0.0047320
-131.62 0.014106 2.5952e-07 -87.471 -87.471 -0.41560 676.04 0.0014792 -87.471 -87.471 -0.41560 1.3354 1.9909 1756.4 -0.0072684 807.34 0.18309 0.0036453 274.33 394.68 421.36 3.1798 0.89266 1.0813 179.76 1.6197 3.8660 0.0047951
-130.62 0.016124 2.8540e-07 -85.479 -85.479 -0.40157 675.03 0.0014814 -85.479 -85.479 -0.40157 1.3356 1.9926 1749.7 -0.0072555 788.12 0.18253 0.0041375 241.69 395.58 422.44 3.1622 0.89586 1.0846 180.34 1.5915 3.8935 0.0048586
-129.62 0.018392 3.1285e-07 -83.486 -83.486 -0.38763 674.02 0.0014836 -83.486 -83.486 -0.38763 1.3358 1.9944 1743.0 -0.0072425 769.63 0.18196 0.0046867 213.37 396.47 423.53 3.1450 0.89906 1.0878 180.91 1.5641 3.9210 0.0049223
-128.62 0.020935 3.4184e-07 -81.490 -81.490 -0.37378 673.01 0.0014859 -81.491 -81.490 -0.37378 1.3360 1.9961 1736.3 -0.0072294 751.83 0.18140 0.0052981 188.75 397.37 424.62 3.1281 0.90226 1.0910 181.48 1.5374 3.9485 0.0049863
-127.62 0.023783 3.7230e-07 -79.493 -79.493 -0.36001 672.00 0.0014881 -79.494 -79.493 -0.36001 1.3363 1.9979 1729.6 -0.0072160 734.67 0.18083 0.0059776 167.29 398.27 425.71 3.1116 0.90545 1.0942 182.05 1.5114 3.9760 0.0050506
-126.62 0.026966 4.0412e-07 -77.495 -77.494 -0.34632 670.98 0.0014904 -77.495 -77.495 -0.34632 1.3365 1.9997 1722.9 -0.0072025 718.14 0.18025 0.0067313 148.56 399.18 426.80 3.0954 0.90863 1.0974 182.62 1.4861 4.0035 0.0051152
-125.62 0.030515 4.3717e-07 -75.494 -75.494 -0.33271 669.97 0.0014926 -75.494 -75.494 -0.33272 1.3368 2.0015 1716.2 -0.0071888 702.18 0.17968 0.0075660 132.17 400.09 427.89 3.0795 0.91181 1.1006 183.18 1.4615 4.0310 0.0051800
-124.62 0.034467 4.7127e-07 -73.492 -73.491 -0.31919 668.95 0.0014949 -73.492 -73.492 -0.31919 1.3371 2.0033 1709.5 -0.0071749 686.79 0.17910 0.0084885 117.81 401.00 428.99 3.0640 0.91499 1.1038 183.74 1.4375 4.0584 0.0052452
-123.62 0.038859 5.0619e-07 -71.487 -71.487 -0.30574 667.94 0.0014971 -71.488 -71.487 -0.30574 1.3374 2.0051 1702.8 -0.0071609 671.93 0.17852 0.0095065 105.19 401.91 430.10 3.0488 0.91816 1.1070 184.30 1.4141 4.0859 0.0053106
-122.62 0.043731 5.4168e-07 -69.481 -69.481 -0.29237 666.92 0.0014994 -69.482 -69.481 -0.29237 1.3377 2.0070 1696.2 -0.0071466 657.57 0.17794 0.010628 94.092 402.83 431.20 3.0339 0.92134 1.1102 184.86 1.3913 4.1134 0.0053764
-121.62 0.049128 5.7741e-07 -67.473 -67.473 -0.27907 665.91 0.0015017 -67.474 -67.473 -0.27907 1.3380 2.0089 1689.5 -0.0071322 643.70 0.17736 0.011861 84.309 403.75 432.31 3.0193 0.92451 1.1134 185.41 1.3691 4.1409 0.0054424
-120.62 0.055096 6.1300e-07 -65.464 -65.463 -0.26585 664.89 0.0015040 -65.464 -65.463 -0.26585 1.3384 2.0107 1682.8 -0.0071176 630.28 0.17678 0.013215 75.669 404.67 433.42 3.0050 0.92767 1.1166 185.96 1.3475 4.1683 0.0055087
-119.62 0.061684 6.4799e-07 -63.452 -63.451 -0.25270 663.87 0.0015063 -63.452 -63.452 -0.25271 1.3387 2.0126 1676.1 -0.0071028 617.30 0.17619 0.014700 68.027 405.60 434.53 2.9909 0.93084 1.1198 186.51 1.3264 4.1958 0.0055752
-118.62 0.068946 6.8187e-07 -61.438 -61.438 -0.23963 662.86 0.0015086 -61.439 -61.438 -0.23963 1.3391 2.0146 1669.4 -0.0070878 604.74 0.17560 0.016325 61.255 406.53 435.64 2.9772 0.93401 1.1231 187.06 1.3058 4.2233 0.0056421
-117.62 0.076937 7.1403e-07 -59.423 -59.422 -0.22663 661.84 0.0015109 -59.423 -59.422 -0.22663 1.3395 2.0165 1662.8 -0.0070726 592.58 0.17501 0.018101 55.245 407.46 436.76 2.9638 0.93718 1.1263 187.60 1.2857 4.2507 0.0057092
-116.62 0.085718 7.4379e-07 -57.405 -57.404 -0.21370 660.82 0.0015133 -57.406 -57.405 -0.21370 1.3400 2.0184 1656.1 -0.0070573 580.80 0.17442 0.020040 49.901 408.39 437.88 2.9506 0.94035 1.1295 188.14 1.2660 4.2782 0.0057767
-115.62 0.095353 7.7038e-07 -55.386 -55.385 -0.20084 659.80 0.0015156 -55.386 -55.385 -0.20084 1.3404 2.0204 1649.4 -0.0070417 569.38 0.17383 0.022152 45.142 409.33 439.01 2.9377 0.94352 1.1327 188.68 1.2468 4.3056 0.0058444
-114.62 0.10591 7.9291e-07 -53.365 -53.363 -0.18805 658.78 0.0015180 -53.365 -53.364 -0.18805 1.3409 2.0224 1642.7 -0.0070260 558.32 0.17323 0.024451 40.898 410.27 440.13 2.9250 0.94669 1.1360 189.22 1.2281 4.3330 0.0059123
-113.62 0.11746 8.1039e-07 -51.341 -51.340 -0.17532 657.76 0.0015203 -51.342 -51.340 -0.17533 1.3413 2.0244 1636.0 -0.0070100 547.59 0.17264 0.026949 37.107 411.21 441.26 2.9126 0.94987 1.1392 189.75 1.2097 4.3604 0.0059806
-112.62 0.13008 8.2172e-07 -49.316 -49.314 -0.16267 656.73 0.0015227 -49.316 -49.315 -0.16267 1.3418 2.0264 1629.3 -0.0069938 537.18 0.17204 0.029661 33.715 412.16 442.39 2.9005 0.95305 1.1424 190.28 1.1918 4.3879 0.0060491
-111.62 0.14384 8.2567e-07 -47.288 -47.287 -0.15008 655.71 0.0015251 -47.289 -47.287 -0.15008 1.3424 2.0285 1622.7 -0.0069774 527.08 0.17144 0.032600 30.675 413.10 443.53 2.8885 0.95623 1.1457 190.81 1.1742 4.4153 0.0061180
-110.62 0.15884 8.2087e-07 -45.259 -45.257 -0.13755 654.69 0.0015274 -45.259 -45.258 -0.13755 1.3429 2.0305 1616.0 -0.0069609 517.28 0.17084 0.035781 27.948 414.06 444.66 2.8769 0.95942 1.1490 191.34 1.1570 4.4427 0.0061871
-109.62 0.17516 8.0582e-07 -43.227 -43.225 -0.12509 653.66 0.0015298 -43.228 -43.226 -0.12509 1.3435 2.0326 1609.3 -0.0069441 507.76 0.17024 0.039220 25.497 415.01 445.80 2.8654 0.96261 1.1522 191.86 1.1402 4.4701 0.0062564
-108.62 0.19290 7.7885e-07 -41.194 -41.192 -0.11269 652.64 0.0015322 -41.194 -41.192 -0.11269 1.3441 2.0347 1602.6 -0.0069271 498.51 0.16964 0.042933 23.292 415.96 446.94 2.8542 0.96581 1.1555 192.38 1.1236 4.4974 0.0063261
-107.62 0.21215 7.3814e-07 -39.158 -39.156 -0.10035 651.61 0.0015347 -39.158 -39.156 -0.10036 1.3447 2.0369 1595.9 -0.0069098 489.52 0.16903 0.046937 21.305 416.92 448.09 2.8433 0.96901 1.1588 192.90 1.1075 4.5248 0.0063960
-106.62 0.23301 6.8169e-07 -37.120 -37.118 -0.088080 650.58 0.0015371 -37.120 -37.118 -0.088082 1.3453 2.0390 1589.2 -0.0068924 480.79 0.16843 0.051250 19.512 417.88 449.23 2.8325 0.97222 1.1621 193.41 1.0916 4.5522 0.0064662
-105.62 0.25561 6.0731e-07 -35.080 -35.077 -0.075867 649.55 0.0015395 -35.080 -35.078 -0.075868 1.3460 2.0412 1582.6 -0.0068747 472.30 0.16782 0.055891 17.892 418.85 450.38 2.8220 0.97544 1.1655 193.93 1.0760 4.5795 0.0065367
-104.62 0.28004 5.1263e-07 -33.038 -33.035 -0.063713 648.52 0.0015420 -33.038 -33.035 -0.063714 1.3467 2.0434 1575.9 -0.0068569 464.04 0.16721 0.060878 16.426 419.81 451.53 2.8116 0.97867 1.1688 194.44 1.0608 4.6069 0.0066074
-103.62 0.30643 3.9506e-07 -30.994 -30.990 -0.051618 647.49 0.0015444 -30.994 -30.991 -0.051619 1.3474 2.0456 1569.2 -0.0068387 456.00 0.16660 0.066231 15.099 420.78 452.68 2.8015 0.98191 1.1722 194.94 1.0458 4.6342 0.0066785
-102.62 0.33490 2.5180e-07 -28.947 -28.944 -0.039581 646.46 0.0015469 -28.947 -28.944 -0.039582 1.3481 2.0478 1562.5 -0.0068204 448.18 0.16600 0.071971 13.894 421.75 453.84 2.7916 0.98516 1.1755 195.44 1.0310 4.6615 0.0067498
-101.62 0.36558 7.9812e-08 -26.898 -26.894 -0.027601 645.43 0.0015494 -26.898 -26.894 -0.027602 1.3489 2.0501 1555.8 -0.0068018 440.57 0.16539 0.078120 12.801 422.73 454.99 2.7818 0.98841 1.1789 195.95 1.0166 4.6888 0.0068213
-100.62 140.45 undefined -25.260 -23.759 -0.018077 645.00 0.0015504 -25.260 -23.759 -0.018077 1.3507 2.0506 1554.5 -0.0067989 436.59 0.16525 645.00 0.0015504 -25.260 -23.759 -0.018077 1.3507 2.0506 1554.5 -0.0067989 436.59 0.16525
-99.625 377.87 undefined -23.908 -19.869 -0.010263 645.00 0.0015504 -23.908 -19.869 -0.010263 1.3533 2.0499 1557.0 -0.0068068 435.07 0.16544 645.00 0.0015504 -23.908 -19.869 -0.010263 1.3533 2.0499 1557.0 -0.0068068 435.07 0.16544
-98.625 614.70 undefined -22.554 -15.983 -0.0024788 645.00 0.0015504 -22.554 -15.983 -0.0024788 1.3559 2.0493 1559.5 -0.0068144 433.56 0.16563 645.00 0.0015504 -22.554 -15.983 -0.0024788 1.3559 2.0493 1559.5 -0.0068144 433.56 0.16563
-97.625 850.94 undefined -21.197 -12.100 0.0052754 645.00 0.0015504 -21.197 -12.100 0.0052754 1.3585 2.0487 1562.0 -0.0068218 432.08 0.16583 645.00 0.0015504 -21.197 -12.100 0.0052754 1.3585 2.0487 1562.0 -0.0068218 432.08 0.16583
-96.625 1086.6 undefined -19.837 -8.2215 0.013000 645.00 0.0015504 -19.837 -8.2215 0.013000 1.3611 2.0482 1564.4 -0.0068289 430.62 0.16602 645.00 0.0015504 -19.837 -8.2215 0.013000 1.3611 2.0482 1564.4 -0.0068289 430.62 0.16602
-95.625 1321.7 undefined -18.474 -4.3461 0.020696 645.00 0.0015504 -18.474 -4.3461 0.020696 1.3637 2.0477 1566.9 -0.0068357 429.17 0.16622 645.00 0.0015504 -18.474 -4.3461 0.020696 1.3637 2.0477 1566.9 -0.0068357 429.17 0.16622
-94.625 1556.2 undefined -17.109 -0.47420 0.028363 645.00 0.0015504 -17.109 -0.47420 0.028363 1.3663 2.0473 1569.3 -0.0068423 427.75 0.16641 645.00 0.0015504 -17.109 -0.47420 0.028363 1.3663 2.0473 1569.3 -0.0068423 427.75 0.16641
-93.625 1790.2 undefined -15.742 3.3943 0.036002 645.00 0.0015504 -15.742 3.3943 0.036002 1.3689 2.0469 1571.7 -0.0068486 426.35 0.16660 645.00 0.0015504 -15.742 3.3943 0.036002 1.3689 2.0469 1571.7 -0.0068486 426.35 0.16660
-92.625 2023.6 undefined -14.372 7.2594 0.043614 645.00 0.0015504 -14.372 7.2594 0.043614 1.3715 2.0466 1574.2 -0.0068547 424.96 0.16680 645.00 0.0015504 -14.372 7.2594 0.043614 1.3715 2.0466 1574.2 -0.0068547 424.96 0.16680
-91.625 2256.4 undefined -12.999 11.121 0.051198 645.00 0.0015504 -12.999 11.121 0.051198 1.3742 2.0464 1576.6 -0.0068605 423.60 0.16699 645.00 0.0015504 -12.999 11.121 0.051198 1.3742 2.0464 1576.6 -0.0068605 423.60 0.16699
-90.625 2488.7 undefined -11.623 14.980 0.058755 645.00 0.0015504 -11.623 14.980 0.058755 1.3769 2.0461 1578.9 -0.0068660 422.25 0.16719 645.00 0.0015504 -11.623 14.980 0.058755 1.3769 2.0461 1578.9 -0.0068660 422.25 0.16719
-89.625 2720.5 undefined -10.245 18.835 0.066285 645.00 0.0015504 -10.245 18.835 0.066285 1.3795 2.0460 1581.3 -0.0068713 420.92 0.16739 645.00 0.0015504 -10.245 18.835 0.066285 1.3795 2.0460 1581.3 -0.0068713 420.92 0.16739
-88.625 2951.7 undefined -8.8642 22.688 0.073788 645.00 0.0015504 -8.8642 22.688 0.073788 1.3822 2.0459 1583.7 -0.0068764 419.61 0.16758 645.00 0.0015504 -8.8642 22.688 0.073788 1.3822 2.0459 1583.7 -0.0068764 419.61 0.16758
-87.625 3182.4 undefined -7.4806 26.537 0.081266 645.00 0.0015504 -7.4806 26.537 0.081266 1.3849 2.0458 1586.0 -0.0068812 418.32 0.16778 645.00 0.0015504 -7.4806 26.537 0.081266 1.3849 2.0458 1586.0 -0.0068812 418.32 0.16778
-86.625 3412.5 undefined -6.0944 30.384 0.088718 645.00 0.0015504 -6.0944 30.384 0.088718 1.3876 2.0458 1588.4 -0.0068858 417.04 0.16797 645.00 0.0015504 -6.0944 30.384 0.088718 1.3876 2.0458 1588.4 -0.0068858 417.04 0.16797
-85.625 3642.1 undefined -4.7054 34.227 0.096145 645.00 0.0015504 -4.7054 34.227 0.096145 1.3903 2.0459 1590.7 -0.0068902 415.79 0.16817 645.00 0.0015504 -4.7054 34.227 0.096145 1.3903 2.0459 1590.7 -0.0068902 415.79 0.16817
-84.625 3871.2 undefined -3.3137 38.068 0.10355 645.00 0.0015504 -3.3137 38.068 0.10355 1.3931 2.0460 1593.0 -0.0068943 414.55 0.16837 645.00 0.0015504 -3.3137 38.068 0.10355 1.3931 2.0460 1593.0 -0.0068943 414.55 0.16837
-83.625 4099.8 undefined -1.9192 41.906 0.11092 645.00 0.0015504 -1.9192 41.906 0.11092 1.3958 2.0461 1595.3 -0.0068982 413.33 0.16857 645.00 0.0015504 -1.9192 41.906 0.11092 1.3958 2.0461 1595.3 -0.0068982 413.33 0.16857
-82.625 4327.9 undefined -0.52204 45.741 0.11828 645.00 0.0015504 -0.52204 45.741 0.11828 1.3986 2.0463 1597.6 -0.0069019 412.12 0.16876 645.00 0.0015504 -0.52204 45.741 0.11828 1.3986 2.0463 1597.6 -0.0069019 412.12 0.16876
-81.625 4555.4 undefined 0.87793 49.574 0.12560 645.00 0.0015504 0.87793 49.574 0.12560 1.4014 2.0465 1599.9 -0.0069053 410.93 0.16896 645.00 0.0015504 0.87793 49.574 0.12560 1.4014 2.0465 1599.9 -0.0069053 410.93 0.16896
-80.625 4782.5 undefined 2.2807 53.403 0.13291 645.00 0.0015504 2.2807 53.403 0.13291 1.4041 2.0468 1602.1 -0.0069085 409.75 0.16916 645.00 0.0015504 2.2807 53.403 0.13291 1.4041 2.0468 1602.1 -0.0069085 409.75 0.16916
-79.625 5009.1 undefined 3.6862 57.231 0.14019 645.00 0.0015504 3.6862 57.231 0.14019 1.4069 2.0472 1604.4 -0.0069116 408.60 0.16936 645.00 0.0015504 3.6862 57.231 0.14019 1.4069 2.0472 1604.4 -0.0069116 408.60 0.16936
-78.625 5235.1 undefined 5.0945 61.056 0.14745 645.00 0.0015504 5.0945 61.056 0.14745 1.4097 2.0475 1606.6 -0.0069144 407.45 0.16956 645.00 0.0015504 5.0945 61.056 0.14745 1.4097 2.0475 1606.6 -0.0069144 407.45 0.16956
-77.625 5460.7 undefined 6.5057 64.878 0.15469 645.00 0.0015504 6.5057 64.878 0.15469 1.4126 2.0479 1608.8 -0.0069170 406.33 0.16976 645.00 0.0015504 6.5057 64.878 0.15469 1.4126 2.0479 1608.8 -0.0069170 406.33 0.16976
-76.625 5685.8 undefined 7.9197 68.698 0.16190 645.00 0.0015504 7.9197 68.698 0.16190 1.4154 2.0484 1611.0 -0.0069193 405.21 0.16996 645.00 0.0015504 7.9197 68.698 0.16190 1.4154 2.0484 1611.0 -0.0069193 405.21 0.16996
-75.625 5910.4 undefined 9.3366 72.516 0.16909 645.00 0.0015504 9.3366 72.516 0.16909 1.4183 2.0489 1613.2 -0.0069215 404.12 0.17016 645.00 0.0015504 9.3366 72.516 0.16909 1.4183 2.0489 1613.2 -0.0069215 404.12 0.17016
-74.625 6134.5 undefined 10.756 76.331 0.17626 645.00 0.0015504 10.756 76.331 0.17626 1.4211 2.0494 1615.4 -0.0069235 403.03 0.17036 645.00 0.0015504 10.756 76.331 0.17626 1.4211 2.0494 1615.4 -0.0069235 403.03 0.17036
-73.625 6358.1 undefined 12.179 80.144 0.18341 645.00 0.0015504 12.179 80.144 0.18341 1.4240 2.0500 1617.6 -0.0069253 401.97 0.17056 645.00 0.0015504 12.179 80.144 0.18341 1.4240 2.0500 1617.6 -0.0069253 401.97 0.17056
-72.625 6581.3 undefined 13.604 83.955 0.19053 645.00 0.0015504 13.604 83.955 0.19053 1.4269 2.0507 1619.7 -0.0069269 400.91 0.17076 645.00 0.0015504 13.604 83.955 0.19053 1.4269 2.0507 1619.7 -0.0069269 400.91 0.17076
-71.625 6803.9 undefined 15.033 87.764 0.19764 645.00 0.0015504 15.033 87.764 0.19764 1.4298 2.0513 1621.8 -0.0069283 399.87 0.17096 645.00 0.0015504 15.033 87.764 0.19764 1.4298 2.0513 1621.8 -0.0069283 399.87 0.17096
-70.625 7026.2 undefined 16.464 91.570 0.20472 645.00 0.0015504 16.464 91.570 0.20472 1.4328 2.0520 1624.0 -0.0069295 398.84 0.17116 645.00 0.0015504 16.464 91.570 0.20472 1.4328 2.0520 1624.0 -0.0069295 398.84 0.17116
-69.625 7247.9 undefined 17.898 95.375 0.21179 645.00 0.0015504 17.898 95.375 0.21179 1.4357 2.0528 1626.1 -0.0069305 397.83 0.17136 645.00 0.0015504 17.898 95.375 0.21179 1.4357 2.0528 1626.1 -0.0069305 397.83 0.17136
-68.625 7469.2 undefined 19.335 99.178 0.21883 645.00 0.0015504 19.335 99.178 0.21883 1.4387 2.0536 1628.2 -0.0069313 396.83 0.17156 645.00 0.0015504 19.335 99.178 0.21883 1.4387 2.0536 1628.2 -0.0069313 396.83 0.17156
-67.625 7690.0 undefined 20.776 102.98 0.22586 645.00 0.0015504 20.776 102.98 0.22586 1.4416 2.0544 1630.3 -0.0069320 395.85 0.17177 645.00 0.0015504 20.776 102.98 0.22586 1.4416 2.0544 1630.3 -0.0069320 395.85 0.17177
-66.625 7910.4 undefined 22.219 106.78 0.23286 645.00 0.0015504 22.219 106.78 0.23286 1.4446 2.0553 1632.3 -0.0069324 394.87 0.17197 645.00 0.0015504 22.219 106.78 0.23286 1.4446 2.0553 1632.3 -0.0069324 394.87 0.17197
-65.625 8130.3 undefined 23.665 110.57 0.23985 645.00 0.0015504 23.665 110.57 0.23985 1.4476 2.0562 1634.4 -0.0069327 393.91 0.17217 645.00 0.0015504 23.665 110.57 0.23985 1.4476 2.0562 1634.4 -0.0069327 393.91 0.17217
-64.625 8349.8 undefined 25.114 114.37 0.24681 645.00 0.0015504 25.114 114.37 0.24681 1.4507 2.0572 1636.4 -0.0069328 392.96 0.17237 645.00 0.0015504 25.114 114.37 0.24681 1.4507 2.0572 1636.4 -0.0069328 392.96 0.17237
-63.625 8568.8 undefined 26.566 118.16 0.25376 645.00 0.0015504 26.566 118.16 0.25376 1.4537 2.0581 1638.5 -0.0069328 392.03 0.17258 645.00 0.0015504 26.566 118.16 0.25376 1.4537 2.0581 1638.5 -0.0069328 392.03 0.17258
-62.625 8787.4 undefined 28.021 121.95 0.26069 645.00 0.0015504 28.021 121.95 0.26069 1.4568 2.0592 1640.5 -0.0069325 391.10 0.17278 645.00 0.0015504 28.021 121.95 0.26069 1.4568 2.0592 1640.5 -0.0069325 391.10 0.17278
-61.625 9005.5 undefined 29.480 125.74 0.26760 645.00 0.0015504 29.480 125.74 0.26760 1.4598 2.0602 1642.5 -0.0069321 390.19 0.17299 645.00 0.0015504 29.480 125.74 0.26760 1.4598 2.0602 1642.5 -0.0069321 390.19 0.17299
-60.625 9223.2 undefined 30.941 129.53 0.27449 645.00 0.0015504 30.941 129.53 0.27449 1.4629 2.0613 1644.5 -0.0069316 389.29 0.17319 645.00 0.0015504 30.941 129.53 0.27449 1.4629 2.0613 1644.5 -0.0069316 389.29 0.17319
-59.625 9440.4 undefined 32.406 133.32 0.28137 645.00 0.0015504 32.406 133.32 0.28137 1.4660 2.0625 1646.5 -0.0069308 388.40 0.17339 645.00 0.0015504 32.406 133.32 0.28137 1.4660 2.0625 1646.5 -0.0069308 388.40 0.17339
-58.625 9657.3 undefined 33.873 137.10 0.28822 645.00 0.0015504 33.873 137.10 0.28822 1.4691 2.0636 1648.5 -0.0069299 387.52 0.17360 645.00 0.0015504 33.873 137.10 0.28822 1.4691 2.0636 1648.5 -0.0069299 387.52 0.17360
-57.625 9873.7 undefined 35.344 140.89 0.29506 645.00 0.0015504 35.344 140.89 0.29506 1.4723 2.0648 1650.4 -0.0069289 386.65 0.17380 645.00 0.0015504 35.344 140.89 0.29506 1.4723 2.0648 1650.4 -0.0069289 386.65 0.17380
-56.625 10090. undefined 36.818 144.67 0.30189 645.00 0.0015504 36.818 144.67 0.30189 1.4754 2.0661 1652.4 -0.0069277 385.80 0.17401 645.00 0.0015504 36.818 144.67 0.30189 1.4754 2.0661 1652.4 -0.0069277 385.80 0.17401
-55.625 10305. undefined 38.295 148.45 0.30869 645.00 0.0015504 38.295 148.45 0.30869 1.4786 2.0674 1654.3 -0.0069263 384.95 0.17421 645.00 0.0015504 38.295 148.45 0.30869 1.4786 2.0674 1654.3 -0.0069263 384.95 0.17421
-54.625 10520. undefined 39.775 152.23 0.31548 645.00 0.0015504 39.775 152.23 0.31548 1.4818 2.0687 1656.2 -0.0069248 384.12 0.17442 645.00 0.0015504 39.775 152.23 0.31548 1.4818 2.0687 1656.2 -0.0069248 384.12 0.17442
-53.625 10735. undefined 41.258 156.01 0.32225 645.00 0.0015504 41.258 156.01 0.32225 1.4850 2.0700 1658.1 -0.0069231 383.30 0.17463 645.00 0.0015504 41.258 156.01 0.32225 1.4850 2.0700 1658.1 -0.0069231 383.30 0.17463
-52.625 10949. undefined 42.745 159.79 0.32901 645.00 0.0015504 42.745 159.79 0.32901 1.4882 2.0714 1660.0 -0.0069213 382.48 0.17483 645.00 0.0015504 42.745 159.79 0.32901 1.4882 2.0714 1660.0 -0.0069213 382.48 0.17483
-51.625 11163. undefined 44.235 163.56 0.33575 645.00 0.0015504 44.235 163.56 0.33575 1.4914 2.0728 1661.9 -0.0069193 381.68 0.17504 645.00 0.0015504 44.235 163.56 0.33575 1.4914 2.0728 1661.9 -0.0069193 381.68 0.17504
-50.625 11377. undefined 45.728 167.34 0.34248 645.00 0.0015504 45.728 167.34 0.34248 1.4947 2.0743 1663.8 -0.0069172 380.89 0.17525 645.00 0.0015504 45.728 167.34 0.34248 1.4947 2.0743 1663.8 -0.0069172 380.89 0.17525
-49.625 11590. undefined 47.224 171.11 0.34919 645.00 0.0015504 47.224 171.11 0.34919 1.4979 2.0758 1665.6 -0.0069150 380.10 0.17546 645.00 0.0015504 47.224 171.11 0.34919 1.4979 2.0758 1665.6 -0.0069150 380.10 0.17546
-48.625 11802. undefined 48.724 174.88 0.35588 645.00 0.0015504 48.724 174.88 0.35588 1.5012 2.0773 1667.5 -0.0069126 379.33 0.17566 645.00 0.0015504 48.724 174.88 0.35588 1.5012 2.0773 1667.5 -0.0069126 379.33 0.17566
-47.625 12014. undefined 50.227 178.65 0.36256 645.00 0.0015504 50.227 178.65 0.36256 1.5045 2.0789 1669.3 -0.0069101 378.57 0.17587 645.00 0.0015504 50.227 178.65 0.36256 1.5045 2.0789 1669.3 -0.0069101 378.57 0.17587
-46.625 12226. undefined 51.733 182.43 0.36922 645.00 0.0015504 51.733 182.43 0.36922 1.5079 2.0804 1671.2 -0.0069074 377.81 0.17608 645.00 0.0015504 51.733 182.43 0.36922 1.5079 2.0804 1671.2 -0.0069074 377.81 0.17608
-45.625 12438. undefined 53.242 186.19 0.37587 645.00 0.0015504 53.242 186.19 0.37587 1.5112 2.0821 1673.0 -0.0069046 377.07 0.17629 645.00 0.0015504 53.242 186.19 0.37587 1.5112 2.0821 1673.0 -0.0069046 377.07 0.17629
-44.625 12649. undefined 54.755 189.96 0.38251 645.00 0.0015504 54.755 189.96 0.38251 1.5145 2.0837 1674.8 -0.0069017 376.33 0.17650 645.00 0.0015504 54.755 189.96 0.38251 1.5145 2.0837 1674.8 -0.0069017 376.33 0.17650
-43.625 12859. undefined 56.271 193.73 0.38913 645.00 0.0015504 56.271 193.73 0.38913 1.5179 2.0854 1676.6 -0.0068986 375.60 0.17671 645.00 0.0015504 56.271 193.73 0.38913 1.5179 2.0854 1676.6 -0.0068986 375.60 0.17671
-42.625 13069. undefined 57.791 197.50 0.39573 645.00 0.0015504 57.791 197.50 0.39573 1.5213 2.0871 1678.4 -0.0068954 374.88 0.17692 645.00 0.0015504 57.791 197.50 0.39573 1.5213 2.0871 1678.4 -0.0068954 374.88 0.17692
-41.625 13279. undefined 59.314 201.26 0.40232 645.00 0.0015504 59.314 201.26 0.40232 1.5247 2.0889 1680.1 -0.0068921 374.17 0.17713 645.00 0.0015504 59.314 201.26 0.40232 1.5247 2.0889 1680.1 -0.0068921 374.17 0.17713
-40.625 13489. undefined 60.840 205.03 0.40890 645.00 0.0015504 60.840 205.03 0.40890 1.5281 2.0906 1681.9 -0.0068886 373.47 0.17734 645.00 0.0015504 60.840 205.03 0.40890 1.5281 2.0906 1681.9 -0.0068886 373.47 0.17734
-39.625 13698. undefined 62.370 208.79 0.41547 645.00 0.0015504 62.370 208.79 0.41547 1.5315 2.0924 1683.7 -0.0068851 372.78 0.17755 645.00 0.0015504 62.370 208.79 0.41547 1.5315 2.0924 1683.7 -0.0068851 372.78 0.17755
-38.625 13906. undefined 63.903 212.56 0.42202 645.00 0.0015504 63.903 212.56 0.42202 1.5350 2.0943 1685.4 -0.0068814 372.10 0.17776 645.00 0.0015504 63.903 212.56 0.42202 1.5350 2.0943 1685.4 -0.0068814 372.10 0.17776
-37.625 14115. undefined 65.440 216.32 0.42856 645.00 0.0015504 65.440 216.32 0.42856 1.5384 2.0962 1687.1 -0.0068776 371.42 0.17797 645.00 0.0015504 65.440 216.32 0.42856 1.5384 2.0962 1687.1 -0.0068776 371.42 0.17797
-36.625 14322. undefined 66.980 220.08 0.43508 645.00 0.0015504 66.980 220.08 0.43508 1.5419 2.0981 1688.9 -0.0068737 370.75 0.17818 645.00 0.0015504 66.980 220.08 0.43508 1.5419 2.0981 1688.9 -0.0068737 370.75 0.17818
-35.625 14530. undefined 68.524 223.84 0.44160 645.00 0.0015504 68.524 223.84 0.44160 1.5454 2.1000 1690.6 -0.0068696 370.09 0.17839 645.00 0.0015504 68.524 223.84 0.44160 1.5454 2.1000 1690.6 -0.0068696 370.09 0.17839
-34.625 14737. undefined 70.071 227.60 0.44810 645.00 0.0015504 70.071 227.60 0.44810 1.5489 2.1019 1692.3 -0.0068655 369.44 0.17860 645.00 0.0015504 70.071 227.60 0.44810 1.5489 2.1019 1692.3 -0.0068655 369.44 0.17860
-33.625 14944. undefined 71.622 231.36 0.45458 645.00 0.0015504 71.622 231.36 0.45458 1.5525 2.1039 1694.0 -0.0068612 368.80 0.17881 645.00 0.0015504 71.622 231.36 0.45458 1.5525 2.1039 1694.0 -0.0068612 368.80 0.17881
-32.625 15150. undefined 73.176 235.12 0.46106 645.00 0.0015504 73.176 235.12 0.46106 1.5560 2.1059 1695.7 -0.0068568 368.16 0.17903 645.00 0.0015504 73.176 235.12 0.46106 1.5560 2.1059 1695.7 -0.0068568 368.16 0.17903
-31.625 15356. undefined 74.734 238.88 0.46752 645.00 0.0015504 74.734 238.88 0.46752 1.5596 2.1080 1697.3 -0.0068523 367.53 0.17924 645.00 0.0015504 74.734 238.88 0.46752 1.5596 2.1080 1697.3 -0.0068523 367.53 0.17924
-30.625 15562. undefined 76.295 242.64 0.47397 645.00 0.0015504 76.295 242.64 0.47397 1.5631 2.1101 1699.0 -0.0068477 366.91 0.17945 645.00 0.0015504 76.295 242.64 0.47397 1.5631 2.1101 1699.0 -0.0068477 366.91 0.17945
-29.625 15767. undefined 77.860 246.40 0.48041 645.00 0.0015504 77.860 246.40 0.48041 1.5667 2.1122 1700.7 -0.0068431 366.30 0.17967 645.00 0.0015504 77.860 246.40 0.48041 1.5667 2.1122 1700.7 -0.0068431 366.30 0.17967
-28.625 15972. undefined 79.429 250.16 0.48684 645.00 0.0015504 79.429 250.16 0.48684 1.5703 2.1143 1702.3 -0.0068383 365.69 0.17988 645.00 0.0015504 79.429 250.16 0.48684 1.5703 2.1143 1702.3 -0.0068383 365.69 0.17988
-27.625 16176. undefined 81.001 253.92 0.49326 645.00 0.0015504 81.001 253.92 0.49326 1.5739 2.1164 1703.9 -0.0068334 365.09 0.18009 645.00 0.0015504 81.001 253.92 0.49326 1.5739 2.1164 1703.9 -0.0068334 365.09 0.18009
-26.625 16381. undefined 82.577 257.68 0.49966 645.00 0.0015504 82.577 257.68 0.49966 1.5776 2.1186 1705.6 -0.0068284 364.49 0.18031 645.00 0.0015504 82.577 257.68 0.49966 1.5776 2.1186 1705.6 -0.0068284 364.49 0.18031
-25.625 16584. undefined 84.156 261.44 0.50606 645.00 0.0015504 84.156 261.44 0.50606 1.5812 2.1208 1707.2 -0.0068233 363.91 0.18052 645.00 0.0015504 84.156 261.44 0.50606 1.5812 2.1208 1707.2 -0.0068233 363.91 0.18052
-24.625 16788. undefined 85.739 265.19 0.51244 645.00 0.0015504 85.739 265.19 0.51244 1.5849 2.1231 1708.8 -0.0068181 363.33 0.18074 645.00 0.0015504 85.739 265.19 0.51244 1.5849 2.1231 1708.8 -0.0068181 363.33 0.18074
-23.625 16991. undefined 87.326 268.95 0.51881 645.00 0.0015504 87.326 268.95 0.51881 1.5886 2.1253 1710.4 -0.0068128 362.76 0.18095 645.00 0.0015504 87.326 268.95 0.51881 1.5886 2.1253 1710.4 -0.0068128 362.76 0.18095
-22.625 17194. undefined 88.916 272.71 0.52517 645.00 0.0015504 88.916 272.71 0.52517 1.5923 2.1276 1712.0 -0.0068074 362.19 0.18117 645.00 0.0015504 88.916 272.71 0.52517 1.5923 2.1276 1712.0 -0.0068074 362.19 0.18117
-21.625 17396. undefined 90.510 276.46 0.53152 645.00 0.0015504 90.510 276.46 0.53152 1.5960 2.1299 1713.6 -0.0068019 361.63 0.18138 645.00 0.0015504 90.510 276.46 0.53152 1.5960 2.1299 1713.6 -0.0068019 361.63 0.18138
-20.625 17598. undefined 92.108 280.22 0.53786 645.00 0.0015504 92.108 280.22 0.53786 1.5997 2.1322 1715.2 -0.0067964 361.08 0.18160 645.00 0.0015504 92.108 280.22 0.53786 1.5997 2.1322 1715.2 -0.0067964 361.08 0.18160
-19.625 17800. undefined 93.710 283.98 0.54419 645.00 0.0015504 93.710 283.98 0.54419 1.6034 2.1346 1716.8 -0.0067907 360.53 0.18181 645.00 0.0015504 93.710 283.98 0.54419 1.6034 2.1346 1716.8 -0.0067907 360.53 0.18181
-18.625 18001. undefined 95.315 287.74 0.55051 645.00 0.0015504 95.315 287.74 0.55051 1.6071 2.1370 1718.3 -0.0067850 359.99 0.18203 645.00 0.0015504 95.315 287.74 0.55051 1.6071 2.1370 1718.3 -0.0067850 359.99 0.18203
-17.625 18202. undefined 96.924 291.49 0.55682 645.00 0.0015504 96.924 291.49 0.55682 1.6109 2.1394 1719.9 -0.0067792 359.45 0.18225 645.00 0.0015504 96.924 291.49 0.55682 1.6109 2.1394 1719.9 -0.0067792 359.45 0.18225
-16.625 18402. undefined 98.537 295.25 0.56312 645.00 0.0015504 98.537 295.25 0.56312 1.6147 2.1418 1721.5 -0.0067733 358.92 0.18246 645.00 0.0015504 98.537 295.25 0.56312 1.6147 2.1418 1721.5 -0.0067733 358.92 0.18246
-15.625 18603. undefined 100.15 299.01 0.56941 645.00 0.0015504 100.15 299.01 0.56941 1.6185 2.1443 1723.0 -0.0067673 358.40 0.18268 645.00 0.0015504 100.15 299.01 0.56941 1.6185 2.1443 1723.0 -0.0067673 358.40 0.18268
-14.625 18803. undefined 101.77 302.77 0.57569 645.00 0.0015504 101.77 302.77 0.57569 1.6223 2.1468 1724.5 -0.0067613 357.88 0.18290 645.00 0.0015504 101.77 302.77 0.57569 1.6223 2.1468 1724.5 -0.0067613 357.88 0.18290
-13.625 19002. undefined 103.40 306.52 0.58196 645.00 0.0015504 103.40 306.52 0.58196 1.6261 2.1493 1726.1 -0.0067551 357.37 0.18312 645.00 0.0015504 103.40 306.52 0.58196 1.6261 2.1493 1726.1 -0.0067551 357.37 0.18312
-12.625 19202. undefined 105.03 310.28 0.58822 645.00 0.0015504 105.03 310.28 0.58822 1.6299 2.1518 1727.6 -0.0067489 356.87 0.18334 645.00 0.0015504 105.03 310.28 0.58822 1.6299 2.1518 1727.6 -0.0067489 356.87 0.18334
-11.625 19400. undefined 106.66 314.04 0.59447 645.00 0.0015504 106.66 314.04 0.59447 1.6337 2.1544 1729.1 -0.0067426 356.37 0.18355 645.00 0.0015504 106.66 314.04 0.59447 1.6337 2.1544 1729.1 -0.0067426 356.37 0.18355
-10.625 19599. undefined 108.29 317.80 0.60071 645.00 0.0015504 108.29 317.80 0.60071 1.6376 2.1569 1730.6 -0.0067363 355.87 0.18377 645.00 0.0015504 108.29 317.80 0.60071 1.6376 2.1569 1730.6 -0.0067363 355.87 0.18377
-9.6250 19797. undefined 109.93 321.56 0.60695 645.00 0.0015504 109.93 321.56 0.60695 1.6414 2.1595 1732.1 -0.0067299 355.39 0.18399 645.00 0.0015504 109.93 321.56 0.60695 1.6414 2.1595 1732.1 -0.0067299 355.39 0.18399
-8.6250 19995. undefined 111.58 325.32 0.61317 645.00 0.0015504 111.58 325.32 0.61317 1.6453 2.1621 1733.6 -0.0067234 354.90 0.18421 645.00 0.0015504 111.58 325.32 0.61317 1.6453 2.1621 1733.6 -0.0067234 354.90 0.18421
-7.6250 20193. undefined 113.22 329.07 0.61939 645.00 0.0015504 113.22 329.07 0.61939 1.6492 2.1648 1735.1 -0.0067168 354.42 0.18443 645.00 0.0015504 113.22 329.07 0.61939 1.6492 2.1648 1735.1 -0.0067168 354.42 0.18443
-6.6250 20390. undefined 114.87 332.83 0.62559 645.00 0.0015504 114.87 332.83 0.62559 1.6531 2.1674 1736.6 -0.0067102 353.95 0.18465 645.00 0.0015504 114.87 332.83 0.62559 1.6531 2.1674 1736.6 -0.0067102 353.95 0.18465
-5.6250 20587. undefined 116.53 336.59 0.63179 645.00 0.0015504 116.53 336.59 0.63179 1.6570 2.1701 1738.1 -0.0067035 353.48 0.18487 645.00 0.0015504 116.53 336.59 0.63179 1.6570 2.1701 1738.1 -0.0067035 353.48 0.18487
-4.6250 20784. undefined 118.19 340.36 0.63798 645.00 0.0015504 118.19 340.36 0.63798 1.6609 2.1728 1739.6 -0.0066967 353.02 0.18509 645.00 0.0015504 118.19 340.36 0.63798 1.6609 2.1728 1739.6 -0.0066967 353.02 0.18509
-3.6250 20980. undefined 119.85 344.12 0.64416 645.00 0.0015504 119.85 344.12 0.64416 1.6648 2.1755 1741.0 -0.0066899 352.56 0.18531 645.00 0.0015504 119.85 344.12 0.64416 1.6648 2.1755 1741.0 -0.0066899 352.56 0.18531
-2.6250 21176. undefined 121.52 347.88 0.65033 645.00 0.0015504 121.52 347.88 0.65033 1.6688 2.1783 1742.5 -0.0066830 352.11 0.18553 645.00 0.0015504 121.52 347.88 0.65033 1.6688 2.1783 1742.5 -0.0066830 352.11 0.18553
-1.6250 21371. undefined 123.19 351.64 0.65650 645.00 0.0015504 123.19 351.64 0.65650 1.6727 2.1810 1743.9 -0.0066761 351.66 0.18576 645.00 0.0015504 123.19 351.64 0.65650 1.6727 2.1810 1743.9 -0.0066761 351.66 0.18576
-0.62500 21567. undefined 124.86 355.40 0.66265 645.00 0.0015504 124.86 355.40 0.66265 1.6767 2.1838 1745.4 -0.0066691 351.22 0.18598 645.00 0.0015504 124.86 355.40 0.66265 1.6767 2.1838 1745.4 -0.0066691 351.22 0.18598
0.37500 21762. undefined 126.54 359.17 0.66880 645.00 0.0015504 126.54 359.17 0.66880 1.6806 2.1866 1746.8 -0.0066620 350.78 0.18620 645.00 0.0015504 126.54 359.17 0.66880 1.6806 2.1866 1746.8 -0.0066620 350.78 0.18620
1.3750 21956. undefined 128.22 362.93 0.67494 645.00 0.0015504 128.22 362.93 0.67494 1.6846 2.1894 1748.3 -0.0066549 350.35 0.18642 645.00 0.0015504 128.22 362.93 0.67494 1.6846 2.1894 1748.3 -0.0066549 350.35 0.18642
2.3750 22151. undefined 129.91 366.69 0.68108 645.00 0.0015504 129.91 366.69 0.68108 1.6886 2.1923 1749.7 -0.0066477 349.92 0.18665 645.00 0.0015504 129.91 366.69 0.68108 1.6886 2.1923 1749.7 -0.0066477 349.92 0.18665
3.3750 22345. undefined 131.60 370.46 0.68720 645.00 0.0015504 131.60 370.46 0.68720 1.6926 2.1951 1751.1 -0.0066405 349.50 0.18687 645.00 0.0015504 131.60 370.46 0.68720 1.6926 2.1951 1751.1 -0.0066405 349.50 0.18687
4.3750 22539. undefined 133.30 374.23 0.69332 645.00 0.0015504 133.30 374.23 0.69332 1.6966 2.1980 1752.6 -0.0066333 349.08 0.18709 645.00 0.0015504 133.30 374.23 0.69332 1.6966 2.1980 1752.6 -0.0066333 349.08 0.18709
5.3750 22732. undefined 135.00 377.99 0.69943 645.00 0.0015504 135.00 377.99 0.69943 1.7006 2.2009 1754.0 -0.0066259 348.66 0.18731 645.00 0.0015504 135.00 377.99 0.69943 1.7006 2.2009 1754.0 -0.0066259 348.66 0.18731
6.3750 22925. undefined 136.70 381.76 0.70553 645.00 0.0015504 136.70 381.76 0.70553 1.7046 2.2038 1755.4 -0.0066186 348.25 0.18754 645.00 0.0015504 136.70 381.76 0.70553 1.7046 2.2038 1755.4 -0.0066186 348.25 0.18754
7.3750 23118. undefined 138.40 385.53 0.71162 645.00 0.0015504 138.40 385.53 0.71162 1.7087 2.2067 1756.8 -0.0066112 347.85 0.18776 645.00 0.0015504 138.40 385.53 0.71162 1.7087 2.2067 1756.8 -0.0066112 347.85 0.18776
8.3750 23311. undefined 140.12 389.30 0.71771 645.00 0.0015504 140.12 389.30 0.71771 1.7127 2.2097 1758.2 -0.0066037 347.44 0.18799 645.00 0.0015504 140.12 389.30 0.71771 1.7127 2.2097 1758.2 -0.0066037 347.44 0.18799
9.3750 23503. undefined 141.83 393.07 0.72379 645.00 0.0015504 141.83 393.07 0.72379 1.7168 2.2126 1759.6 -0.0065962 347.05 0.18821 645.00 0.0015504 141.83 393.07 0.72379 1.7168 2.2126 1759.6 -0.0065962 347.05 0.18821
10.375 23695. undefined 143.55 396.84 0.72987 645.00 0.0015504 143.55 396.84 0.72987 1.7208 2.2156 1761.0 -0.0065887 346.65 0.18844 645.00 0.0015504 143.55 396.84 0.72987 1.7208 2.2156 1761.0 -0.0065887 346.65 0.18844
11.375 23886. undefined 145.27 400.61 0.73593 645.00 0.0015504 145.27 400.61 0.73593 1.7249 2.2186 1762.4 -0.0065811 346.26 0.18866 645.00 0.0015504 145.27 400.61 0.73593 1.7249 2.2186 1762.4 -0.0065811 346.26 0.18866
12.375 24078. undefined 147.00 404.38 0.74199 645.00 0.0015504 147.00 404.38 0.74199 1.7290 2.2216 1763.7 -0.0065734 345.88 0.18889 645.00 0.0015504 147.00 404.38 0.74199 1.7290 2.2216 1763.7 -0.0065734 345.88 0.18889
13.375 24269. undefined 148.73 408.15 0.74804 645.00 0.0015504 148.73 408.15 0.74804 1.7331 2.2246 1765.1 -0.0065658 345.50 0.18911 645.00 0.0015504 148.73 408.15 0.74804 1.7331 2.2246 1765.1 -0.0065658 345.50 0.18911
14.375 24460. undefined 150.46 411.93 0.75409 645.00 0.0015504 150.46 411.93 0.75409 1.7372 2.2277 1766.5 -0.0065581 345.12 0.18934 645.00 0.0015504 150.46 411.93 0.75409 1.7372 2.2277 1766.5 -0.0065581 345.12 0.18934
15.375 24650. undefined 152.20 415.70 0.76013 645.00 0.0015504 152.20 415.70 0.76013 1.7413 2.2307 1767.9 -0.0065503 344.74 0.18957 645.00 0.0015504 152.20 415.70 0.76013 1.7413 2.2307 1767.9 -0.0065503 344.74 0.18957
16.375 24840. undefined 153.95 419.48 0.76616 645.00 0.0015504 153.95 419.48 0.76616 1.7454 2.2338 1769.2 -0.0065425 344.37 0.18979 645.00 0.0015504 153.95 419.48 0.76616 1.7454 2.2338 1769.2 -0.0065425 344.37 0.18979
17.375 25030. undefined 155.69 423.26 0.77218 645.00 0.0015504 155.69 423.26 0.77218 1.7495 2.2369 1770.6 -0.0065347 344.01 0.19002 645.00 0.0015504 155.69 423.26 0.77218 1.7495 2.2369 1770.6 -0.0065347 344.01 0.19002
18.375 25220. undefined 157.45 427.03 0.77820 645.00 0.0015504 157.45 427.03 0.77820 1.7536 2.2400 1771.9 -0.0065269 343.65 0.19025 645.00 0.0015504 157.45 427.03 0.77820 1.7536 2.2400 1771.9 -0.0065269 343.65 0.19025
19.375 25409. undefined 159.20 430.81 0.78421 645.00 0.0015504 159.20 430.81 0.78421 1.7577 2.2431 1773.3 -0.0065190 343.29 0.19047 645.00 0.0015504 159.20 430.81 0.78421 1.7577 2.2431 1773.3 -0.0065190 343.29 0.19047
20.375 25598. undefined 160.96 434.59 0.79022 645.00 0.0015504 160.96 434.59 0.79022 1.7619 2.2462 1774.6 -0.0065111 342.93 0.19070 645.00 0.0015504 160.96 434.59 0.79022 1.7619 2.2462 1774.6 -0.0065111 342.93 0.19070
21.375 25787. undefined 162.73 438.37 0.79622 645.00 0.0015504 162.73 438.37 0.79622 1.7660 2.2494 1776.0 -0.0065031 342.58 0.19093 645.00 0.0015504 162.73 438.37 0.79622 1.7660 2.2494 1776.0 -0.0065031 342.58 0.19093
22.375 25975. undefined 164.49 442.16 0.80221 645.00 0.0015504 164.49 442.16 0.80221 1.7702 2.2525 1777.3 -0.0064952 342.23 0.19116 645.00 0.0015504 164.49 442.16 0.80221 1.7702 2.2525 1777.3 -0.0064952 342.23 0.19116
23.375 26163. undefined 166.27 445.94 0.80820 645.00 0.0015504 166.27 445.94 0.80820 1.7743 2.2557 1778.7 -0.0064872 341.89 0.19139 645.00 0.0015504 166.27 445.94 0.80820 1.7743 2.2557 1778.7 -0.0064872 341.89 0.19139
24.375 26351. undefined 168.04 449.73 0.81418 645.00 0.0015504 168.04 449.73 0.81418 1.7785 2.2589 1780.0 -0.0064791 341.55 0.19162 645.00 0.0015504 168.04 449.73 0.81418 1.7785 2.2589 1780.0 -0.0064791 341.55 0.19162
25.375 26539. undefined 169.82 453.51 0.82015 645.00 0.0015504 169.82 453.51 0.82015 1.7827 2.2621 1781.3 -0.0064711 341.21 0.19185 645.00 0.0015504 169.82 453.51 0.82015 1.7827 2.2621 1781.3 -0.0064711 341.21 0.19185
26.375 26726. undefined 171.61 457.30 0.82612 645.00 0.0015504 171.61 457.30 0.82612 1.7868 2.2653 1782.6 -0.0064630 340.88 0.19208 645.00 0.0015504 171.61 457.30 0.82612 1.7868 2.2653 1782.6 -0.0064630 340.88 0.19208
27.375 26913. undefined 173.40 461.09 0.83208 645.00 0.0015504 173.40 461.09 0.83208 1.7910 2.2685 1784.0 -0.0064549 340.55 0.19231 645.00 0.0015504 173.40 461.09 0.83208 1.7910 2.2685 1784.0 -0.0064549 340.55 0.19231
28.375 27100. undefined 175.19 464.88 0.83804 645.00 0.0015504 175.19 464.88 0.83804 1.7952 2.2717 1785.3 -0.0064468 340.22 0.19254 645.00 0.0015504 175.19 464.88 0.83804 1.7952 2.2717 1785.3 -0.0064468 340.22 0.19254
29.375 27287. undefined 176.99 468.67 0.84399 645.00 0.0015504 176.99 468.67 0.84399 1.7994 2.2750 1786.6 -0.0064386 339.90 0.19277 645.00 0.0015504 176.99 468.67 0.84399 1.7994 2.2750 1786.6 -0.0064386 339.90 0.19277
30.375 27473. undefined 178.79 472.46 0.84994 645.00 0.0015504 178.79 472.46 0.84994 1.8036 2.2783 1787.9 -0.0064305 339.58 0.19300 645.00 0.0015504 178.79 472.46 0.84994 1.8036 2.2783 1787.9 -0.0064305 339.58 0.19300
31.375 27659. undefined 180.59 476.25 0.85588 645.00 0.0015504 180.59 476.25 0.85588 1.8078 2.2815 1789.2 -0.0064223 339.26 0.19323 645.00 0.0015504 180.59 476.25 0.85588 1.8078 2.2815 1789.2 -0.0064223 339.26 0.19323
32.375 27844. undefined 182.40 480.05 0.86181 645.00 0.0015504 182.40 480.05 0.86181 1.8120 2.2848 1790.5 -0.0064141 338.95 0.19346 645.00 0.0015504 182.40 480.05 0.86181 1.8120 2.2848 1790.5 -0.0064141 338.95 0.19346
33.375 28030. undefined 184.22 483.84 0.86774 645.00 0.0015504 184.22 483.84 0.86774 1.8162 2.2881 1791.8 -0.0064058 338.63 0.19369 645.00 0.0015504 184.22 483.84 0.86774 1.8162 2.2881 1791.8 -0.0064058 338.63 0.19369
34.375 28215. undefined 186.04 487.64 0.87366 645.00 0.0015504 186.04 487.64 0.87366 1.8205 2.2914 1793.1 -0.0063976 338.33 0.19392 645.00 0.0015504 186.04 487.64 0.87366 1.8205 2.2914 1793.1 -0.0063976 338.33 0.19392
35.375 28400. undefined 187.86 491.44 0.87958 645.00 0.0015504 187.86 491.44 0.87958 1.8247 2.2947 1794.4 -0.0063893 338.02 0.19416 645.00 0.0015504 187.86 491.44 0.87958 1.8247 2.2947 1794.4 -0.0063893 338.02 0.19416
36.375 28585. undefined 189.69 495.24 0.88549 645.00 0.0015504 189.69 495.24 0.88549 1.8289 2.2981 1795.7 -0.0063810 337.72 0.19439 645.00 0.0015504 189.69 495.24 0.88549 1.8289 2.2981 1795.7 -0.0063810 337.72 0.19439
37.375 28769. undefined 191.52 499.04 0.89140 645.00 0.0015504 191.52 499.04 0.89140 1.8331 2.3014 1796.9 -0.0063728 337.42 0.19462 645.00 0.0015504 191.52 499.04 0.89140 1.8331 2.3014 1796.9 -0.0063728 337.42 0.19462
38.375 28953. undefined 193.35 502.85 0.89730 645.00 0.0015504 193.35 502.85 0.89730 1.8374 2.3047 1798.2 -0.0063644 337.12 0.19485 645.00 0.0015504 193.35 502.85 0.89730 1.8374 2.3047 1798.2 -0.0063644 337.12 0.19485
39.375 29137. undefined 195.19 506.65 0.90319 645.00 0.0015504 195.19 506.65 0.90319 1.8416 2.3081 1799.5 -0.0063561 336.83 0.19509 645.00 0.0015504 195.19 506.65 0.90319 1.8416 2.3081 1799.5 -0.0063561 336.83 0.19509
40.375 29320. undefined 197.04 510.46 0.90908 645.00 0.0015504 197.04 510.46 0.90908 1.8459 2.3115 1800.8 -0.0063478 336.54 0.19532 645.00 0.0015504 197.04 510.46 0.90908 1.8459 2.3115 1800.8 -0.0063478 336.54 0.19532
41.375 29504. undefined 198.88 514.27 0.91497 645.00 0.0015504 198.88 514.27 0.91497 1.8501 2.3149 1802.0 -0.0063394 336.25 0.19556 645.00 0.0015504 198.88 514.27 0.91497 1.8501 2.3149 1802.0 -0.0063394 336.25 0.19556
42.375 29687. undefined 200.74 518.07 0.92085 645.00 0.0015504 200.74 518.07 0.92085 1.8544 2.3182 1803.3 -0.0063311 335.97 0.19579 645.00 0.0015504 200.74 518.07 0.92085 1.8544 2.3182 1803.3 -0.0063311 335.97 0.19579
43.375 29870. undefined 202.59 521.89 0.92672 645.00 0.0015504 202.59 521.89 0.92672 1.8586 2.3216 1804.6 -0.0063227 335.69 0.19603 645.00 0.0015504 202.59 521.89 0.92672 1.8586 2.3216 1804.6 -0.0063227 335.69 0.19603
44.375 30052. undefined 204.45 525.70 0.93259 645.00 0.0015504 204.45 525.70 0.93259 1.8629 2.3251 1805.8 -0.0063143 335.41 0.19626 645.00 0.0015504 204.45 525.70 0.93259 1.8629 2.3251 1805.8 -0.0063143 335.41 0.19626
45.375 30234. undefined 206.32 529.51 0.93845 645.00 0.0015504 206.32 529.51 0.93845 1.8671 2.3285 1807.1 -0.0063060 335.13 0.19650 645.00 0.0015504 206.32 529.51 0.93845 1.8671 2.3285 1807.1 -0.0063060 335.13 0.19650
46.375 30417. undefined 208.19 533.33 0.94431 645.00 0.0015504 208.19 533.33 0.94431 1.8714 2.3319 1808.3 -0.0062976 334.86 0.19673 645.00 0.0015504 208.19 533.33 0.94431 1.8714 2.3319 1808.3 -0.0062976 334.86 0.19673
47.375 30598. undefined 210.06 537.14 0.95017 645.00 0.0015504 210.06 537.14 0.95017 1.8757 2.3353 1809.6 -0.0062892 334.58 0.19697 645.00 0.0015504 210.06 537.14 0.95017 1.8757 2.3353 1809.6 -0.0062892 334.58 0.19697
48.375 30780. undefined 211.94 540.96 0.95602 645.00 0.0015504 211.94 540.96 0.95602 1.8800 2.3388 1810.8 -0.0062807 334.32 0.19720 645.00 0.0015504 211.94 540.96 0.95602 1.8800 2.3388 1810.8 -0.0062807 334.32 0.19720
49.375 30961. undefined 213.82 544.78 0.96186 645.00 0.0015504 213.82 544.78 0.96186 1.8842 2.3422 1812.1 -0.0062723 334.05 0.19744 645.00 0.0015504 213.82 544.78 0.96186 1.8842 2.3422 1812.1 -0.0062723 334.05 0.19744
50.375 31142. undefined 215.71 548.60 0.96770 645.00 0.0015504 215.71 548.60 0.96770 1.8885 2.3457 1813.3 -0.0062639 333.79 0.19768 645.00 0.0015504 215.71 548.60 0.96770 1.8885 2.3457 1813.3 -0.0062639 333.79 0.19768
51.375 31323. undefined 217.60 552.43 0.97354 645.00 0.0015504 217.60 552.43 0.97354 1.8928 2.3492 1814.6 -0.0062555 333.53 0.19791 645.00 0.0015504 217.60 552.43 0.97354 1.8928 2.3492 1814.6 -0.0062555 333.53 0.19791
52.375 31504. undefined 219.49 556.25 0.97937 645.00 0.0015504 219.49 556.25 0.97937 1.8971 2.3526 1815.8 -0.0062471 333.27 0.19815 645.00 0.0015504 219.49 556.25 0.97937 1.8971 2.3526 1815.8 -0.0062471 333.27 0.19815
53.375 31684. undefined 221.39 560.08 0.98519 645.00 0.0015504 221.39 560.08 0.98519 1.9014 2.3561 1817.0 -0.0062386 333.01 0.19839 645.00 0.0015504 221.39 560.08 0.98519 1.9014 2.3561 1817.0 -0.0062386 333.01 0.19839
54.375 31864. undefined 223.30 563.91 0.99101 645.00 0.0015504 223.30 563.91 0.99101 1.9057 2.3596 1818.3 -0.0062302 332.76 0.19863 645.00 0.0015504 223.30 563.91 0.99101 1.9057 2.3596 1818.3 -0.0062302 332.76 0.19863
55.375 32044. undefined 225.20 567.74 0.99683 645.00 0.0015504 225.20 567.74 0.99683 1.9100 2.3631 1819.5 -0.0062217 332.51 0.19886 645.00 0.0015504 225.20 567.74 0.99683 1.9100 2.3631 1819.5 -0.0062217 332.51 0.19886
56.375 32223. undefined 227.12 571.57 1.0026 645.00 0.0015504 227.12 571.57 1.0026 1.9142 2.3666 1820.7 -0.0062133 332.26 0.19910 645.00 0.0015504 227.12 571.57 1.0026 1.9142 2.3666 1820.7 -0.0062133 332.26 0.19910
57.375 32403. undefined 229.03 575.40 1.0084 645.00 0.0015504 229.03 575.40 1.0084 1.9185 2.3701 1821.9 -0.0062049 332.01 0.19934 645.00 0.0015504 229.03 575.40 1.0084 1.9185 2.3701 1821.9 -0.0062049 332.01 0.19934
58.375 32582. undefined 230.95 579.24 1.0142 645.00 0.0015504 230.95 579.24 1.0142 1.9228 2.3736 1823.2 -0.0061964 331.77 0.19958 645.00 0.0015504 230.95 579.24 1.0142 1.9228 2.3736 1823.2 -0.0061964 331.77 0.19958
59.375 32761. undefined 232.88 583.08 1.0200 645.00 0.0015504 232.88 583.08 1.0200 1.9271 2.3772 1824.4 -0.0061880 331.52 0.19982 645.00 0.0015504 232.88 583.08 1.0200 1.9271 2.3772 1824.4 -0.0061880 331.52 0.19982
60.375 32940. undefined 234.81 586.92 1.0258 645.00 0.0015504 234.81 586.92 1.0258 1.9314 2.3807 1825.6 -0.0061795 331.28 0.20006 645.00 0.0015504 234.81 586.92 1.0258 1.9314 2.3807 1825.6 -0.0061795 331.28 0.20006
61.375 33118. undefined 236.74 590.76 1.0316 645.00 0.0015504 236.74 590.76 1.0316 1.9357 2.3842 1826.8 -0.0061711 331.05 0.20030 645.00 0.0015504 236.74 590.76 1.0316 1.9357 2.3842 1826.8 -0.0061711 331.05 0.20030
62.375 33296. undefined 238.68 594.60 1.0374 645.00 0.0015504 238.68 594.60 1.0374 1.9400 2.3878 1828.0 -0.0061627 330.81 0.20054 645.00 0.0015504 238.68 594.60 1.0374 1.9400 2.3878 1828.0 -0.0061627 330.81 0.20054
63.375 33474. undefined 240.62 598.44 1.0432 645.00 0.0015504 240.62 598.44 1.0432 1.9444 2.3913 1829.2 -0.0061542 330.58 0.20078 645.00 0.0015504 240.62 598.44 1.0432 1.9444 2.3913 1829.2 -0.0061542 330.58 0.20078
64.375 33652. undefined 242.57 602.29 1.0490 645.00 0.0015504 242.57 602.29 1.0490 1.9487 2.3949 1830.4 -0.0061458 330.35 0.20102 645.00 0.0015504 242.57 602.29 1.0490 1.9487 2.3949 1830.4 -0.0061458 330.35 0.20102
65.375 33829. undefined 244.52 606.14 1.0547 645.00 0.0015504 244.52 606.14 1.0547 1.9530 2.3985 1831.6 -0.0061374 330.12 0.20126 645.00 0.0015504 244.52 606.14 1.0547 1.9530 2.3985 1831.6 -0.0061374 330.12 0.20126
66.375 34007. undefined 246.47 609.99 1.0605 645.00 0.0015504 246.47 609.99 1.0605 1.9573 2.4020 1832.8 -0.0061290 329.89 0.20150 645.00 0.0015504 246.47 609.99 1.0605 1.9573 2.4020 1832.8 -0.0061290 329.89 0.20150
67.375 34184. undefined 248.43 613.84 1.0663 645.00 0.0015504 248.43 613.84 1.0663 1.9616 2.4056 1834.0 -0.0061205 329.67 0.20174 645.00 0.0015504 248.43 613.84 1.0663 1.9616 2.4056 1834.0 -0.0061205 329.67 0.20174
68.375 34360. undefined 250.40 617.69 1.0720 645.00 0.0015504 250.40 617.69 1.0720 1.9659 2.4092 1835.2 -0.0061121 329.44 0.20199 645.00 0.0015504 250.40 617.69 1.0720 1.9659 2.4092 1835.2 -0.0061121 329.44 0.20199
69.375 34537. undefined 252.36 621.55 1.0778 645.00 0.0015504 252.36 621.55 1.0778 1.9702 2.4128 1836.4 -0.0061037 329.22 0.20223 645.00 0.0015504 252.36 621.55 1.0778 1.9702 2.4128 1836.4 -0.0061037 329.22 0.20223
70.375 34713. undefined 254.34 625.41 1.0835 645.00 0.0015504 254.34 625.41 1.0835 1.9745 2.4164 1837.6 -0.0060953 329.00 0.20247 645.00 0.0015504 254.34 625.41 1.0835 1.9745 2.4164 1837.6 -0.0060953 329.00 0.20247
71.375 34889. undefined 256.31 629.26 1.0893 645.00 0.0015504 256.31 629.26 1.0893 1.9788 2.4200 1838.8 -0.0060869 328.79 0.20271 645.00 0.0015504 256.31 629.26 1.0893 1.9788 2.4200 1838.8 -0.0060869 328.79 0.20271
72.375 35065. undefined 258.29 633.13 1.0950 645.00 0.0015504 258.29 633.13 1.0950 1.9832 2.4236 1839.9 -0.0060785 328.57 0.20296 645.00 0.0015504 258.29 633.13 1.0950 1.9832 2.4236 1839.9 -0.0060785 328.57 0.20296
73.375 35241. undefined 260.28 636.99 1.1008 645.00 0.0015504 260.28 636.99 1.1008 1.9875 2.4272 1841.1 -0.0060701 328.36 0.20320 645.00 0.0015504 260.28 636.99 1.1008 1.9875 2.4272 1841.1 -0.0060701 328.36 0.20320
74.375 35416. undefined 262.27 640.85 1.1065 645.00 0.0015504 262.27 640.85 1.1065 1.9918 2.4308 1842.3 -0.0060618 328.15 0.20344 645.00 0.0015504 262.27 640.85 1.1065 1.9918 2.4308 1842.3 -0.0060618 328.15 0.20344
75.375 35592. undefined 264.26 644.72 1.1122 645.00 0.0015504 264.26 644.72 1.1122 1.9961 2.4344 1843.5 -0.0060534 327.94 0.20369 645.00 0.0015504 264.26 644.72 1.1122 1.9961 2.4344 1843.5 -0.0060534 327.94 0.20369
76.375 35767. undefined 266.26 648.59 1.1179 645.00 0.0015504 266.26 648.59 1.1179 2.0004 2.4380 1844.7 -0.0060450 327.73 0.20393 645.00 0.0015504 266.26 648.59 1.1179 2.0004 2.4380 1844.7 -0.0060450 327.73 0.20393
77.375 35941. undefined 268.26 652.46 1.1237 645.00 0.0015504 268.26 652.46 1.1237 2.0047 2.4416 1845.8 -0.0060367 327.53 0.20418 645.00 0.0015504 268.26 652.46 1.1237 2.0047 2.4416 1845.8 -0.0060367 327.53 0.20418
78.375 36116. undefined 270.27 656.33 1.1294 645.00 0.0015504 270.27 656.33 1.1294 2.0091 2.4453 1847.0 -0.0060283 327.33 0.20442 645.00 0.0015504 270.27 656.33 1.1294 2.0091 2.4453 1847.0 -0.0060283 327.33 0.20442
79.375 36290. undefined 272.28 660.21 1.1351 645.00 0.0015504 272.28 660.21 1.1351 2.0134 2.4489 1848.2 -0.0060200 327.12 0.20467 645.00 0.0015504 272.28 660.21 1.1351 2.0134 2.4489 1848.2 -0.0060200 327.12 0.20467
80.375 36464. undefined 274.30 664.09 1.1408 645.00 0.0015504 274.30 664.09 1.1408 2.0177 2.4525 1849.3 -0.0060117 326.92 0.20491 645.00 0.0015504 274.30 664.09 1.1408 2.0177 2.4525 1849.3 -0.0060117 326.92 0.20491
81.375 36638. undefined 276.32 667.97 1.1465 645.00 0.0015504 276.32 667.97 1.1465 2.0220 2.4562 1850.5 -0.0060034 326.73 0.20516 645.00 0.0015504 276.32 667.97 1.1465 2.0220 2.4562 1850.5 -0.0060034 326.73 0.20516
82.375 36812. undefined 278.34 671.85 1.1522 645.00 0.0015504 278.34 671.85 1.1522 2.0263 2.4598 1851.7 -0.0059951 326.53 0.20540 645.00 0.0015504 278.34 671.85 1.1522 2.0263 2.4598 1851.7 -0.0059951 326.53 0.20540
83.375 36986. undefined 280.37 675.73 1.1579 645.00 0.0015504 280.37 675.73 1.1579 2.0306 2.4634 1852.8 -0.0059868 326.34 0.20565 645.00 0.0015504 280.37 675.73 1.1579 2.0306 2.4634 1852.8 -0.0059868 326.34 0.20565
84.375 37159. undefined 282.40 679.61 1.1636 645.00 0.0015504 282.40 679.61 1.1636 2.0349 2.4671 1854.0 -0.0059785 326.14 0.20590 645.00 0.0015504 282.40 679.61 1.1636 2.0349 2.4671 1854.0 -0.0059785 326.14 0.20590
85.375 37332. undefined 284.44 683.50 1.1693 645.00 0.0015504 284.44 683.50 1.1693 2.0393 2.4707 1855.1 -0.0059702 325.95 0.20614 645.00 0.0015504 284.44 683.50 1.1693 2.0393 2.4707 1855.1 -0.0059702 325.95 0.20614
86.375 37505. undefined 286.48 687.39 1.1750 645.00 0.0015504 286.48 687.39 1.1750 2.0436 2.4744 1856.3 -0.0059620 325.76 0.20639 645.00 0.0015504 286.48 687.39 1.1750 2.0436 2.4744 1856.3 -0.0059620 325.76 0.20639
87.375 37677. undefined 288.53 691.28 1.1807 645.00 0.0015504 288.53 691.28 1.1807 2.0479 2.4781 1857.4 -0.0059537 325.58 0.20664 645.00 0.0015504 288.53 691.28 1.1807 2.0479 2.4781 1857.4 -0.0059537 325.58 0.20664
88.375 37850. undefined 290.58 695.18 1.1863 645.00 0.0015504 290.58 695.18 1.1863 2.0522 2.4817 1858.6 -0.0059455 325.39 0.20689 645.00 0.0015504 290.58 695.18 1.1863 2.0522 2.4817 1858.6 -0.0059455 325.39 0.20689
89.375 38022. undefined 292.63 699.07 1.1920 645.00 0.0015504 292.63 699.07 1.1920 2.0565 2.4854 1859.7 -0.0059373 325.21 0.20713 645.00 0.0015504 292.63 699.07 1.1920 2.0565 2.4854 1859.7 -0.0059373 325.21 0.20713
90.375 38194. undefined 294.69 702.97 1.1977 645.00 0.0015504 294.69 702.97 1.1977 2.0608 2.4890 1860.9 -0.0059290 325.02 0.20738 645.00 0.0015504 294.69 702.97 1.1977 2.0608 2.4890 1860.9 -0.0059290 325.02 0.20738
91.375 38366. undefined 296.75 706.87 1.2034 645.00 0.0015504 296.75 706.87 1.2034 2.0651 2.4927 1862.0 -0.0059209 324.84 0.20763 645.00 0.0015504 296.75 706.87 1.2034 2.0651 2.4927 1862.0 -0.0059209 324.84 0.20763
92.375 38538. undefined 298.82 710.77 1.2090 645.00 0.0015504 298.82 710.77 1.2090 2.0694 2.4964 1863.1 -0.0059127 324.66 0.20788 645.00 0.0015504 298.82 710.77 1.2090 2.0694 2.4964 1863.1 -0.0059127 324.66 0.20788
93.375 38709. undefined 300.89 714.67 1.2147 645.00 0.0015504 300.89 714.67 1.2147 2.0737 2.5001 1864.3 -0.0059045 324.48 0.20813 645.00 0.0015504 300.89 714.67 1.2147 2.0737 2.5001 1864.3 -0.0059045 324.48 0.20813
94.375 38880. undefined 302.97 718.58 1.2203 645.00 0.0015504 302.97 718.58 1.2203 2.0780 2.5037 1865.4 -0.0058963 324.31 0.20838 645.00 0.0015504 302.97 718.58 1.2203 2.0780 2.5037 1865.4 -0.0058963 324.31 0.20838
95.375 39051. undefined 305.05 722.49 1.2260 645.00 0.0015504 305.05 722.49 1.2260 2.0824 2.5074 1866.5 -0.0058882 324.13 0.20863 645.00 0.0015504 305.05 722.49 1.2260 2.0824 2.5074 1866.5 -0.0058882 324.13 0.20863
96.375 39222. undefined 307.13 726.40 1.2316 645.00 0.0015504 307.13 726.40 1.2316 2.0867 2.5111 1867.7 -0.0058801 323.96 0.20888 645.00 0.0015504 307.13 726.40 1.2316 2.0867 2.5111 1867.7 -0.0058801 323.96 0.20888
97.375 39393. undefined 309.22 730.31 1.2373 645.00 0.0015504 309.22 730.31 1.2373 2.0910 2.5148 1868.8 -0.0058720 323.79 0.20913 645.00 0.0015504 309.22 730.31 1.2373 2.0910 2.5148 1868.8 -0.0058720 323.79 0.20913
98.375 39563. undefined 311.31 734.22 1.2429 645.00 0.0015504 311.31 734.22 1.2429 2.0953 2.5185 1869.9 -0.0058639 323.62 0.20938 645.00 0.0015504 311.31 734.22 1.2429 2.0953 2.5185 1869.9 -0.0058639 323.62 0.20938
99.375 39733. undefined 313.41 738.14 1.2486 645.00 0.0015504 313.41 738.14 1.2486 2.0996 2.5221 1871.0 -0.0058558 323.45 0.20963 645.00 0.0015504 313.41 738.14 1.2486 2.0996 2.5221 1871.0 -0.0058558 323.45 0.20963
100.38 39903. undefined 315.51 742.06 1.2542 645.00 0.0015504 315.51 742.06 1.2542 2.1038 2.5258 1872.2 -0.0058477 323.28 0.20988 645.00 0.0015504 315.51 742.06 1.2542 2.1038 2.5258 1872.2 -0.0058477 323.28 0.20988
101.38 40073. undefined 317.62 745.98 1.2598 645.00 0.0015504 317.62 745.98 1.2598 2.1081 2.5295 1873.3 -0.0058397 323.12 0.21013 645.00 0.0015504 317.62 745.98 1.2598 2.1081 2.5295 1873.3 -0.0058397 323.12 0.21013
102.38 40243. undefined 319.73 749.90 1.2654 645.00 0.0015504 319.73 749.90 1.2654 2.1124 2.5332 1874.4 -0.0058317 322.95 0.21039 645.00 0.0015504 319.73 749.90 1.2654 2.1124 2.5332 1874.4 -0.0058317 322.95 0.21039
103.38 40412. undefined 321.84 753.83 1.2711 645.00 0.0015504 321.84 753.83 1.2711 2.1167 2.5369 1875.5 -0.0058236 322.79 0.21064 645.00 0.0015504 321.84 753.83 1.2711 2.1167 2.5369 1875.5 -0.0058236 322.79 0.21064
104.38 40581. undefined 323.96 757.76 1.2767 645.00 0.0015504 323.96 757.76 1.2767 2.1210 2.5406 1876.6 -0.0058156 322.63 0.21089 645.00 0.0015504 323.96 757.76 1.2767 2.1210 2.5406 1876.6 -0.0058156 322.63 0.21089
105.38 40750. undefined 326.09 761.69 1.2823 645.00 0.0015504 326.09 761.69 1.2823 2.1253 2.5443 1877.7 -0.0058077 322.47 0.21114 645.00 0.0015504 326.09 761.69 1.2823 2.1253 2.5443 1877.7 -0.0058077 322.47 0.21114
106.38 40919. undefined 328.21 765.62 1.2879 645.00 0.0015504 328.21 765.62 1.2879 2.1296 2.5480 1878.9 -0.0057997 322.31 0.21140 645.00 0.0015504 328.21 765.62 1.2879 2.1296 2.5480 1878.9 -0.0057997 322.31 0.21140
107.38 41088. undefined 330.35 769.55 1.2935 645.00 0.0015504 330.35 769.55 1.2935 2.1339 2.5517 1880.0 -0.0057918 322.15 0.21165 645.00 0.0015504 330.35 769.55 1.2935 2.1339 2.5517 1880.0 -0.0057918 322.15 0.21165
108.38 41256. undefined 332.48 773.49 1.2991 645.00 0.0015504 332.48 773.49 1.2991 2.1381 2.5554 1881.1 -0.0057838 322.00 0.21190 645.00 0.0015504 332.48 773.49 1.2991 2.1381 2.5554 1881.1 -0.0057838 322.00 0.21190
109.38 41424. undefined 334.62 777.43 1.3047 645.00 0.0015504 334.62 777.43 1.3047 2.1424 2.5591 1882.2 -0.0057759 321.84 0.21216 645.00 0.0015504 334.62 777.43 1.3047 2.1424 2.5591 1882.2 -0.0057759 321.84 0.21216
110.38 41592. undefined 336.77 781.37 1.3103 645.00 0.0015504 336.77 781.37 1.3103 2.1467 2.5628 1883.3 -0.0057680 321.69 0.21241 645.00 0.0015504 336.77 781.37 1.3103 2.1467 2.5628 1883.3 -0.0057680 321.69 0.21241
111.38 41760. undefined 338.92 785.31 1.3159 645.00 0.0015504 338.92 785.31 1.3159 2.1510 2.5665 1884.4 -0.0057601 321.53 0.21267 645.00 0.0015504 338.92 785.31 1.3159 2.1510 2.5665 1884.4 -0.0057601 321.53 0.21267
112.38 41928. undefined 341.07 789.26 1.3215 645.00 0.0015504 341.07 789.26 1.3215 2.1552 2.5702 1885.5 -0.0057523 321.38 0.21292 645.00 0.0015504 341.07 789.26 1.3215 2.1552 2.5702 1885.5 -0.0057523 321.38 0.21292
113.38 42095. undefined 343.23 793.21 1.3271 645.00 0.0015504 343.23 793.21 1.3271 2.1595 2.5739 1886.6 -0.0057444 321.23 0.21318 645.00 0.0015504 343.23 793.21 1.3271 2.1595 2.5739 1886.6 -0.0057444 321.23 0.21318
114.38 42263. undefined 345.39 797.16 1.3327 645.00 0.0015504 345.39 797.16 1.3327 2.1638 2.5775 1887.7 -0.0057366 321.09 0.21343 645.00 0.0015504 345.39 797.16 1.3327 2.1638 2.5775 1887.7 -0.0057366 321.09 0.21343
115.38 42430. undefined 347.55 801.11 1.3383 645.00 0.0015504 347.55 801.11 1.3383 2.1680 2.5812 1888.8 -0.0057288 320.94 0.21369 645.00 0.0015504 347.55 801.11 1.3383 2.1680 2.5812 1888.8 -0.0057288 320.94 0.21369
116.38 42597. undefined 349.72 805.06 1.3439 645.00 0.0015504 349.72 805.06 1.3439 2.1723 2.5849 1889.9 -0.0057210 320.79 0.21394 645.00 0.0015504 349.72 805.06 1.3439 2.1723 2.5849 1889.9 -0.0057210 320.79 0.21394
117.38 42763. undefined 351.90 809.02 1.3494 645.00 0.0015504 351.90 809.02 1.3494 2.1766 2.5886 1891.0 -0.0057132 320.65 0.21420 645.00 0.0015504 351.90 809.02 1.3494 2.1766 2.5886 1891.0 -0.0057132 320.65 0.21420
118.38 42930. undefined 354.08 812.98 1.3550 645.00 0.0015504 354.08 812.98 1.3550 2.1808 2.5923 1892.0 -0.0057055 320.51 0.21446 645.00 0.0015504 354.08 812.98 1.3550 2.1808 2.5923 1892.0 -0.0057055 320.51 0.21446
119.38 43096. undefined 356.26 816.94 1.3606 645.00 0.0015504 356.26 816.94 1.3606 2.1851 2.5960 1893.1 -0.0056977 320.36 0.21471 645.00 0.0015504 356.26 816.94 1.3606 2.1851 2.5960 1893.1 -0.0056977 320.36 0.21471
120.38 43262. undefined 358.45 820.90 1.3661 645.00 0.0015504 358.45 820.90 1.3661 2.1893 2.5997 1894.2 -0.0056900 320.22 0.21497 645.00 0.0015504 358.45 820.90 1.3661 2.1893 2.5997 1894.2 -0.0056900 320.22 0.21497
121.38 43428. undefined 360.64 824.87 1.3717 645.00 0.0015504 360.64 824.87 1.3717 2.1936 2.6034 1895.3 -0.0056823 320.08 0.21523 645.00 0.0015504 360.64 824.87 1.3717 2.1936 2.6034 1895.3 -0.0056823 320.08 0.21523
122.38 43594. undefined 362.83 828.83 1.3773 645.00 0.0015504 362.83 828.83 1.3773 2.1978 2.6071 1896.4 -0.0056747 319.94 0.21548 645.00 0.0015504 362.83 828.83 1.3773 2.1978 2.6071 1896.4 -0.0056747 319.94 0.21548
123.38 43760. undefined 365.03 832.81 1.3828 645.00 0.0015504 365.03 832.81 1.3828 2.2020 2.6108 1897.5 -0.0056670 319.81 0.21574 645.00 0.0015504 365.03 832.81 1.3828 2.2020 2.6108 1897.5 -0.0056670 319.81 0.21574
124.38 43925. undefined 367.24 836.78 1.3884 645.00 0.0015504 367.24 836.78 1.3884 2.2063 2.6145 1898.5 -0.0056594 319.67 0.21600 645.00 0.0015504 367.24 836.78 1.3884 2.2063 2.6145 1898.5 -0.0056594 319.67 0.21600
125.38 44090. undefined 369.45 840.75 1.3939 645.00 0.0015504 369.45 840.75 1.3939 2.2105 2.6182 1899.6 -0.0056517 319.53 0.21626 645.00 0.0015504 369.45 840.75 1.3939 2.2105 2.6182 1899.6 -0.0056517 319.53 0.21626
126.38 44255. undefined 371.66 844.73 1.3995 645.00 0.0015504 371.66 844.73 1.3995 2.2147 2.6219 1900.7 -0.0056441 319.40 0.21652 645.00 0.0015504 371.66 844.73 1.3995 2.2147 2.6219 1900.7 -0.0056441 319.40 0.21652
127.38 44420. undefined 373.88 848.71 1.4050 645.00 0.0015504 373.88 848.71 1.4050 2.2190 2.6256 1901.8 -0.0056366 319.27 0.21678 645.00 0.0015504 373.88 848.71 1.4050 2.2190 2.6256 1901.8 -0.0056366 319.27 0.21678
128.38 44585. undefined 376.10 852.69 1.4105 645.00 0.0015504 376.10 852.69 1.4105 2.2232 2.6293 1902.8 -0.0056290 319.14 0.21704 645.00 0.0015504 376.10 852.69 1.4105 2.2232 2.6293 1902.8 -0.0056290 319.14 0.21704
129.38 44750. undefined 378.32 856.67 1.4161 645.00 0.0015504 378.32 856.67 1.4161 2.2274 2.6330 1903.9 -0.0056215 319.00 0.21730 645.00 0.0015504 378.32 856.67 1.4161 2.2274 2.6330 1903.9 -0.0056215 319.00 0.21730
130.38 44914. undefined 380.55 860.66 1.4216 645.00 0.0015504 380.55 860.66 1.4216 2.2316 2.6367 1905.0 -0.0056139 318.88 0.21756 645.00 0.0015504 380.55 860.66 1.4216 2.2316 2.6367 1905.0 -0.0056139 318.88 0.21756
131.38 45078. undefined 382.79 864.65 1.4271 645.00 0.0015504 382.79 864.65 1.4271 2.2359 2.6404 1906.0 -0.0056064 318.75 0.21782 645.00 0.0015504 382.79 864.65 1.4271 2.2359 2.6404 1906.0 -0.0056064 318.75 0.21782
132.38 45242. undefined 385.02 868.64 1.4327 645.00 0.0015504 385.02 868.64 1.4327 2.2401 2.6441 1907.1 -0.0055990 318.62 0.21808 645.00 0.0015504 385.02 868.64 1.4327 2.2401 2.6441 1907.1 -0.0055990 318.62 0.21808
133.38 45406. undefined 387.27 872.63 1.4382 645.00 0.0015504 387.27 872.63 1.4382 2.2443 2.6478 1908.2 -0.0055915 318.49 0.21834 645.00 0.0015504 387.27 872.63 1.4382 2.2443 2.6478 1908.2 -0.0055915 318.49 0.21834
134.38 45570. undefined 389.51 876.63 1.4437 645.00 0.0015504 389.51 876.63 1.4437 2.2485 2.6515 1909.2 -0.0055841 318.37 0.21860 645.00 0.0015504 389.51 876.63 1.4437 2.2485 2.6515 1909.2 -0.0055841 318.37 0.21860
135.38 45733. undefined 391.76 880.63 1.4492 645.00 0.0015504 391.76 880.63 1.4492 2.2527 2.6552 1910.3 -0.0055766 318.24 0.21886 645.00 0.0015504 391.76 880.63 1.4492 2.2527 2.6552 1910.3 -0.0055766 318.24 0.21886
136.38 45896. undefined 394.02 884.63 1.4547 645.00 0.0015504 394.02 884.63 1.4547 2.2569 2.6589 1911.3 -0.0055692 318.12 0.21912 645.00 0.0015504 394.02 884.63 1.4547 2.2569 2.6589 1911.3 -0.0055692 318.12 0.21912
137.38 46059. undefined 396.28 888.63 1.4602 645.00 0.0015504 396.28 888.63 1.4602 2.2611 2.6625 1912.4 -0.0055619 318.00 0.21939 645.00 0.0015504 396.28 888.63 1.4602 2.2611 2.6625 1912.4 -0.0055619 318.00 0.21939
138.38 46222. undefined 398.54 892.64 1.4657 645.00 0.0015504 398.54 892.64 1.4657 2.2653 2.6662 1913.5 -0.0055545 317.88 0.21965 645.00 0.0015504 398.54 892.64 1.4657 2.2653 2.6662 1913.5 -0.0055545 317.88 0.21965
139.38 46385. undefined 400.81 896.64 1.4713 645.00 0.0015504 400.81 896.64 1.4713 2.2694 2.6699 1914.5 -0.0055472 317.75 0.21991 645.00 0.0015504 400.81 896.64 1.4713 2.2694 2.6699 1914.5 -0.0055472 317.75 0.21991
140.38 46548. undefined 403.08 900.65 1.4768 645.00 0.0015504 403.08 900.65 1.4768 2.2736 2.6736 1915.6 -0.0055399 317.64 0.22017 645.00 0.0015504 403.08 900.65 1.4768 2.2736 2.6736 1915.6 -0.0055399 317.64 0.22017
141.38 46710. undefined 405.35 904.67 1.4822 645.00 0.0015504 405.35 904.67 1.4822 2.2778 2.6773 1916.6 -0.0055326 317.52 0.22044 645.00 0.0015504 405.35 904.67 1.4822 2.2778 2.6773 1916.6 -0.0055326 317.52 0.22044
142.38 46872. undefined 407.63 908.68 1.4877 645.00 0.0015504 407.63 908.68 1.4877 2.2820 2.6810 1917.7 -0.0055253 317.40 0.22070 645.00 0.0015504 407.63 908.68 1.4877 2.2820 2.6810 1917.7 -0.0055253 317.40 0.22070
143.38 47035. undefined 409.92 912.70 1.4932 645.00 0.0015504 409.92 912.70 1.4932 2.2861 2.6846 1918.7 -0.0055180 317.28 0.22096 645.00 0.0015504 409.92 912.70 1.4932 2.2861 2.6846 1918.7 -0.0055180 317.28 0.22096
144.38 47197. undefined 412.21 916.72 1.4987 645.00 0.0015504 412.21 916.72 1.4987 2.2903 2.6883 1919.8 -0.0055108 317.17 0.22123 645.00 0.0015504 412.21 916.72 1.4987 2.2903 2.6883 1919.8 -0.0055108 317.17 0.22123
145.38 47358. undefined 414.50 920.74 1.5042 645.00 0.0015504 414.50 920.74 1.5042 2.2945 2.6920 1920.8 -0.0055036 317.05 0.22149 645.00 0.0015504 414.50 920.74 1.5042 2.2945 2.6920 1920.8 -0.0055036 317.05 0.22149
146.38 47520. undefined 416.80 924.76 1.5097 645.00 0.0015504 416.80 924.76 1.5097 2.2986 2.6957 1921.8 -0.0054964 316.94 0.22176 645.00 0.0015504 416.80 924.76 1.5097 2.2986 2.6957 1921.8 -0.0054964 316.94 0.22176
147.38 47681. undefined 419.10 928.79 1.5152 645.00 0.0015504 419.10 928.79 1.5152 2.3028 2.6993 1922.9 -0.0054892 316.83 0.22202 645.00 0.0015504 419.10 928.79 1.5152 2.3028 2.6993 1922.9 -0.0054892 316.83 0.22202
148.38 47843. undefined 421.40 932.82 1.5206 645.00 0.0015504 421.40 932.82 1.5206 2.3069 2.7030 1923.9 -0.0054820 316.71 0.22229 645.00 0.0015504 421.40 932.82 1.5206 2.3069 2.7030 1923.9 -0.0054820 316.71 0.22229
149.38 48004. undefined 423.71 936.85 1.5261 645.00 0.0015504 423.71 936.85 1.5261 2.3111 2.7067 1925.0 -0.0054749 316.60 0.22255 645.00 0.0015504 423.71 936.85 1.5261 2.3111 2.7067 1925.0 -0.0054749 316.60 0.22255
150.38 48165. undefined 426.02 940.88 1.5316 645.00 0.0015504 426.02 940.88 1.5316 2.3152 2.7103 1926.0 -0.0054678 316.49 0.22282 645.00 0.0015504 426.02 940.88 1.5316 2.3152 2.7103 1926.0 -0.0054678 316.49 0.22282
151.38 48325. undefined 428.34 944.92 1.5370 645.00 0.0015504 428.34 944.92 1.5370 2.3194 2.7140 1927.0 -0.0054607 316.38 0.22309 645.00 0.0015504 428.34 944.92 1.5370 2.3194 2.7140 1927.0 -0.0054607 316.38 0.22309
152.38 48486. undefined 430.66 948.95 1.5425 645.00 0.0015504 430.66 948.95 1.5425 2.3235 2.7176 1928.1 -0.0054536 316.28 0.22335 645.00 0.0015504 430.66 948.95 1.5425 2.3235 2.7176 1928.1 -0.0054536 316.28 0.22335
153.38 48646. undefined 432.99 952.99 1.5480 645.00 0.0015504 432.99 952.99 1.5480 2.3276 2.7213 1929.1 -0.0054466 316.17 0.22362 645.00 0.0015504 432.99 952.99 1.5480 2.3276 2.7213 1929.1 -0.0054466 316.17 0.22362
154.38 48807. undefined 435.32 957.04 1.5534 645.00 0.0015504 435.32 957.04 1.5534 2.3317 2.7250 1930.1 -0.0054396 316.06 0.22389 645.00 0.0015504 435.32 957.04 1.5534 2.3317 2.7250 1930.1 -0.0054396 316.06 0.22389
155.38 48967. undefined 437.65 961.08 1.5589 645.00 0.0015504 437.65 961.08 1.5589 2.3359 2.7286 1931.2 -0.0054326 315.96 0.22415 645.00 0.0015504 437.65 961.08 1.5589 2.3359 2.7286 1931.2 -0.0054326 315.96 0.22415
156.38 49127. undefined 439.99 965.13 1.5643 645.00 0.0015504 439.99 965.13 1.5643 2.3400 2.7323 1932.2 -0.0054256 315.85 0.22442 645.00 0.0015504 439.99 965.13 1.5643 2.3400 2.7323 1932.2 -0.0054256 315.85 0.22442
157.38 49286. undefined 442.33 969.18 1.5698 645.00 0.0015504 442.33 969.18 1.5698 2.3441 2.7359 1933.2 -0.0054186 315.75 0.22469 645.00 0.0015504 442.33 969.18 1.5698 2.3441 2.7359 1933.2 -0.0054186 315.75 0.22469
158.38 49446. undefined 444.68 973.23 1.5752 645.00 0.0015504 444.68 973.23 1.5752 2.3482 2.7396 1934.2 -0.0054117 315.64 0.22496 645.00 0.0015504 444.68 973.23 1.5752 2.3482 2.7396 1934.2 -0.0054117 315.64 0.22496
159.38 49606. undefined 447.03 977.29 1.5806 645.00 0.0015504 447.03 977.29 1.5806 2.3523 2.7432 1935.3 -0.0054047 315.54 0.22523 645.00 0.0015504 447.03 977.29 1.5806 2.3523 2.7432 1935.3 -0.0054047 315.54 0.22523
160.38 49765. undefined 449.38 981.35 1.5861 645.00 0.0015504 449.38 981.35 1.5861 2.3564 2.7469 1936.3 -0.0053978 315.44 0.22549 645.00 0.0015504 449.38 981.35 1.5861 2.3564 2.7469 1936.3 -0.0053978 315.44 0.22549
161.38 49924. undefined 451.74 985.40 1.5915 645.00 0.0015504 451.74 985.40 1.5915 2.3605 2.7505 1937.3 -0.0053910 315.34 0.22576 645.00 0.0015504 451.74 985.40 1.5915 2.3605 2.7505 1937.3 -0.0053910 315.34 0.22576
162.38 50083. undefined 454.10 989.47 1.5969 645.00 0.0015504 454.10 989.47 1.5969 2.3646 2.7541 1938.3 -0.0053841 315.24 0.22603 645.00 0.0015504 454.10 989.47 1.5969 2.3646 2.7541 1938.3 -0.0053841 315.24 0.22603
163.38 50242. undefined 456.47 993.53 1.6024 645.00 0.0015504 456.47 993.53 1.6024 2.3687 2.7578 1939.4 -0.0053773 315.14 0.22630 645.00 0.0015504 456.47 993.53 1.6024 2.3687 2.7578 1939.4 -0.0053773 315.14 0.22630
164.38 50400. undefined 458.84 997.60 1.6078 645.00 0.0015504 458.84 997.60 1.6078 2.3728 2.7614 1940.4 -0.0053704 315.04 0.22657 645.00 0.0015504 458.84 997.60 1.6078 2.3728 2.7614 1940.4 -0.0053704 315.04 0.22657
165.38 50559. undefined 461.21 1001.7 1.6132 645.00 0.0015504 461.21 1001.7 1.6132 2.3768 2.7650 1941.4 -0.0053636 314.94 0.22684 645.00 0.0015504 461.21 1001.7 1.6132 2.3768 2.7650 1941.4 -0.0053636 314.94 0.22684
166.38 50717. undefined 463.59 1005.7 1.6186 645.00 0.0015504 463.59 1005.7 1.6186 2.3809 2.7687 1942.4 -0.0053569 314.85 0.22711 645.00 0.0015504 463.59 1005.7 1.6186 2.3809 2.7687 1942.4 -0.0053569 314.85 0.22711
167.38 50875. undefined 465.98 1009.8 1.6241 645.00 0.0015504 465.98 1009.8 1.6241 2.3850 2.7723 1943.4 -0.0053501 314.75 0.22738 645.00 0.0015504 465.98 1009.8 1.6241 2.3850 2.7723 1943.4 -0.0053501 314.75 0.22738
168.38 51033. undefined 468.36 1013.9 1.6295 645.00 0.0015504 468.36 1013.9 1.6295 2.3890 2.7759 1944.4 -0.0053434 314.66 0.22765 645.00 0.0015504 468.36 1013.9 1.6295 2.3890 2.7759 1944.4 -0.0053434 314.66 0.22765
169.38 51191. undefined 470.75 1018.0 1.6349 645.00 0.0015504 470.75 1018.0 1.6349 2.3931 2.7795 1945.4 -0.0053367 314.56 0.22793 645.00 0.0015504 470.75 1018.0 1.6349 2.3931 2.7795 1945.4 -0.0053367 314.56 0.22793
170.38 51349. undefined 473.15 1022.0 1.6403 645.00 0.0015504 473.15 1022.0 1.6403 2.3972 2.7831 1946.4 -0.0053300 314.47 0.22820 645.00 0.0015504 473.15 1022.0 1.6403 2.3972 2.7831 1946.4 -0.0053300 314.47 0.22820
171.38 51507. undefined 475.55 1026.1 1.6457 645.00 0.0015504 475.55 1026.1 1.6457 2.4012 2.7868 1947.4 -0.0053233 314.37 0.22847 645.00 0.0015504 475.55 1026.1 1.6457 2.4012 2.7868 1947.4 -0.0053233 314.37 0.22847
172.38 51664. undefined 477.95 1030.2 1.6511 645.00 0.0015504 477.95 1030.2 1.6511 2.4052 2.7904 1948.5 -0.0053166 314.28 0.22874 645.00 0.0015504 477.95 1030.2 1.6511 2.4052 2.7904 1948.5 -0.0053166 314.28 0.22874
173.38 51821. undefined 480.36 1034.3 1.6565 645.00 0.0015504 480.36 1034.3 1.6565 2.4093 2.7940 1949.5 -0.0053100 314.19 0.22902 645.00 0.0015504 480.36 1034.3 1.6565 2.4093 2.7940 1949.5 -0.0053100 314.19 0.22902
174.38 51978. undefined 482.77 1038.4 1.6619 645.00 0.0015504 482.77 1038.4 1.6619 2.4133 2.7976 1950.5 -0.0053034 314.10 0.22929 645.00 0.0015504 482.77 1038.4 1.6619 2.4133 2.7976 1950.5 -0.0053034 314.10 0.22929
175.38 52135. undefined 485.19 1042.5 1.6673 645.00 0.0015504 485.19 1042.5 1.6673 2.4173 2.8012 1951.5 -0.0052968 314.01 0.22956 645.00 0.0015504 485.19 1042.5 1.6673 2.4173 2.8012 1951.5 -0.0052968 314.01 0.22956
176.38 52292. undefined 487.61 1046.6 1.6727 645.00 0.0015504 487.61 1046.6 1.6727 2.4214 2.8048 1952.5 -0.0052902 313.92 0.22983 645.00 0.0015504 487.61 1046.6 1.6727 2.4214 2.8048 1952.5 -0.0052902 313.92 0.22983
177.38 52449. undefined 490.03 1050.7 1.6780 645.00 0.0015504 490.03 1050.7 1.6780 2.4254 2.8084 1953.5 -0.0052837 313.83 0.23011 645.00 0.0015504 490.03 1050.7 1.6780 2.4254 2.8084 1953.5 -0.0052837 313.83 0.23011
178.38 52605. undefined 492.46 1054.8 1.6834 645.00 0.0015504 492.46 1054.8 1.6834 2.4294 2.8120 1954.5 -0.0052772 313.74 0.23038 645.00 0.0015504 492.46 1054.8 1.6834 2.4294 2.8120 1954.5 -0.0052772 313.74 0.23038
179.38 52762. undefined 494.89 1058.9 1.6888 645.00 0.0015504 494.89 1058.9 1.6888 2.4334 2.8156 1955.5 -0.0052706 313.66 0.23066 645.00 0.0015504 494.89 1058.9 1.6888 2.4334 2.8156 1955.5 -0.0052706 313.66 0.23066
180.38 52918. undefined 497.32 1063.0 1.6942 645.00 0.0015504 497.32 1063.0 1.6942 2.4374 2.8191 1956.4 -0.0052642 313.57 0.23093 645.00 0.0015504 497.32 1063.0 1.6942 2.4374 2.8191 1956.4 -0.0052642 313.57 0.23093
181.38 53074. undefined 499.76 1067.1 1.6996 645.00 0.0015504 499.76 1067.1 1.6996 2.4414 2.8227 1957.4 -0.0052577 313.48 0.23121 645.00 0.0015504 499.76 1067.1 1.6996 2.4414 2.8227 1957.4 -0.0052577 313.48 0.23121
182.38 53230. undefined 502.21 1071.2 1.7049 645.00 0.0015504 502.21 1071.2 1.7049 2.4454 2.8263 1958.4 -0.0052512 313.40 0.23148 645.00 0.0015504 502.21 1071.2 1.7049 2.4454 2.8263 1958.4 -0.0052512 313.40 0.23148
183.38 53386. undefined 504.65 1075.3 1.7103 645.00 0.0015504 504.65 1075.3 1.7103 2.4494 2.8299 1959.4 -0.0052448 313.31 0.23176 645.00 0.0015504 504.65 1075.3 1.7103 2.4494 2.8299 1959.4 -0.0052448 313.31 0.23176
184.38 53541. undefined 507.10 1079.4 1.7157 645.00 0.0015504 507.10 1079.4 1.7157 2.4534 2.8335 1960.4 -0.0052384 313.23 0.23203 645.00 0.0015504 507.10 1079.4 1.7157 2.4534 2.8335 1960.4 -0.0052384 313.23 0.23203
185.38 53697. undefined 509.56 1083.6 1.7210 645.00 0.0015504 509.56 1083.6 1.7210 2.4574 2.8370 1961.4 -0.0052320 313.15 0.23231 645.00 0.0015504 509.56 1083.6 1.7210 2.4574 2.8370 1961.4 -0.0052320 313.15 0.23231
186.38 53852. undefined 512.02 1087.7 1.7264 645.00 0.0015504 512.02 1087.7 1.7264 2.4614 2.8406 1962.4 -0.0052257 313.06 0.23259 645.00 0.0015504 512.02 1087.7 1.7264 2.4614 2.8406 1962.4 -0.0052257 313.06 0.23259
187.38 54007. undefined 514.48 1091.8 1.7317 645.00 0.0015504 514.48 1091.8 1.7317 2.4653 2.8442 1963.4 -0.0052193 312.98 0.23286 645.00 0.0015504 514.48 1091.8 1.7317 2.4653 2.8442 1963.4 -0.0052193 312.98 0.23286
188.38 54162. undefined 516.95 1095.9 1.7371 645.00 0.0015504 516.95 1095.9 1.7371 2.4693 2.8477 1964.4 -0.0052130 312.90 0.23314 645.00 0.0015504 516.95 1095.9 1.7371 2.4693 2.8477 1964.4 -0.0052130 312.90 0.23314
189.38 54317. undefined 519.42 1100.0 1.7424 645.00 0.0015504 519.42 1100.0 1.7424 2.4733 2.8513 1965.3 -0.0052067 312.82 0.23342 645.00 0.0015504 519.42 1100.0 1.7424 2.4733 2.8513 1965.3 -0.0052067 312.82 0.23342
190.38 54472. undefined 521.90 1104.2 1.7478 645.00 0.0015504 521.90 1104.2 1.7478 2.4772 2.8548 1966.3 -0.0052004 312.74 0.23369 645.00 0.0015504 521.90 1104.2 1.7478 2.4772 2.8548 1966.3 -0.0052004 312.74 0.23369
191.38 54626. undefined 524.38 1108.3 1.7531 645.00 0.0015504 524.38 1108.3 1.7531 2.4812 2.8584 1967.3 -0.0051941 312.66 0.23397 645.00 0.0015504 524.38 1108.3 1.7531 2.4812 2.8584 1967.3 -0.0051941 312.66 0.23397
192.38 54781. undefined 526.86 1112.4 1.7585 645.00 0.0015504 526.86 1112.4 1.7585 2.4851 2.8619 1968.3 -0.0051879 312.58 0.23425 645.00 0.0015504 526.86 1112.4 1.7585 2.4851 2.8619 1968.3 -0.0051879 312.58 0.23425
193.38 54935. undefined 529.35 1116.6 1.7638 645.00 0.0015504 529.35 1116.6 1.7638 2.4890 2.8655 1969.3 -0.0051817 312.50 0.23453 645.00 0.0015504 529.35 1116.6 1.7638 2.4890 2.8655 1969.3 -0.0051817 312.50 0.23453
194.38 55089. undefined 531.84 1120.7 1.7691 645.00 0.0015504 531.84 1120.7 1.7691 2.4930 2.8690 1970.2 -0.0051755 312.42 0.23481 645.00 0.0015504 531.84 1120.7 1.7691 2.4930 2.8690 1970.2 -0.0051755 312.42 0.23481
195.38 55243. undefined 534.33 1124.9 1.7745 645.00 0.0015504 534.33 1124.9 1.7745 2.4969 2.8725 1971.2 -0.0051693 312.35 0.23509 645.00 0.0015504 534.33 1124.9 1.7745 2.4969 2.8725 1971.2 -0.0051693 312.35 0.23509
196.38 55397. undefined 536.83 1129.0 1.7798 645.00 0.0015504 536.83 1129.0 1.7798 2.5008 2.8761 1972.2 -0.0051631 312.27 0.23537 645.00 0.0015504 536.83 1129.0 1.7798 2.5008 2.8761 1972.2 -0.0051631 312.27 0.23537
197.38 55551. undefined 539.33 1133.1 1.7851 645.00 0.0015504 539.33 1133.1 1.7851 2.5048 2.8796 1973.2 -0.0051570 312.19 0.23565 645.00 0.0015504 539.33 1133.1 1.7851 2.5048 2.8796 1973.2 -0.0051570 312.19 0.23565
198.38 55705. undefined 541.84 1137.3 1.7904 645.00 0.0015504 541.84 1137.3 1.7904 2.5087 2.8831 1974.1 -0.0051509 312.12 0.23593 645.00 0.0015504 541.84 1137.3 1.7904 2.5087 2.8831 1974.1 -0.0051509 312.12 0.23593
199.38 55858. undefined 544.35 1141.4 1.7958 645.00 0.0015504 544.35 1141.4 1.7958 2.5126 2.8867 1975.1 -0.0051448 312.04 0.23621 645.00 0.0015504 544.35 1141.4 1.7958 2.5126 2.8867 1975.1 -0.0051448 312.04 0.23621
200.38 56011. undefined 546.87 1145.6 1.8011 645.00 0.0015504 546.87 1145.6 1.8011 2.5165 2.8902 1976.1 -0.0051387 311.97 0.23649 645.00 0.0015504 546.87 1145.6 1.8011 2.5165 2.8902 1976.1 -0.0051387 311.97 0.23649
201.38 56164. undefined 549.38 1149.8 1.8064 645.00 0.0015504 549.38 1149.8 1.8064 2.5204 2.8937 1977.0 -0.0051326 311.90 0.23677 645.00 0.0015504 549.38 1149.8 1.8064 2.5204 2.8937 1977.0 -0.0051326 311.90 0.23677
202.38 56317. undefined 551.91 1153.9 1.8117 645.00 0.0015504 551.91 1153.9 1.8117 2.5243 2.8972 1978.0 -0.0051266 311.82 0.23705 645.00 0.0015504 551.91 1153.9 1.8117 2.5243 2.8972 1978.0 -0.0051266 311.82 0.23705
203.38 56470. undefined 554.43 1158.1 1.8170 645.00 0.0015504 554.43 1158.1 1.8170 2.5282 2.9007 1979.0 -0.0051205 311.75 0.23733 645.00 0.0015504 554.43 1158.1 1.8170 2.5282 2.9007 1979.0 -0.0051205 311.75 0.23733
204.38 56623. undefined 556.96 1162.2 1.8223 645.00 0.0015504 556.96 1162.2 1.8223 2.5321 2.9042 1979.9 -0.0051145 311.68 0.23761 645.00 0.0015504 556.96 1162.2 1.8223 2.5321 2.9042 1979.9 -0.0051145 311.68 0.23761
205.38 56776. undefined 559.50 1166.4 1.8276 645.00 0.0015504 559.50 1166.4 1.8276 2.5359 2.9077 1980.9 -0.0051086 311.61 0.23789 645.00 0.0015504 559.50 1166.4 1.8276 2.5359 2.9077 1980.9 -0.0051086 311.61 0.23789
206.38 56928. undefined 562.03 1170.6 1.8329 645.00 0.0015504 562.03 1170.6 1.8329 2.5398 2.9112 1981.9 -0.0051026 311.54 0.23817 645.00 0.0015504 562.03 1170.6 1.8329 2.5398 2.9112 1981.9 -0.0051026 311.54 0.23817
207.38 57081. undefined 564.58 1174.7 1.8382 645.00 0.0015504 564.58 1174.7 1.8382 2.5437 2.9147 1982.8 -0.0050966 311.47 0.23846 645.00 0.0015504 564.58 1174.7 1.8382 2.5437 2.9147 1982.8 -0.0050966 311.47 0.23846
208.38 57233. undefined 567.12 1178.9 1.8435 645.00 0.0015504 567.12 1178.9 1.8435 2.5476 2.9182 1983.8 -0.0050907 311.40 0.23874 645.00 0.0015504 567.12 1178.9 1.8435 2.5476 2.9182 1983.8 -0.0050907 311.40 0.23874
209.38 57385. undefined 569.67 1183.1 1.8488 645.00 0.0015504 569.67 1183.1 1.8488 2.5514 2.9217 1984.7 -0.0050848 311.33 0.23902 645.00 0.0015504 569.67 1183.1 1.8488 2.5514 2.9217 1984.7 -0.0050848 311.33 0.23902
210.38 57537. undefined 572.23 1187.3 1.8541 645.00 0.0015504 572.23 1187.3 1.8541 2.5553 2.9252 1985.7 -0.0050789 311.26 0.23931 645.00 0.0015504 572.23 1187.3 1.8541 2.5553 2.9252 1985.7 -0.0050789 311.26 0.23931
211.38 57688. undefined 574.78 1191.4 1.8593 645.00 0.0015504 574.78 1191.4 1.8593 2.5591 2.9286 1986.7 -0.0050730 311.19 0.23959 645.00 0.0015504 574.78 1191.4 1.8593 2.5591 2.9286 1986.7 -0.0050730 311.19 0.23959
212.38 57840. undefined 577.34 1195.6 1.8646 645.00 0.0015504 577.34 1195.6 1.8646 2.5630 2.9321 1987.6 -0.0050672 311.12 0.23987 645.00 0.0015504 577.34 1195.6 1.8646 2.5630 2.9321 1987.6 -0.0050672 311.12 0.23987
213.38 57992. undefined 579.91 1199.8 1.8699 645.00 0.0015504 579.91 1199.8 1.8699 2.5668 2.9356 1988.6 -0.0050614 311.05 0.24016 645.00 0.0015504 579.91 1199.8 1.8699 2.5668 2.9356 1988.6 -0.0050614 311.05 0.24016
214.38 58143. undefined 582.48 1204.0 1.8752 645.00 0.0015504 582.48 1204.0 1.8752 2.5706 2.9391 1989.5 -0.0050555 310.99 0.24044 645.00 0.0015504 582.48 1204.0 1.8752 2.5706 2.9391 1989.5 -0.0050555 310.99 0.24044
215.38 58294. undefined 585.05 1208.2 1.8804 645.00 0.0015504 585.05 1208.2 1.8804 2.5745 2.9425 1990.5 -0.0050498 310.92 0.24073 645.00 0.0015504 585.05 1208.2 1.8804 2.5745 2.9425 1990.5 -0.0050498 310.92 0.24073
216.38 58445. undefined 587.63 1212.4 1.8857 645.00 0.0015504 587.63 1212.4 1.8857 2.5783 2.9460 1991.4 -0.0050440 310.86 0.24101 645.00 0.0015504 587.63 1212.4 1.8857 2.5783 2.9460 1991.4 -0.0050440 310.86 0.24101
217.38 58596. undefined 590.21 1216.6 1.8910 645.00 0.0015504 590.21 1216.6 1.8910 2.5821 2.9494 1992.4 -0.0050382 310.79 0.24130 645.00 0.0015504 590.21 1216.6 1.8910 2.5821 2.9494 1992.4 -0.0050382 310.79 0.24130
218.38 58747. undefined 592.79 1220.8 1.8962 645.00 0.0015504 592.79 1220.8 1.8962 2.5859 2.9529 1993.3 -0.0050325 310.73 0.24158 645.00 0.0015504 592.79 1220.8 1.8962 2.5859 2.9529 1993.3 -0.0050325 310.73 0.24158
219.38 58898. undefined 595.38 1225.0 1.9015 645.00 0.0015504 595.38 1225.0 1.9015 2.5897 2.9563 1994.3 -0.0050268 310.66 0.24187 645.00 0.0015504 595.38 1225.0 1.9015 2.5897 2.9563 1994.3 -0.0050268 310.66 0.24187
220.38 59049. undefined 597.97 1229.2 1.9068 645.00 0.0015504 597.97 1229.2 1.9068 2.5935 2.9598 1995.2 -0.0050211 310.60 0.24216 645.00 0.0015504 597.97 1229.2 1.9068 2.5935 2.9598 1995.2 -0.0050211 310.60 0.24216
221.38 59199. undefined 600.56 1233.4 1.9120 645.00 0.0015504 600.56 1233.4 1.9120 2.5973 2.9632 1996.2 -0.0050154 310.54 0.24244 645.00 0.0015504 600.56 1233.4 1.9120 2.5973 2.9632 1996.2 -0.0050154 310.54 0.24244
222.38 59349. undefined 603.16 1237.6 1.9173 645.00 0.0015504 603.16 1237.6 1.9173 2.6011 2.9667 1997.1 -0.0050097 310.47 0.24273 645.00 0.0015504 603.16 1237.6 1.9173 2.6011 2.9667 1997.1 -0.0050097 310.47 0.24273
223.38 59499. undefined 605.77 1241.8 1.9225 645.00 0.0015504 605.77 1241.8 1.9225 2.6049 2.9701 1998.0 -0.0050041 310.41 0.24302 645.00 0.0015504 605.77 1241.8 1.9225 2.6049 2.9701 1998.0 -0.0050041 310.41 0.24302
224.38 59650. undefined 608.37 1246.0 1.9278 645.00 0.0015504 608.37 1246.0 1.9278 2.6087 2.9735 1999.0 -0.0049984 310.35 0.24331 645.00 0.0015504 608.37 1246.0 1.9278 2.6087 2.9735 1999.0 -0.0049984 310.35 0.24331
225.38 59799. undefined 610.98 1250.2 1.9330 645.00 0.0015504 610.98 1250.2 1.9330 2.6125 2.9769 1999.9 -0.0049928 310.29 0.24359 645.00 0.0015504 610.98 1250.2 1.9330 2.6125 2.9769 1999.9 -0.0049928 310.29 0.24359
226.38 59949. undefined 613.60 1254.4 1.9382 645.00 0.0015504 613.60 1254.4 1.9382 2.6162 2.9804 2000.9 -0.0049872 310.23 0.24388 645.00 0.0015504 613.60 1254.4 1.9382 2.6162 2.9804 2000.9 -0.0049872 310.23 0.24388
227.38 60099. undefined 616.22 1258.6 1.9435 645.00 0.0015504 616.22 1258.6 1.9435 2.6200 2.9838 2001.8 -0.0049817 310.17 0.24417 645.00 0.0015504 616.22 1258.6 1.9435 2.6200 2.9838 2001.8 -0.0049817 310.17 0.24417
228.38 60248. undefined 618.84 1262.9 1.9487 645.00 0.0015504 618.84 1262.9 1.9487 2.6238 2.9872 2002.7 -0.0049761 310.11 0.24446 645.00 0.0015504 618.84 1262.9 1.9487 2.6238 2.9872 2002.7 -0.0049761 310.11 0.24446
229.38 60398. undefined 621.46 1267.1 1.9539 645.00 0.0015504 621.46 1267.1 1.9539 2.6275 2.9906 2003.7 -0.0049706 310.05 0.24475 645.00 0.0015504 621.46 1267.1 1.9539 2.6275 2.9906 2003.7 -0.0049706 310.05 0.24475
230.38 60547. undefined 624.09 1271.3 1.9592 645.00 0.0015504 624.09 1271.3 1.9592 2.6313 2.9940 2004.6 -0.0049651 309.99 0.24504 645.00 0.0015504 624.09 1271.3 1.9592 2.6313 2.9940 2004.6 -0.0049651 309.99 0.24504
231.38 60696. undefined 626.73 1275.5 1.9644 645.00 0.0015504 626.73 1275.5 1.9644 2.6350 2.9974 2005.5 -0.0049596 309.93 0.24533 645.00 0.0015504 626.73 1275.5 1.9644 2.6350 2.9974 2005.5 -0.0049596 309.93 0.24533
232.38 60845. undefined 629.36 1279.8 1.9696 645.00 0.0015504 629.36 1279.8 1.9696 2.6387 3.0008 2006.5 -0.0049541 309.87 0.24562 645.00 0.0015504 629.36 1279.8 1.9696 2.6387 3.0008 2006.5 -0.0049541 309.87 0.24562
233.38 60994. undefined 632.00 1284.0 1.9748 645.00 0.0015504 632.00 1284.0 1.9748 2.6425 3.0042 2007.4 -0.0049486 309.81 0.24591 645.00 0.0015504 632.00 1284.0 1.9748 2.6425 3.0042 2007.4 -0.0049486 309.81 0.24591
234.38 61143. undefined 634.65 1288.2 1.9800 645.00 0.0015504 634.65 1288.2 1.9800 2.6462 3.0076 2008.3 -0.0049432 309.76 0.24620 645.00 0.0015504 634.65 1288.2 1.9800 2.6462 3.0076 2008.3 -0.0049432 309.76 0.24620
235.38 61292. undefined 637.30 1292.5 1.9853 645.00 0.0015504 637.30 1292.5 1.9853 2.6499 3.0110 2009.3 -0.0049377 309.70 0.24649 645.00 0.0015504 637.30 1292.5 1.9853 2.6499 3.0110 2009.3 -0.0049377 309.70 0.24649
236.38 61440. undefined 639.95 1296.7 1.9905 645.00 0.0015504 639.95 1296.7 1.9905 2.6536 3.0143 2010.2 -0.0049323 309.64 0.24678 645.00 0.0015504 639.95 1296.7 1.9905 2.6536 3.0143 2010.2 -0.0049323 309.64 0.24678
237.38 61589. undefined 642.60 1301.0 1.9957 645.00 0.0015504 642.60 1301.0 1.9957 2.6574 3.0177 2011.1 -0.0049269 309.59 0.24707 645.00 0.0015504 642.60 1301.0 1.9957 2.6574 3.0177 2011.1 -0.0049269 309.59 0.24707
238.38 61737. undefined 645.26 1305.2 2.0009 645.00 0.0015504 645.26 1305.2 2.0009 2.6611 3.0211 2012.0 -0.0049216 309.53 0.24736 645.00 0.0015504 645.26 1305.2 2.0009 2.6611 3.0211 2012.0 -0.0049216 309.53 0.24736
239.38 61885. undefined 647.93 1309.4 2.0061 645.00 0.0015504 647.93 1309.4 2.0061 2.6648 3.0245 2013.0 -0.0049162 309.48 0.24765 645.00 0.0015504 647.93 1309.4 2.0061 2.6648 3.0245 2013.0 -0.0049162 309.48 0.24765
240.38 62033. undefined 650.59 1313.7 2.0113 645.00 0.0015504 650.59 1313.7 2.0113 2.6685 3.0278 2013.9 -0.0049109 309.42 0.24794 645.00 0.0015504 650.59 1313.7 2.0113 2.6685 3.0278 2013.9 -0.0049109 309.42 0.24794
241.38 62181. undefined 653.26 1317.9 2.0165 645.00 0.0015504 653.26 1317.9 2.0165 2.6722 3.0312 2014.8 -0.0049055 309.37 0.24824 645.00 0.0015504 653.26 1317.9 2.0165 2.6722 3.0312 2014.8 -0.0049055 309.37 0.24824
242.38 62329. undefined 655.94 1322.2 2.0217 645.00 0.0015504 655.94 1322.2 2.0217 2.6758 3.0345 2015.7 -0.0049002 309.31 0.24853 645.00 0.0015504 655.94 1322.2 2.0217 2.6758 3.0345 2015.7 -0.0049002 309.31 0.24853
243.38 62476. undefined 658.61 1326.5 2.0269 645.00 0.0015504 658.61 1326.5 2.0269 2.6795 3.0379 2016.6 -0.0048950 309.26 0.24882 645.00 0.0015504 658.61 1326.5 2.0269 2.6795 3.0379 2016.6 -0.0048950 309.26 0.24882
244.38 62624. undefined 661.30 1330.7 2.0320 645.00 0.0015504 661.30 1330.7 2.0320 2.6832 3.0412 2017.6 -0.0048897 309.21 0.24912 645.00 0.0015504 661.30 1330.7 2.0320 2.6832 3.0412 2017.6 -0.0048897 309.21 0.24912
245.38 62771. undefined 663.98 1335.0 2.0372 645.00 0.0015504 663.98 1335.0 2.0372 2.6869 3.0446 2018.5 -0.0048844 309.16 0.24941 645.00 0.0015504 663.98 1335.0 2.0372 2.6869 3.0446 2018.5 -0.0048844 309.16 0.24941
246.38 62918. undefined 666.67 1339.2 2.0424 645.00 0.0015504 666.67 1339.2 2.0424 2.6905 3.0479 2019.4 -0.0048792 309.10 0.24970 645.00 0.0015504 666.67 1339.2 2.0424 2.6905 3.0479 2019.4 -0.0048792 309.10 0.24970
247.38 63066. undefined 669.36 1343.5 2.0476 645.00 0.0015504 669.36 1343.5 2.0476 2.6942 3.0513 2020.3 -0.0048740 309.05 0.25000 645.00 0.0015504 669.36 1343.5 2.0476 2.6942 3.0513 2020.3 -0.0048740 309.05 0.25000
248.38 63213. undefined 672.06 1347.8 2.0528 645.00 0.0015504 672.06 1347.8 2.0528 2.6979 3.0546 2021.2 -0.0048688 309.00 0.25029 645.00 0.0015504 672.06 1347.8 2.0528 2.6979 3.0546 2021.2 -0.0048688 309.00 0.25029
249.38 63360. undefined 674.76 1352.0 2.0579 645.00 0.0015504 674.76 1352.0 2.0579 2.7015 3.0579 2022.1 -0.0048636 308.95 0.25059 645.00 0.0015504 674.76 1352.0 2.0579 2.7015 3.0579 2022.1 -0.0048636 308.95 0.25059
250.38 63506. undefined 677.46 1356.3 2.0631 645.00 0.0015504 677.46 1356.3 2.0631 2.7051 3.0612 2023.0 -0.0048584 308.90 0.25088 645.00 0.0015504 677.46 1356.3 2.0631 2.7051 3.0612 2023.0 -0.0048584 308.90 0.25088
251.38 63653. undefined 680.17 1360.6 2.0683 645.00 0.0015504 680.17 1360.6 2.0683 2.7088 3.0646 2024.0 -0.0048533 308.85 0.25118 645.00 0.0015504 680.17 1360.6 2.0683 2.7088 3.0646 2024.0 -0.0048533 308.85 0.25118
252.38 63799. undefined 682.88 1364.9 2.0734 645.00 0.0015504 682.88 1364.9 2.0734 2.7124 3.0679 2024.9 -0.0048481 308.80 0.25147 645.00 0.0015504 682.88 1364.9 2.0734 2.7124 3.0679 2024.9 -0.0048481 308.80 0.25147
253.38 63946. undefined 685.59 1369.1 2.0786 645.00 0.0015504 685.59 1369.1 2.0786 2.7161 3.0712 2025.8 -0.0048430 308.75 0.25177 645.00 0.0015504 685.59 1369.1 2.0786 2.7161 3.0712 2025.8 -0.0048430 308.75 0.25177
254.38 64092. undefined 688.31 1373.4 2.0837 645.00 0.0015504 688.31 1373.4 2.0837 2.7197 3.0745 2026.7 -0.0048379 308.70 0.25207 645.00 0.0015504 688.31 1373.4 2.0837 2.7197 3.0745 2026.7 -0.0048379 308.70 0.25207
255.38 64238. undefined 691.03 1377.7 2.0889 645.00 0.0015504 691.03 1377.7 2.0889 2.7233 3.0778 2027.6 -0.0048328 308.65 0.25236 645.00 0.0015504 691.03 1377.7 2.0889 2.7233 3.0778 2027.6 -0.0048328 308.65 0.25236
256.38 64384. undefined 693.76 1382.0 2.0940 645.00 0.0015504 693.76 1382.0 2.0940 2.7269 3.0811 2028.5 -0.0048277 308.60 0.25266 645.00 0.0015504 693.76 1382.0 2.0940 2.7269 3.0811 2028.5 -0.0048277 308.60 0.25266
257.38 64530. undefined 696.49 1386.3 2.0992 645.00 0.0015504 696.49 1386.3 2.0992 2.7305 3.0844 2029.4 -0.0048227 308.55 0.25296 645.00 0.0015504 696.49 1386.3 2.0992 2.7305 3.0844 2029.4 -0.0048227 308.55 0.25296
258.38 64676. undefined 699.22 1390.6 2.1043 645.00 0.0015504 699.22 1390.6 2.1043 2.7341 3.0877 2030.3 -0.0048176 308.51 0.25325 645.00 0.0015504 699.22 1390.6 2.1043 2.7341 3.0877 2030.3 -0.0048176 308.51 0.25325
259.38 64822. undefined 701.95 1394.9 2.1095 645.00 0.0015504 701.95 1394.9 2.1095 2.7377 3.0910 2031.2 -0.0048126 308.46 0.25355 645.00 0.0015504 701.95 1394.9 2.1095 2.7377 3.0910 2031.2 -0.0048126 308.46 0.25355
260.38 64968. undefined 704.69 1399.2 2.1146 645.00 0.0015504 704.69 1399.2 2.1146 2.7413 3.0942 2032.1 -0.0048076 308.41 0.25385 645.00 0.0015504 704.69 1399.2 2.1146 2.7413 3.0942 2032.1 -0.0048076 308.41 0.25385
261.38 65113. undefined 707.44 1403.5 2.1198 645.00 0.0015504 707.44 1403.5 2.1198 2.7449 3.0975 2033.0 -0.0048026 308.37 0.25415 645.00 0.0015504 707.44 1403.5 2.1198 2.7449 3.0975 2033.0 -0.0048026 308.37 0.25415
262.38 65258. undefined 710.18 1407.8 2.1249 645.00 0.0015504 710.18 1407.8 2.1249 2.7485 3.1008 2033.9 -0.0047977 308.32 0.25445 645.00 0.0015504 710.18 1407.8 2.1249 2.7485 3.1008 2033.9 -0.0047977 308.32 0.25445
263.38 65404. undefined 712.93 1412.1 2.1300 645.00 0.0015504 712.93 1412.1 2.1300 2.7521 3.1041 2034.8 -0.0047927 308.27 0.25475 645.00 0.0015504 712.93 1412.1 2.1300 2.7521 3.1041 2034.8 -0.0047927 308.27 0.25475
264.38 65549. undefined 715.69 1416.4 2.1351 645.00 0.0015504 715.69 1416.4 2.1351 2.7556 3.1073 2035.7 -0.0047878 308.23 0.25504 645.00 0.0015504 715.69 1416.4 2.1351 2.7556 3.1073 2035.7 -0.0047878 308.23 0.25504
265.38 65694. undefined 718.45 1420.7 2.1403 645.00 0.0015504 718.45 1420.7 2.1403 2.7592 3.1106 2036.6 -0.0047828 308.18 0.25534 645.00 0.0015504 718.45 1420.7 2.1403 2.7592 3.1106 2036.6 -0.0047828 308.18 0.25534
266.38 65839. undefined 721.21 1425.0 2.1454 645.00 0.0015504 721.21 1425.0 2.1454 2.7628 3.1139 2037.5 -0.0047779 308.14 0.25564 645.00 0.0015504 721.21 1425.0 2.1454 2.7628 3.1139 2037.5 -0.0047779 308.14 0.25564
267.38 65983. undefined 723.97 1429.3 2.1505 645.00 0.0015504 723.97 1429.3 2.1505 2.7663 3.1171 2038.4 -0.0047730 308.09 0.25594 645.00 0.0015504 723.97 1429.3 2.1505 2.7663 3.1171 2038.4 -0.0047730 308.09 0.25594
268.38 66128. undefined 726.74 1433.6 2.1556 645.00 0.0015504 726.74 1433.6 2.1556 2.7699 3.1204 2039.3 -0.0047681 308.05 0.25624 645.00 0.0015504 726.74 1433.6 2.1556 2.7699 3.1204 2039.3 -0.0047681 308.05 0.25624
269.38 66273. undefined 729.51 1437.9 2.1607 645.00 0.0015504 729.51 1437.9 2.1607 2.7734 3.1236 2040.2 -0.0047633 308.00 0.25654 645.00 0.0015504 729.51 1437.9 2.1607 2.7734 3.1236 2040.2 -0.0047633 308.00 0.25654
270.38 66417. undefined 732.29 1442.3 2.1659 645.00 0.0015504 732.29 1442.3 2.1659 2.7769 3.1268 2041.1 -0.0047584 307.96 0.25685 645.00 0.0015504 732.29 1442.3 2.1659 2.7769 3.1268 2041.1 -0.0047584 307.96 0.25685
271.38 66561. undefined 735.06 1446.6 2.1710 645.00 0.0015504 735.06 1446.6 2.1710 2.7805 3.1301 2042.0 -0.0047536 307.92 0.25715 645.00 0.0015504 735.06 1446.6 2.1710 2.7805 3.1301 2042.0 -0.0047536 307.92 0.25715
272.38 66706. undefined 737.85 1450.9 2.1761 645.00 0.0015504 737.85 1450.9 2.1761 2.7840 3.1333 2042.9 -0.0047488 307.87 0.25745 645.00 0.0015504 737.85 1450.9 2.1761 2.7840 3.1333 2042.9 -0.0047488 307.87 0.25745
273.38 66850. undefined 740.63 1455.2 2.1812 645.00 0.0015504 740.63 1455.2 2.1812 2.7875 3.1365 2043.7 -0.0047440 307.83 0.25775 645.00 0.0015504 740.63 1455.2 2.1812 2.7875 3.1365 2043.7 -0.0047440 307.83 0.25775
274.38 66994. undefined 743.42 1459.6 2.1863 645.00 0.0015504 743.42 1459.6 2.1863 2.7911 3.1398 2044.6 -0.0047392 307.79 0.25805 645.00 0.0015504 743.42 1459.6 2.1863 2.7911 3.1398 2044.6 -0.0047392 307.79 0.25805
275.38 67137. undefined 746.21 1463.9 2.1914 645.00 0.0015504 746.21 1463.9 2.1914 2.7946 3.1430 2045.5 -0.0047344 307.75 0.25835 645.00 0.0015504 746.21 1463.9 2.1914 2.7946 3.1430 2045.5 -0.0047344 307.75 0.25835
276.38 67281. undefined 749.01 1468.2 2.1965 645.00 0.0015504 749.01 1468.2 2.1965 2.7981 3.1462 2046.4 -0.0047297 307.71 0.25866 645.00 0.0015504 749.01 1468.2 2.1965 2.7981 3.1462 2046.4 -0.0047297 307.71 0.25866
277.38 67425. undefined 751.81 1472.6 2.2015 645.00 0.0015504 751.81 1472.6 2.2015 2.8016 3.1494 2047.3 -0.0047249 307.67 0.25896 645.00 0.0015504 751.81 1472.6 2.2015 2.8016 3.1494 2047.3 -0.0047249 307.67 0.25896
278.38 67568. undefined 754.61 1476.9 2.2066 645.00 0.0015504 754.61 1476.9 2.2066 2.8051 3.1526 2048.2 -0.0047202 307.62 0.25926 645.00 0.0015504 754.61 1476.9 2.2066 2.8051 3.1526 2048.2 -0.0047202 307.62 0.25926
279.38 67712. undefined 757.42 1481.2 2.2117 645.00 0.0015504 757.42 1481.2 2.2117 2.8086 3.1558 2049.1 -0.0047155 307.58 0.25957 645.00 0.0015504 757.42 1481.2 2.2117 2.8086 3.1558 2049.1 -0.0047155 307.58 0.25957
280.38 67855. undefined 760.23 1485.6 2.2168 645.00 0.0015504 760.23 1485.6 2.2168 2.8121 3.1590 2049.9 -0.0047108 307.54 0.25987 645.00 0.0015504 760.23 1485.6 2.2168 2.8121 3.1590 2049.9 -0.0047108 307.54 0.25987
281.38 67998. undefined 763.05 1489.9 2.2219 645.00 0.0015504 763.05 1489.9 2.2219 2.8156 3.1622 2050.8 -0.0047061 307.50 0.26017 645.00 0.0015504 763.05 1489.9 2.2219 2.8156 3.1622 2050.8 -0.0047061 307.50 0.26017
282.38 68141. undefined 765.86 1494.3 2.2270 645.00 0.0015504 765.86 1494.3 2.2270 2.8190 3.1654 2051.7 -0.0047015 307.46 0.26034 645.00 0.0015504 765.86 1494.3 2.2270 2.8190 3.1654 2051.7 -0.0047015 307.46 0.26034
283.38 68284. undefined 768.68 1498.6 2.2320 645.00 0.0015504 768.68 1498.6 2.2320 2.8225 3.1686 2052.6 -0.0046968 307.42 0.26064 645.00 0.0015504 768.68 1498.6 2.2320 2.8225 3.1686 2052.6 -0.0046968 307.42 0.26064
284.38 68427. undefined 771.51 1503.0 2.2371 645.00 0.0015504 771.51 1503.0 2.2371 2.8260 3.1718 2053.5 -0.0046922 307.38 0.26095 645.00 0.0015504 771.51 1503.0 2.2371 2.8260 3.1718 2053.5 -0.0046922 307.38 0.26095
285.38 68570. undefined 774.34 1507.3 2.2422 645.00 0.0015504 774.34 1507.3 2.2422 2.8295 3.1750 2054.3 -0.0046875 307.35 0.26125 645.00 0.0015504 774.34 1507.3 2.2422 2.8295 3.1750 2054.3 -0.0046875 307.35 0.26125
286.38 68713. undefined 777.17 1511.7 2.2472 645.00 0.0015504 777.17 1511.7 2.2472 2.8329 3.1781 2055.2 -0.0046829 307.31 0.26156 645.00 0.0015504 777.17 1511.7 2.2472 2.8329 3.1781 2055.2 -0.0046829 307.31 0.26156
287.38 68855. undefined 780.00 1516.0 2.2523 645.00 0.0015504 780.00 1516.0 2.2523 2.8364 3.1813 2056.1 -0.0046783 307.27 0.26186 645.00 0.0015504 780.00 1516.0 2.2523 2.8364 3.1813 2056.1 -0.0046783 307.27 0.26186
288.38 68998. undefined 782.84 1520.4 2.2574 645.00 0.0015504 782.84 1520.4 2.2574 2.8398 3.1845 2057.0 -0.0046738 307.23 0.26217 645.00 0.0015504 782.84 1520.4 2.2574 2.8398 3.1845 2057.0 -0.0046738 307.23 0.26217
289.38 69140. undefined 785.68 1524.8 2.2624 645.00 0.0015504 785.68 1524.8 2.2624 2.8433 3.1876 2057.8 -0.0046692 307.19 0.26247 645.00 0.0015504 785.68 1524.8 2.2624 2.8433 3.1876 2057.8 -0.0046692 307.19 0.26247
290.38 69282. undefined 788.53 1529.1 2.2675 645.00 0.0015504 788.53 1529.1 2.2675 2.8467 3.1908 2058.7 -0.0046646 307.16 0.26278 645.00 0.0015504 788.53 1529.1 2.2675 2.8467 3.1908 2058.7 -0.0046646 307.16 0.26278
291.38 69424. undefined 791.37 1533.5 2.2725 645.00 0.0015504 791.37 1533.5 2.2725 2.8501 3.1939 2059.6 -0.0046601 307.12 0.26309 645.00 0.0015504 791.37 1533.5 2.2725 2.8501 3.1939 2059.6 -0.0046601 307.12 0.26309
292.38 69566. undefined 794.23 1537.9 2.2776 645.00 0.0015504 794.23 1537.9 2.2776 2.8536 3.1971 2060.4 -0.0046556 307.08 0.26339 645.00 0.0015504 794.23 1537.9 2.2776 2.8536 3.1971 2060.4 -0.0046556 307.08 0.26339
293.38 69708. undefined 797.08 1542.2 2.2826 645.00 0.0015504 797.08 1542.2 2.2826 2.8570 3.2002 2061.3 -0.0046511 307.04 0.26370 645.00 0.0015504 797.08 1542.2 2.2826 2.8570 3.2002 2061.3 -0.0046511 307.04 0.26370
294.38 69850. undefined 799.94 1546.6 2.2876 645.00 0.0015504 799.94 1546.6 2.2876 2.8604 3.2034 2062.2 -0.0046466 307.01 0.26401 645.00 0.0015504 799.94 1546.6 2.2876 2.8604 3.2034 2062.2 -0.0046466 307.01 0.26401
295.38 69991. undefined 802.80 1551.0 2.2927 645.00 0.0015504 802.80 1551.0 2.2927 2.8638 3.2065 2063.0 -0.0046421 306.97 0.26432 645.00 0.0015504 802.80 1551.0 2.2927 2.8638 3.2065 2063.0 -0.0046421 306.97 0.26432
296.38 70133. undefined 805.67 1555.4 2.2977 645.00 0.0015504 805.67 1555.4 2.2977 2.8672 3.2097 2063.9 -0.0046376 306.94 0.26462 645.00 0.0015504 805.67 1555.4 2.2977 2.8672 3.2097 2063.9 -0.0046376 306.94 0.26462
297.38 70274. undefined 808.54 1559.7 2.3028 645.00 0.0015504 808.54 1559.7 2.3028 2.8706 3.2128 2064.8 -0.0046332 306.90 0.26493 645.00 0.0015504 808.54 1559.7 2.3028 2.8706 3.2128 2064.8 -0.0046332 306.90 0.26493
298.38 70416. undefined 811.41 1564.1 2.3078 645.00 0.0015504 811.41 1564.1 2.3078 2.8740 3.2159 2065.6 -0.0046287 306.87 0.26524 645.00 0.0015504 811.41 1564.1 2.3078 2.8740 3.2159 2065.6 -0.0046287 306.87 0.26524
299.38 70557. undefined 814.28 1568.5 2.3128 645.00 0.0015504 814.28 1568.5 2.3128 2.8774 3.2190 2066.5 -0.0046243 306.83 0.26555 645.00 0.0015504 814.28 1568.5 2.3128 2.8774 3.2190 2066.5 -0.0046243 306.83 0.26555
300.38 70698. undefined 817.16 1572.9 2.3178 645.00 0.0015504 817.16 1572.9 2.3178 2.8808 3.2222 2067.4 -0.0046199 306.80 0.26586 645.00 0.0015504 817.16 1572.9 2.3178 2.8808 3.2222 2067.4 -0.0046199 306.80 0.26586