Temperature (C) Pressure (psia) Quality (l+v) Internal Energy (l+v, kJ/kg) Enthalpy (l+v, kJ/kg) Entropy (l+v, J/g*K) Density (l, kg/m3) Volume (l, m3/kg) Internal Energy (l, kJ/kg) Enthalpy (l, kJ/kg) Entropy (l, J/g*K) Cv (l, J/g*K) Cp (l, J/g*K) Sound Spd. (l, m/s) Joule-Thomson (l, F/psia) Viscosity (l, uPa*s) Therm. Cond. (l, W/m*K) Density (v, kg/m3) Volume (v, m3/kg) Internal Energy (v, kJ/kg) Enthalpy (v, kJ/kg) Entropy (v, J/g*K) Cv (v, J/g*K) Cp (v, J/g*K) Sound Spd. (v, m/s) Joule-Thomson (v, F/psia) Viscosity (v, uPa*s) Therm. Cond. (v, W/m*K)
-187.62 2.4953e-08 1.4958e-10 -196.64 -196.64 -1.3959 733.13 0.0013640 -196.64 -196.64 -1.3959 1.3553 1.9158 2136.4 -0.0077592 10960. 0.20792 1.0669e-08 9.3732e+07 350.13 366.26 5.1858 0.69067 0.87923 143.28 6.1051 2.3259 0.0017061
-186.62 3.7339e-08 2.2121e-10 -194.73 -194.73 -1.3736 732.08 0.0013660 -194.73 -194.73 -1.3736 1.3539 1.9166 2129.6 -0.0077546 10073. 0.20765 1.5780e-08 6.3371e+07 350.82 367.14 5.1200 0.69462 0.88317 144.03 5.9178 2.3534 0.0017533
-185.62 5.5322e-08 3.2396e-10 -192.81 -192.81 -1.3516 731.04 0.0013679 -192.81 -192.81 -1.3516 1.3525 1.9174 2122.9 -0.0077498 9276.1 0.20737 2.3112e-08 4.3267e+07 351.52 368.02 5.0561 0.69857 0.88713 144.77 5.7383 2.3808 0.0018007
-184.62 8.1182e-08 4.6996e-10 -190.89 -190.89 -1.3298 730.00 0.0013699 -190.89 -190.89 -1.3298 1.3513 1.9182 2116.1 -0.0077448 8557.8 0.20708 3.3533e-08 2.9821e+07 352.22 368.91 4.9939 0.70253 0.89108 145.51 5.5662 2.4083 0.0018485
-183.62 1.1803e-07 6.7557e-10 -188.97 -188.97 -1.3083 728.96 0.0013718 -188.97 -188.97 -1.3083 1.3501 1.9191 2109.3 -0.0077395 7909.8 0.20678 4.8211e-08 2.0742e+07 352.92 369.81 4.9333 0.70648 0.89504 146.24 5.4011 2.4357 0.0018965
-182.62 1.7009e-07 9.6260e-10 -187.05 -187.05 -1.2869 727.92 0.0013738 -187.05 -187.05 -1.2869 1.3490 1.9201 2102.5 -0.0077340 7324.3 0.20647 6.8704e-08 1.4555e+07 353.63 370.70 4.8744 0.71043 0.89899 146.97 5.2426 2.4632 0.0019448
-181.62 2.4299e-07 1.3600e-09 -185.13 -185.13 -1.2658 726.88 0.0013757 -185.13 -185.13 -1.2658 1.3480 1.9210 2095.7 -0.0077283 6794.5 0.20616 9.7079e-08 1.0301e+07 354.35 371.60 4.8170 0.71438 0.90294 147.69 5.0904 2.4906 0.0019934
-180.62 3.4425e-07 1.9056e-09 -183.21 -183.21 -1.2450 725.85 0.0013777 -183.21 -183.21 -1.2450 1.3470 1.9220 2088.9 -0.0077225 6314.4 0.20584 1.3605e-07 7.3504e+06 355.06 372.51 4.7612 0.71833 0.90688 148.41 4.9442 2.5181 0.0020423
-179.62 4.8378e-07 2.6490e-09 -181.29 -181.29 -1.2243 724.81 0.0013797 -181.29 -181.29 -1.2243 1.3461 1.9231 2082.0 -0.0077164 5878.8 0.20551 1.8915e-07 5.2868e+06 355.78 373.42 4.7068 0.72227 0.91082 149.13 4.8038 2.5456 0.0020915
-178.62 6.7459e-07 3.6542e-09 -179.37 -179.37 -1.2038 723.78 0.0013816 -179.37 -179.37 -1.2038 1.3453 1.9241 2075.2 -0.0077102 5482.9 0.20517 2.6096e-07 3.8320e+06 356.51 374.33 4.6538 0.72620 0.91475 149.84 4.6688 2.5731 0.0021410
-177.62 9.3358e-07 5.0035e-09 -177.44 -177.44 -1.1836 722.75 0.0013836 -177.44 -177.44 -1.1836 1.3445 1.9252 2068.4 -0.0077039 5122.6 0.20483 3.5737e-07 2.7982e+06 357.23 375.25 4.6022 0.73012 0.91867 150.54 4.5390 2.6005 0.0021907
-176.62 1.2826e-06 6.8018e-09 -175.52 -175.52 -1.1635 721.72 0.0013856 -175.52 -175.52 -1.1635 1.3437 1.9263 2061.5 -0.0076973 4794.1 0.20447 4.8588e-07 2.0581e+06 357.97 376.17 4.5519 0.73403 0.92258 151.25 4.4142 2.6280 0.0022408
-175.62 1.7496e-06 9.1823e-09 -173.59 -173.59 -1.1437 720.69 0.0013876 -173.59 -173.59 -1.1437 1.3430 1.9274 2054.7 -0.0076907 4494.3 0.20411 6.5601e-07 1.5244e+06 358.70 377.09 4.5029 0.73792 0.92648 151.95 4.2941 2.6555 0.0022912
-174.62 2.3705e-06 1.2312e-08 -171.66 -171.66 -1.1240 719.66 0.0013895 -171.66 -171.66 -1.1240 1.3423 1.9286 2047.9 -0.0076838 4220.2 0.20375 8.7976e-07 1.1367e+06 359.44 378.02 4.4551 0.74181 0.93036 152.64 4.1784 2.6830 0.0023418
-173.62 3.1903e-06 1.6402e-08 -169.73 -169.73 -1.1045 718.64 0.0013915 -169.73 -169.73 -1.1045 1.3417 1.9298 2041.0 -0.0076769 3969.3 0.20338 1.1721e-06 8.5314e+05 360.19 378.95 4.4085 0.74568 0.93423 153.33 4.0671 2.7105 0.0023928
-172.62 4.2661e-06 2.1712e-08 -167.80 -167.80 -1.0852 717.61 0.0013935 -167.80 -167.80 -1.0852 1.3411 1.9310 2034.2 -0.0076698 3739.3 0.20300 1.5518e-06 6.4441e+05 360.93 379.89 4.3631 0.74953 0.93809 154.02 3.9599 2.7379 0.0024440
-171.62 5.6692e-06 2.8564e-08 -165.87 -165.87 -1.0661 716.58 0.0013955 -165.87 -165.87 -1.0661 1.3405 1.9322 2027.3 -0.0076625 3528.0 0.20261 2.0419e-06 4.8974e+05 361.69 380.83 4.3188 0.75337 0.94193 154.71 3.8566 2.7654 0.0024955
-170.62 7.4884e-06 3.7357e-08 -163.94 -163.94 -1.0472 715.56 0.0013975 -163.94 -163.94 -1.0472 1.3400 1.9334 2020.5 -0.0076552 3333.8 0.20222 2.6708e-06 3.7442e+05 362.44 381.77 4.2755 0.75720 0.94575 155.39 3.7570 2.7929 0.0025473
-169.62 9.8334e-06 4.8574e-08 -162.00 -162.00 -1.0284 714.54 0.0013995 -162.00 -162.00 -1.0284 1.3395 1.9347 2013.6 -0.0076477 3154.9 0.20182 3.4733e-06 2.8791e+05 363.20 382.72 4.2334 0.76100 0.94956 156.07 3.6609 2.8204 0.0025994
-168.62 1.2839e-05 6.2807e-08 -160.07 -160.07 -1.0098 713.52 0.0014015 -160.07 -160.07 -1.0098 1.3390 1.9359 2006.8 -0.0076401 2989.9 0.20141 4.4917e-06 2.2263e+05 363.96 383.67 4.1922 0.76479 0.95335 156.74 3.5683 2.8479 0.0026518
-167.62 1.6672e-05 8.0771e-08 -158.13 -158.13 -0.99134 712.49 0.0014035 -158.13 -158.13 -0.99134 1.3386 1.9372 2000.0 -0.0076323 2837.5 0.20100 5.7771e-06 1.7310e+05 364.73 384.63 4.1521 0.76856 0.95712 157.41 3.4790 2.8754 0.0027045
-166.62 2.1533e-05 1.0333e-07 -156.19 -156.19 -0.97306 711.47 0.0014055 -156.19 -156.19 -0.97306 1.3382 1.9385 1993.1 -0.0076245 2696.5 0.20058 7.3914e-06 1.3529e+05 365.50 385.59 4.1129 0.77232 0.96087 158.08 3.3927 2.9029 0.0027575
-165.62 2.7666e-05 1.3150e-07 -154.25 -154.25 -0.95494 710.45 0.0014075 -154.25 -154.25 -0.95494 1.3378 1.9398 1986.3 -0.0076165 2566.0 0.20016 9.4084e-06 1.0629e+05 366.27 386.55 4.0746 0.77605 0.96460 158.75 3.3095 2.9304 0.0028108
-164.62 3.5367e-05 1.6653e-07 -152.31 -152.31 -0.93698 709.44 0.0014096 -152.31 -152.31 -0.93698 1.3375 1.9411 1979.4 -0.0076084 2444.9 0.19973 1.1916e-05 83918. 367.05 387.52 4.0372 0.77976 0.96832 159.41 3.2291 2.9579 0.0028643
-163.62 4.4989e-05 2.0988e-07 -150.37 -150.37 -0.91917 708.42 0.0014116 -150.37 -150.37 -0.91917 1.3371 1.9424 1972.6 -0.0076002 2332.3 0.19930 1.5020e-05 66577. 367.83 388.49 4.0008 0.78346 0.97201 160.07 3.1514 2.9854 0.0029182
-162.62 5.6956e-05 2.6326e-07 -148.43 -148.43 -0.90151 707.40 0.0014136 -148.43 -148.43 -0.90151 1.3368 1.9437 1965.8 -0.0075919 2227.7 0.19886 1.8844e-05 53068. 368.62 389.46 3.9651 0.78713 0.97569 160.72 3.0764 3.0129 0.0029723
-161.62 7.1773e-05 3.2873e-07 -146.48 -146.48 -0.88400 706.38 0.0014157 -146.48 -146.48 -0.88400 1.3365 1.9451 1959.0 -0.0075834 2130.2 0.19841 2.3533e-05 42494. 369.41 390.44 3.9304 0.79079 0.97935 161.38 3.0038 3.0404 0.0030268
-160.62 9.0036e-05 4.0865e-07 -144.54 -144.54 -0.86663 705.37 0.0014177 -144.54 -144.54 -0.86663 1.3363 1.9465 1952.1 -0.0075748 2039.2 0.19796 2.9258e-05 34178. 370.20 391.42 3.8964 0.79443 0.98298 162.03 2.9337 3.0679 0.0030815
-159.62 0.00011245 5.0582e-07 -142.59 -142.59 -0.84940 704.35 0.0014197 -142.59 -142.59 -0.84940 1.3360 1.9478 1945.3 -0.0075661 1954.2 0.19751 3.6221e-05 27609. 371.00 392.40 3.8632 0.79805 0.98660 162.68 2.8658 3.0955 0.0031365
-158.62 0.00013985 6.2347e-07 -140.64 -140.64 -0.83231 703.34 0.0014218 -140.64 -140.64 -0.83231 1.3358 1.9492 1938.5 -0.0075573 1874.8 0.19705 4.4652e-05 22395. 371.80 393.39 3.8307 0.80164 0.99020 163.32 2.8002 3.1230 0.0031918
-157.62 0.00017320 7.6535e-07 -138.69 -138.69 -0.81536 702.32 0.0014238 -138.69 -138.69 -0.81536 1.3356 1.9506 1931.7 -0.0075484 1800.3 0.19658 5.4822e-05 18241. 372.60 394.38 3.7990 0.80522 0.99378 163.96 2.7367 3.1505 0.0032474
-156.62 0.00021364 9.3580e-07 -136.74 -136.74 -0.79854 701.31 0.0014259 -136.74 -136.74 -0.79854 1.3354 1.9520 1924.9 -0.0075393 1730.5 0.19611 6.7040e-05 14916. 373.41 395.38 3.7680 0.80878 0.99734 164.60 2.6752 3.1780 0.0033033
-155.62 0.00026248 1.1398e-06 -134.79 -134.79 -0.78185 700.30 0.0014280 -134.79 -134.79 -0.78185 1.3352 1.9534 1918.1 -0.0075302 1664.9 0.19564 8.1666e-05 12245. 374.22 396.38 3.7377 0.81232 1.0009 165.24 2.6157 3.2055 0.0033595
-154.62 0.00032125 1.3830e-06 -132.83 -132.83 -0.76529 699.29 0.0014300 -132.83 -132.83 -0.76530 1.3350 1.9548 1911.3 -0.0075209 1603.3 0.19516 9.9109e-05 10090. 375.03 397.38 3.7081 0.81585 1.0044 165.87 2.5580 3.2330 0.0034160
-153.62 0.00039171 1.6720e-06 -130.88 -130.88 -0.74886 698.27 0.0014321 -130.88 -130.88 -0.74887 1.3349 1.9563 1904.5 -0.0075114 1545.3 0.19468 0.00011984 8344.6 375.85 398.39 3.6792 0.81935 1.0079 166.50 2.5022 3.2606 0.0034727
-152.62 0.00047590 2.0142e-06 -128.92 -128.92 -0.73255 697.26 0.0014342 -128.92 -128.92 -0.73256 1.3348 1.9577 1897.8 -0.0075019 1490.6 0.19419 0.00014439 6925.9 376.67 399.40 3.6509 0.82284 1.0114 167.13 2.4481 3.2881 0.0035298
-151.62 0.00057613 2.4181e-06 -126.96 -126.96 -0.71637 696.25 0.0014363 -126.96 -126.96 -0.71638 1.3346 1.9592 1891.0 -0.0074922 1438.9 0.19370 0.00017336 5768.4 377.49 400.41 3.6232 0.82631 1.0149 167.76 2.3957 3.3156 0.0035872
-150.62 0.00069507 2.8930e-06 -125.00 -125.00 -0.70031 695.24 0.0014384 -125.00 -125.00 -0.70032 1.3345 1.9606 1884.2 -0.0074824 1390.2 0.19320 0.00020744 4820.7 378.32 401.42 3.5962 0.82976 1.0183 168.38 2.3448 3.3431 0.0036448
-149.62 0.00083574 3.4498e-06 -123.04 -123.04 -0.68436 694.23 0.0014404 -123.04 -123.04 -0.68438 1.3345 1.9621 1877.4 -0.0074724 1344.0 0.19270 0.00024740 4042.0 379.15 402.44 3.5697 0.83319 1.0218 169.00 2.2956 3.3706 0.0037027
-148.62 0.0010016 4.1006e-06 -121.08 -121.08 -0.66853 693.22 0.0014425 -121.08 -121.08 -0.66855 1.3344 1.9636 1870.7 -0.0074623 1300.3 0.19220 0.00029412 3400.0 379.99 403.47 3.5438 0.83661 1.0252 169.62 2.2478 3.3982 0.0037610
-147.62 0.0011965 4.8589e-06 -119.11 -119.11 -0.65282 692.21 0.0014447 -119.11 -119.11 -0.65284 1.3343 1.9651 1863.9 -0.0074521 1258.9 0.19169 0.00034856 2869.0 380.83 404.49 3.5185 0.84001 1.0286 170.24 2.2014 3.4257 0.0038195
-146.62 0.0014249 5.7398e-06 -117.15 -117.15 -0.63721 691.20 0.0014468 -117.15 -117.15 -0.63724 1.3343 1.9666 1857.2 -0.0074417 1219.6 0.19117 0.00041181 2428.3 381.67 405.52 3.4938 0.84340 1.0320 170.85 2.1565 3.4532 0.0038783
-145.62 0.0016917 6.7602e-06 -115.18 -115.18 -0.62172 690.19 0.0014489 -115.18 -115.18 -0.62175 1.3343 1.9682 1850.4 -0.0074312 1182.3 0.19066 0.00048510 2061.4 382.51 406.56 3.4695 0.84677 1.0353 171.46 2.1128 3.4807 0.0039374
-144.62 0.0020026 7.9389e-06 -113.21 -113.21 -0.60634 689.18 0.0014510 -113.21 -113.21 -0.60637 1.3343 1.9697 1843.7 -0.0074206 1146.8 0.19014 0.00056976 1755.1 383.36 407.59 3.4458 0.85012 1.0387 172.07 2.0705 3.5082 0.0039967
-143.62 0.0023637 9.2966e-06 -111.24 -111.24 -0.59106 688.17 0.0014531 -111.24 -111.24 -0.59110 1.3343 1.9713 1836.9 -0.0074098 1113.0 0.18962 0.00066731 1498.6 384.21 408.63 3.4226 0.85346 1.0420 172.68 2.0294 3.5358 0.0040564
-142.62 0.0027820 1.0856e-05 -109.26 -109.26 -0.57589 687.16 0.0014553 -109.27 -109.27 -0.57593 1.3343 1.9728 1830.2 -0.0073988 1080.8 0.18909 0.00077939 1283.1 385.07 409.68 3.3999 0.85679 1.0454 173.28 1.9896 3.5633 0.0041164
-141.62 0.0032653 1.2644e-05 -107.29 -107.29 -0.56082 686.15 0.0014574 -107.30 -107.30 -0.56087 1.3343 1.9744 1823.5 -0.0073878 1050.1 0.18856 0.00090784 1101.5 385.93 410.72 3.3777 0.86011 1.0487 173.88 1.9508 3.5908 0.0041766
-140.62 0.0038222 1.4686e-05 -105.31 -105.31 -0.54585 685.14 0.0014596 -105.32 -105.32 -0.54591 1.3344 1.9760 1816.7 -0.0073765 1020.7 0.18803 0.0010547 948.16 386.79 411.77 3.3560 0.86341 1.0520 174.48 1.9133 3.6183 0.0042372
-139.62 0.0044623 1.7015e-05 -103.34 -103.34 -0.53098 684.13 0.0014617 -103.34 -103.34 -0.53105 1.3344 1.9776 1810.0 -0.0073651 992.74 0.18749 0.0012221 818.26 387.65 412.83 3.3347 0.86670 1.0553 175.08 1.8768 3.6459 0.0042980
-138.62 0.0051963 1.9664e-05 -101.36 -101.36 -0.51621 683.12 0.0014639 -101.37 -101.37 -0.51629 1.3345 1.9792 1803.3 -0.0073536 965.97 0.18695 0.0014125 707.94 388.52 413.88 3.3139 0.86998 1.0586 175.67 1.8413 3.6734 0.0043592
-137.62 0.0060358 2.2669e-05 -99.375 -99.374 -0.50154 682.11 0.0014660 -99.386 -99.386 -0.50162 1.3346 1.9808 1796.6 -0.0073419 940.35 0.18641 0.0016287 614.00 389.39 414.94 3.2935 0.87325 1.0619 176.26 1.8069 3.7009 0.0044206
-136.62 0.0069938 2.6070e-05 -97.392 -97.391 -0.48696 681.10 0.0014682 -97.404 -97.404 -0.48705 1.3347 1.9825 1789.9 -0.0073301 915.81 0.18586 0.0018733 533.80 390.26 416.00 3.2735 0.87650 1.0651 176.85 1.7734 3.7284 0.0044823
-135.62 0.0080843 2.9912e-05 -95.407 -95.406 -0.47247 680.09 0.0014704 -95.421 -95.421 -0.47258 1.3348 1.9841 1783.2 -0.0073180 892.30 0.18531 0.0021497 465.17 391.14 417.07 3.2540 0.87975 1.0684 177.44 1.7409 3.7559 0.0045443
-134.62 0.0093230 3.4241e-05 -93.420 -93.419 -0.45807 679.08 0.0014726 -93.436 -93.436 -0.45820 1.3350 1.9858 1776.5 -0.0073059 869.75 0.18476 0.0024613 406.30 392.02 418.14 3.2348 0.88299 1.0716 178.02 1.7093 3.7834 0.0046066
-133.62 0.010727 3.9110e-05 -91.431 -91.429 -0.44377 678.07 0.0014748 -91.450 -91.449 -0.44391 1.3351 1.9875 1769.8 -0.0072935 848.11 0.18421 0.0028116 355.67 392.91 419.21 3.2161 0.88622 1.0749 178.61 1.6786 3.8109 0.0046691
-132.62 0.012315 4.4572e-05 -89.440 -89.438 -0.42955 677.06 0.0014770 -89.461 -89.461 -0.42971 1.3353 1.9892 1763.1 -0.0072810 827.32 0.18365 0.0032049 312.03 393.79 420.29 3.1977 0.88944 1.0781 179.19 1.6488 3.8385 0.0047320
-131.62 0.014106 5.0689e-05 -87.447 -87.445 -0.41541 676.04 0.0014792 -87.471 -87.471 -0.41560 1.3354 1.9909 1756.4 -0.0072684 807.34 0.18309 0.0036453 274.33 394.68 421.36 3.1798 0.89266 1.0813 179.76 1.6197 3.8660 0.0047951
-130.62 0.016124 5.7525e-05 -85.452 -85.450 -0.40137 675.03 0.0014814 -85.479 -85.479 -0.40157 1.3356 1.9926 1749.7 -0.0072555 788.12 0.18253 0.0041375 241.69 395.58 422.44 3.1622 0.89586 1.0846 180.34 1.5915 3.8935 0.0048586
-129.62 0.018392 6.5150e-05 -83.455 -83.453 -0.38740 674.02 0.0014836 -83.486 -83.486 -0.38763 1.3358 1.9944 1743.0 -0.0072425 769.63 0.18196 0.0046867 213.37 396.47 423.53 3.1450 0.89906 1.0878 180.91 1.5641 3.9210 0.0049223
-128.62 0.020935 7.3638e-05 -81.455 -81.453 -0.37352 673.01 0.0014859 -81.491 -81.490 -0.37378 1.3360 1.9961 1736.3 -0.0072294 751.83 0.18140 0.0052981 188.75 397.37 424.62 3.1281 0.90226 1.0910 181.48 1.5374 3.9485 0.0049863
-127.62 0.023783 8.3068e-05 -79.454 -79.451 -0.35972 672.00 0.0014881 -79.494 -79.493 -0.36001 1.3363 1.9979 1729.6 -0.0072160 734.67 0.18083 0.0059776 167.29 398.27 425.71 3.1116 0.90545 1.0942 182.05 1.5114 3.9760 0.0050506
-126.62 0.026966 9.3528e-05 -77.450 -77.447 -0.34600 670.98 0.0014904 -77.495 -77.495 -0.34632 1.3365 1.9997 1722.9 -0.0072025 718.14 0.18025 0.0067313 148.56 399.18 426.80 3.0954 0.90863 1.0974 182.62 1.4861 4.0035 0.0051152
-125.62 0.030515 0.00010511 -75.444 -75.441 -0.33236 669.97 0.0014926 -75.494 -75.494 -0.33272 1.3368 2.0015 1716.2 -0.0071888 702.18 0.17968 0.0075660 132.17 400.09 427.89 3.0795 0.91181 1.1006 183.18 1.4615 4.0310 0.0051800
-124.62 0.034467 0.00011790 -73.436 -73.432 -0.31879 668.95 0.0014949 -73.492 -73.492 -0.31919 1.3371 2.0033 1709.5 -0.0071749 686.79 0.17910 0.0084885 117.81 401.00 428.99 3.0640 0.91499 1.1038 183.74 1.4375 4.0584 0.0052452
-123.62 0.038859 0.00013202 -71.425 -71.421 -0.30530 667.94 0.0014971 -71.488 -71.487 -0.30574 1.3374 2.0051 1702.8 -0.0071609 671.93 0.17852 0.0095065 105.19 401.91 430.10 3.0488 0.91816 1.1070 184.30 1.4141 4.0859 0.0053106
-122.62 0.043731 0.00014757 -69.412 -69.407 -0.29188 666.92 0.0014994 -69.482 -69.481 -0.29237 1.3377 2.0070 1696.2 -0.0071466 657.57 0.17794 0.010628 94.092 402.83 431.20 3.0339 0.92134 1.1102 184.86 1.3913 4.1134 0.0053764
-121.62 0.049128 0.00016467 -67.396 -67.391 -0.27853 665.91 0.0015017 -67.474 -67.473 -0.27907 1.3380 2.0089 1689.5 -0.0071322 643.70 0.17736 0.011861 84.309 403.75 432.31 3.0193 0.92451 1.1134 185.41 1.3691 4.1409 0.0054424
-120.62 0.055096 0.00018344 -65.378 -65.372 -0.26525 664.89 0.0015040 -65.464 -65.463 -0.26585 1.3384 2.0107 1682.8 -0.0071176 630.28 0.17678 0.013215 75.669 404.67 433.42 3.0050 0.92767 1.1166 185.96 1.3475 4.1683 0.0055087
-119.62 0.061684 0.00020402 -63.357 -63.350 -0.25204 663.87 0.0015063 -63.452 -63.452 -0.25271 1.3387 2.0126 1676.1 -0.0071028 617.30 0.17619 0.014700 68.027 405.60 434.53 2.9909 0.93084 1.1198 186.51 1.3264 4.1958 0.0055752
-118.62 0.068946 0.00022653 -61.333 -61.325 -0.23890 662.86 0.0015086 -61.439 -61.438 -0.23963 1.3391 2.0146 1669.4 -0.0070878 604.74 0.17560 0.016325 61.255 406.53 435.64 2.9772 0.93401 1.1231 187.06 1.3058 4.2233 0.0056421
-117.62 0.076937 0.00025114 -59.306 -59.298 -0.22583 661.84 0.0015109 -59.423 -59.422 -0.22663 1.3395 2.0165 1662.8 -0.0070726 592.58 0.17501 0.018101 55.245 407.46 436.76 2.9638 0.93718 1.1263 187.60 1.2857 4.2507 0.0057092
-116.62 0.085718 0.00027799 -57.276 -57.267 -0.21282 660.82 0.0015133 -57.406 -57.405 -0.21370 1.3400 2.0184 1656.1 -0.0070573 580.80 0.17442 0.020040 49.901 408.39 437.88 2.9506 0.94035 1.1295 188.14 1.2660 4.2782 0.0057767
-115.62 0.095353 0.00030724 -55.244 -55.233 -0.19988 659.80 0.0015156 -55.386 -55.385 -0.20084 1.3404 2.0204 1649.4 -0.0070417 569.38 0.17383 0.022152 45.142 409.33 439.01 2.9377 0.94352 1.1327 188.68 1.2468 4.3056 0.0058444
-114.62 0.10591 0.00033907 -53.208 -53.196 -0.18699 658.78 0.0015180 -53.365 -53.364 -0.18805 1.3409 2.0224 1642.7 -0.0070260 558.32 0.17323 0.024451 40.898 410.27 440.13 2.9250 0.94669 1.1360 189.22 1.2281 4.3330 0.0059123
-113.62 0.11746 0.00037365 -51.169 -51.156 -0.17417 657.76 0.0015203 -51.342 -51.340 -0.17533 1.3413 2.0244 1636.0 -0.0070100 547.59 0.17264 0.026949 37.107 411.21 441.26 2.9126 0.94987 1.1392 189.75 1.2097 4.3604 0.0059806
-112.62 0.13008 0.00041117 -49.126 -49.113 -0.16141 656.73 0.0015227 -49.316 -49.315 -0.16267 1.3418 2.0264 1629.3 -0.0069938 537.18 0.17204 0.029661 33.715 412.16 442.39 2.9005 0.95305 1.1424 190.28 1.1918 4.3879 0.0060491
-111.62 0.14384 0.00045184 -47.081 -47.065 -0.14871 655.71 0.0015251 -47.289 -47.287 -0.15008 1.3424 2.0285 1622.7 -0.0069774 527.08 0.17144 0.032600 30.675 413.10 443.53 2.8885 0.95623 1.1457 190.81 1.1742 4.4153 0.0061180
-110.62 0.15884 0.00049584 -45.032 -45.015 -0.13606 654.69 0.0015274 -45.259 -45.258 -0.13755 1.3429 2.0305 1616.0 -0.0069609 517.28 0.17084 0.035781 27.948 414.06 444.66 2.8769 0.95942 1.1490 191.34 1.1570 4.4427 0.0061871
-109.62 0.17516 0.00054341 -42.979 -42.960 -0.12347 653.66 0.0015298 -43.228 -43.226 -0.12509 1.3435 2.0326 1609.3 -0.0069441 507.76 0.17024 0.039220 25.497 415.01 445.80 2.8654 0.96261 1.1522 191.86 1.1402 4.4701 0.0062564
-108.62 0.19290 0.00059476 -40.922 -40.902 -0.11093 652.64 0.0015322 -41.194 -41.192 -0.11269 1.3441 2.0347 1602.6 -0.0069271 498.51 0.16964 0.042933 23.292 415.96 446.94 2.8542 0.96581 1.1555 192.38 1.1236 4.4974 0.0063261
-107.62 0.21215 0.00065012 -38.862 -38.839 -0.098443 651.61 0.0015347 -39.158 -39.156 -0.10036 1.3447 2.0369 1595.9 -0.0069098 489.52 0.16903 0.046937 21.305 416.92 448.09 2.8433 0.96901 1.1588 192.90 1.1075 4.5248 0.0063960
-106.62 0.23301 0.00070975 -36.798 -36.773 -0.086010 650.58 0.0015371 -37.120 -37.118 -0.088082 1.3453 2.0390 1589.2 -0.0068924 480.79 0.16843 0.051250 19.512 417.88 449.23 2.8325 0.97222 1.1621 193.41 1.0916 4.5522 0.0064662
-105.62 0.25561 0.00077388 -34.729 -34.702 -0.073626 649.55 0.0015395 -35.080 -35.078 -0.075868 1.3460 2.0412 1582.6 -0.0068747 472.30 0.16782 0.055891 17.892 418.85 450.38 2.8220 0.97544 1.1655 193.93 1.0760 4.5795 0.0065367
-104.62 0.28004 0.00084279 -32.657 -32.627 -0.061291 648.52 0.0015420 -33.038 -33.035 -0.063714 1.3467 2.0434 1575.9 -0.0068569 464.04 0.16721 0.060878 16.426 419.81 451.53 2.8116 0.97867 1.1688 194.44 1.0608 4.6069 0.0066074
-103.62 0.30643 0.00091674 -30.580 -30.547 -0.049003 647.49 0.0015444 -30.994 -30.991 -0.051619 1.3474 2.0456 1569.2 -0.0068387 456.00 0.16660 0.066231 15.099 420.78 452.68 2.8015 0.98191 1.1722 194.94 1.0458 4.6342 0.0066785
-102.62 0.33490 0.00099603 -28.498 -28.463 -0.036762 646.46 0.0015469 -28.947 -28.944 -0.039582 1.3481 2.0478 1562.5 -0.0068204 448.18 0.16600 0.071971 13.894 421.75 453.84 2.7916 0.98516 1.1755 195.44 1.0310 4.6615 0.0067498
-101.62 0.36558 0.0010809 -26.412 -26.374 -0.024565 645.43 0.0015494 -26.898 -26.894 -0.027602 1.3489 2.0501 1555.8 -0.0068018 440.57 0.16539 0.078120 12.801 422.73 454.99 2.7818 0.98841 1.1789 195.95 1.0166 4.6888 0.0068213
-100.62 0.39862 0.0011718 -24.322 -24.279 -0.012411 644.39 0.0015519 -24.847 -24.843 -0.015678 1.3497 2.0524 1549.1 -0.0067830 433.16 0.16478 0.084699 11.807 423.70 456.15 2.7723 0.99168 1.1823 196.44 1.0024 4.7161 0.0068932
-99.625 0.43414 0.0012688 -22.226 -22.180 -0.00029966 643.36 0.0015544 -22.794 -22.789 -0.0038103 1.3505 2.0547 1542.4 -0.0067639 425.95 0.16416 0.091731 10.901 424.68 457.31 2.7630 0.99496 1.1858 196.94 0.98838 4.7434 0.0069653
-98.625 0.47230 0.0013725 -20.125 -20.075 0.011771 642.32 0.0015569 -20.738 -20.733 0.0080027 1.3514 2.0570 1535.7 -0.0067447 418.92 0.16355 0.099240 10.077 425.66 458.48 2.7538 0.99825 1.1892 197.43 0.97464 4.7707 0.0070377
-97.625 0.51325 0.0014830 -18.020 -17.965 0.023803 641.28 0.0015594 -18.680 -18.674 0.019762 1.3522 2.0594 1529.0 -0.0067251 412.07 0.16294 0.10725 9.3239 426.65 459.64 2.7448 1.0016 1.1927 197.92 0.96112 4.7979 0.0071103
-96.625 0.55714 0.0016008 -15.908 -15.849 0.035797 640.24 0.0015619 -16.620 -16.614 0.031467 1.3531 2.0618 1522.3 -0.0067053 405.39 0.16233 0.11579 8.6365 427.63 460.81 2.7360 1.0049 1.1962 198.40 0.94783 4.8251 0.0071832
-95.625 0.60416 0.0017262 -13.792 -13.728 0.047754 639.20 0.0015645 -14.557 -14.550 0.043120 1.3540 2.0642 1515.7 -0.0066853 398.88 0.16171 0.12488 8.0078 428.62 461.98 2.7274 1.0082 1.1997 198.88 0.93475 4.8524 0.0072564
-94.625 0.65446 0.0018595 -11.669 -11.600 0.059675 638.16 0.0015670 -12.491 -12.484 0.054721 1.3550 2.0667 1509.0 -0.0066650 392.53 0.16110 0.13455 7.4323 429.61 463.15 2.7189 1.0116 1.2032 199.36 0.92188 4.8796 0.0073299
-93.625 0.70822 0.0020012 -9.5411 -9.4660 0.071563 637.12 0.0015696 -10.424 -10.416 0.066271 1.3560 2.0691 1502.3 -0.0066444 386.34 0.16048 0.14482 6.9050 430.60 464.32 2.7107 1.0149 1.2068 199.83 0.90921 4.9068 0.0074036
-92.625 0.76564 0.0021516 -7.4069 -7.3257 0.083418 636.07 0.0015722 -8.3535 -8.3452 0.077771 1.3570 2.0716 1495.6 -0.0066236 380.31 0.15987 0.15573 6.4212 431.60 465.49 2.7025 1.0183 1.2104 200.30 0.89673 4.9340 0.0074776
-91.625 0.82689 0.0023111 -5.2665 -5.1788 0.095242 635.02 0.0015747 -6.2808 -6.2719 0.089220 1.3580 2.0742 1488.9 -0.0066025 374.41 0.15925 0.16731 5.9769 432.59 466.67 2.6946 1.0217 1.2140 200.77 0.88445 4.9611 0.0075518
-90.625 0.89218 0.0024802 -3.1198 -3.0252 0.10704 633.98 0.0015773 -4.2056 -4.1959 0.10062 1.3591 2.0767 1482.2 -0.0065811 368.66 0.15864 0.17958 5.5685 433.59 467.84 2.6868 1.0251 1.2177 201.24 0.87236 4.9883 0.0076263
-89.625 0.96172 0.0026593 -0.96652 -0.86451 0.11880 632.93 0.0015800 -2.1279 -2.1174 0.11197 1.3602 2.0793 1475.5 -0.0065595 363.05 0.15802 0.19258 5.1928 434.59 469.02 2.6791 1.0285 1.2213 201.70 0.86045 5.0154 0.0077011
-88.625 1.0357 0.0028487 1.1935 1.3033 0.13054 631.88 0.0015826 -0.047516 -0.036215 0.12328 1.3613 2.0819 1468.8 -0.0065375 357.56 0.15740 0.20633 4.8466 435.59 470.20 2.6717 1.0320 1.2250 202.15 0.84873 5.0425 0.0077761
-87.625 1.1144 0.0030489 3.3604 3.4786 0.14225 630.83 0.0015852 2.0355 2.0476 0.13454 1.3625 2.0846 1462.1 -0.0065153 352.21 0.15679 0.22087 4.5276 436.60 471.39 2.6643 1.0354 1.2288 202.61 0.83718 5.0696 0.0078514
-86.625 1.1979 0.0032605 5.5344 5.6615 0.15394 629.77 0.0015879 4.1211 4.1342 0.14575 1.3637 2.0873 1455.4 -0.0064928 346.98 0.15617 0.23623 4.2331 437.61 472.57 2.6571 1.0389 1.2325 203.06 0.82580 5.0967 0.0079270
-85.625 1.2866 0.0034837 7.7157 7.8522 0.16560 628.72 0.0015905 6.2094 6.2235 0.15691 1.3649 2.0900 1448.8 -0.0064701 341.87 0.15555 0.25245 3.9612 438.61 473.75 2.6501 1.0424 1.2363 203.50 0.81460 5.1237 0.0080028
-84.625 1.3806 0.0037192 9.9045 10.051 0.17724 627.66 0.0015932 8.3004 8.3155 0.16803 1.3661 2.0927 1442.1 -0.0064470 336.87 0.15494 0.26956 3.7097 439.63 474.94 2.6432 1.0460 1.2402 203.95 0.80356 5.1508 0.0080789
-83.625 1.4803 0.0039674 12.101 12.258 0.18886 626.60 0.0015959 10.394 10.410 0.17911 1.3674 2.0955 1435.4 -0.0064236 331.99 0.15432 0.28760 3.4771 440.64 476.13 2.6364 1.0495 1.2440 204.38 0.79269 5.1778 0.0081553
-82.625 1.5858 0.0042288 14.305 14.474 0.20046 625.54 0.0015986 12.491 12.508 0.19014 1.3687 2.0983 1428.7 -0.0063999 327.22 0.15370 0.30659 3.2616 441.65 477.31 2.6298 1.0531 1.2479 204.82 0.78199 5.2048 0.0082319
-81.625 1.6975 0.0045039 16.518 16.698 0.21204 624.48 0.0016013 14.590 14.609 0.20113 1.3700 2.1012 1422.0 -0.0063759 322.55 0.15309 0.32659 3.0619 442.67 478.50 2.6233 1.0567 1.2519 205.25 0.77144 5.2318 0.0083088
-80.625 1.8155 0.0047932 18.739 18.931 0.22361 623.42 0.0016041 16.692 16.712 0.21208 1.3714 2.1041 1415.4 -0.0063516 317.99 0.15247 0.34763 2.8766 443.69 479.70 2.6169 1.0603 1.2558 205.67 0.76106 5.2587 0.0083860
-79.625 1.9402 0.0050972 20.968 21.174 0.23516 622.36 0.0016068 18.797 18.819 0.22299 1.3728 2.1070 1408.7 -0.0063270 313.52 0.15186 0.36974 2.7046 444.71 480.89 2.6106 1.0639 1.2598 206.10 0.75083 5.2857 0.0084634
-78.625 2.0718 0.0054165 23.206 23.426 0.24669 621.29 0.0016096 20.905 20.928 0.23385 1.3742 2.1099 1402.0 -0.0063021 309.15 0.15124 0.39296 2.5448 445.73 482.08 2.6045 1.0676 1.2639 206.51 0.74076 5.3126 0.0085411
-77.625 2.2107 0.0057517 25.453 25.688 0.25821 620.22 0.0016123 23.016 23.040 0.24468 1.3757 2.1129 1395.3 -0.0062768 304.88 0.15062 0.41735 2.3961 446.75 483.27 2.5985 1.0712 1.2680 206.93 0.73084 5.3395 0.0086190
-76.625 2.3571 0.0061032 27.709 27.959 0.26972 619.15 0.0016151 25.130 25.156 0.25546 1.3772 2.1159 1388.7 -0.0062512 300.69 0.15001 0.44292 2.2577 447.78 484.47 2.5926 1.0749 1.2721 207.34 0.72107 5.3664 0.0086972
-75.625 2.5113 0.0064717 29.975 30.241 0.28122 618.08 0.0016179 27.247 27.275 0.26620 1.3787 2.1190 1382.0 -0.0062253 296.59 0.14939 0.46974 2.1288 448.81 485.67 2.5869 1.0787 1.2762 207.74 0.71146 5.3933 0.0087757
-74.625 2.6736 0.0068577 32.250 32.533 0.29271 617.01 0.0016207 29.366 29.396 0.27691 1.3802 2.1221 1375.4 -0.0061990 292.58 0.14878 0.49783 2.0087 449.83 486.86 2.5812 1.0824 1.2804 208.14 0.70200 5.4201 0.0088544
-73.625 2.8444 0.0072618 34.535 34.836 0.30419 615.93 0.0016236 31.489 31.521 0.28758 1.3818 2.1252 1368.7 -0.0061724 288.65 0.14816 0.52725 1.8966 450.86 488.06 2.5757 1.0862 1.2847 208.54 0.69268 5.4469 0.0089334
-72.625 3.0240 0.0076846 36.830 37.151 0.31567 614.85 0.0016264 33.615 33.649 0.29821 1.3834 2.1284 1362.0 -0.0061454 284.81 0.14755 0.55804 1.7920 451.90 489.26 2.5703 1.0900 1.2889 208.93 0.68351 5.4737 0.0090126
-71.625 3.2127 0.0081268 39.135 39.476 0.32713 613.78 0.0016293 35.745 35.781 0.30880 1.3851 2.1316 1355.4 -0.0061181 281.03 0.14694 0.59024 1.6942 452.93 490.46 2.5650 1.0938 1.2932 209.32 0.67448 5.5005 0.0090922
-70.625 3.4108 0.0085889 41.451 41.813 0.33860 612.69 0.0016321 37.877 37.915 0.31935 1.3867 2.1349 1348.7 -0.0060904 277.34 0.14632 0.62390 1.6028 453.96 491.66 2.5598 1.0976 1.2976 209.70 0.66560 5.5273 0.0091720
-69.625 3.6187 0.0090716 43.777 44.161 0.35005 611.61 0.0016350 40.013 40.053 0.32987 1.3884 2.1382 1342.1 -0.0060624 273.72 0.14571 0.65906 1.5173 455.00 492.86 2.5547 1.1015 1.3020 210.08 0.65687 5.5540 0.0092520
-68.625 3.8367 0.0095755 46.115 46.522 0.36151 610.53 0.0016379 42.152 42.195 0.34036 1.3902 2.1415 1335.5 -0.0060339 270.17 0.14510 0.69577 1.4372 456.04 494.06 2.5497 1.1054 1.3064 210.45 0.64827 5.5807 0.0093324
-67.625 4.0652 0.010101 48.463 48.895 0.37297 609.44 0.0016409 44.294 44.340 0.35080 1.3919 2.1449 1328.8 -0.0060051 266.69 0.14449 0.73408 1.3622 457.08 495.26 2.5448 1.1093 1.3109 210.82 0.63981 5.6074 0.0094130
-66.625 4.3046 0.010650 50.823 51.280 0.38442 608.35 0.0016438 46.439 46.488 0.36122 1.3937 2.1483 1322.2 -0.0059760 263.28 0.14388 0.77404 1.2919 458.12 496.46 2.5400 1.1133 1.3154 211.18 0.63150 5.6341 0.0094939
-65.625 4.5551 0.011221 53.195 53.678 0.39588 607.26 0.0016467 48.588 48.640 0.37160 1.3955 2.1518 1315.6 -0.0059464 259.93 0.14327 0.81570 1.2259 459.16 497.67 2.5353 1.1172 1.3200 211.54 0.62332 5.6608 0.0095750
-64.625 4.8173 0.011816 55.579 56.090 0.40734 606.16 0.0016497 50.740 50.795 0.38195 1.3974 2.1553 1308.9 -0.0059164 256.65 0.14266 0.85910 1.1640 460.21 498.87 2.5307 1.1212 1.3246 211.89 0.61527 5.6874 0.0096564
-63.625 5.0915 0.012436 57.975 58.515 0.41880 605.07 0.0016527 52.896 52.954 0.39226 1.3993 2.1588 1302.3 -0.0058861 253.42 0.14205 0.90429 1.1058 461.25 500.07 2.5262 1.1252 1.3293 212.24 0.60736 5.7140 0.0097382
-62.625 5.3781 0.013081 60.383 60.953 0.43026 603.97 0.0016557 55.055 55.117 0.40254 1.4012 2.1624 1295.7 -0.0058553 250.26 0.14144 0.95134 1.0511 462.30 501.28 2.5218 1.1293 1.3340 212.58 0.59958 5.7406 0.0098201
-61.625 5.6774 0.013753 62.804 63.406 0.44174 602.87 0.0016587 57.218 57.283 0.41279 1.4031 2.1660 1289.1 -0.0058241 247.16 0.14084 1.0003 0.99972 463.35 502.48 2.5175 1.1333 1.3387 212.92 0.59194 5.7672 0.0099024
-60.625 5.9899 0.014450 65.237 65.872 0.45321 601.77 0.0016618 59.385 59.453 0.42301 1.4051 2.1697 1282.5 -0.0057925 244.12 0.14023 1.0512 0.95131 464.40 503.68 2.5133 1.1374 1.3435 213.26 0.58442 5.7938 0.0099850
-59.625 6.3160 0.015176 67.684 68.354 0.46470 600.66 0.0016648 61.554 61.627 0.43320 1.4071 2.1734 1275.9 -0.0057605 241.13 0.13962 1.1041 0.90573 465.45 504.89 2.5091 1.1415 1.3483 213.58 0.57704 5.8203 0.010068
-58.625 6.6561 0.015929 70.144 70.850 0.47619 599.55 0.0016679 63.728 63.805 0.44335 1.4091 2.1772 1269.3 -0.0057280 238.19 0.13902 1.1591 0.86277 466.50 506.09 2.5051 1.1457 1.3532 213.90 0.56978 5.8468 0.010151
-57.625 7.0107 0.016712 72.618 73.361 0.48770 598.44 0.0016710 65.905 65.986 0.45348 1.4111 2.1810 1262.7 -0.0056951 235.31 0.13842 1.2161 0.82228 467.55 507.30 2.5011 1.1498 1.3581 214.22 0.56265 5.8733 0.010234
-56.625 7.3801 0.017524 75.105 75.888 0.49921 597.33 0.0016741 68.086 68.172 0.46358 1.4132 2.1848 1256.1 -0.0056617 232.48 0.13781 1.2754 0.78408 468.60 508.50 2.4972 1.1540 1.3631 214.53 0.55564 5.8998 0.010318
-55.625 7.7648 0.018366 77.606 78.430 0.51074 596.22 0.0016772 70.271 70.361 0.47364 1.4153 2.1887 1249.5 -0.0056279 229.69 0.13721 1.3369 0.74802 469.66 509.71 2.4934 1.1582 1.3681 214.84 0.54875 5.9263 0.010402
-54.625 8.1652 0.019240 80.122 80.988 0.52228 595.10 0.0016804 72.460 72.554 0.48368 1.4174 2.1927 1242.9 -0.0055937 226.96 0.13661 1.4006 0.71396 470.72 510.91 2.4897 1.1624 1.3731 215.14 0.54199 5.9527 0.010486
-53.625 8.5819 0.020146 82.653 83.563 0.53383 593.98 0.0016836 74.652 74.752 0.49369 1.4196 2.1967 1236.3 -0.0055589 224.27 0.13601 1.4667 0.68178 471.77 512.11 2.4860 1.1667 1.3782 215.43 0.53535 5.9792 0.010571
-52.625 9.0151 0.021084 85.198 86.154 0.54540 592.86 0.0016867 76.849 76.954 0.50368 1.4218 2.2007 1229.8 -0.0055237 221.63 0.13541 1.5353 0.65136 472.83 513.32 2.4824 1.1710 1.3834 215.72 0.52882 6.0056 0.010656
-51.625 9.4655 0.022057 87.758 88.762 0.55698 591.73 0.0016900 79.049 79.159 0.51363 1.4240 2.2048 1223.2 -0.0054880 219.04 0.13482 1.6062 0.62258 473.89 514.52 2.4789 1.1752 1.3886 216.00 0.52241 6.0320 0.010741
-50.625 9.9335 0.023063 90.333 91.387 0.56858 590.60 0.0016932 81.253 81.369 0.52356 1.4262 2.2089 1216.6 -0.0054519 216.48 0.13422 1.6797 0.59534 474.95 515.73 2.4755 1.1796 1.3938 216.28 0.51612 6.0584 0.010827
-49.625 10.419 0.024105 92.924 94.030 0.58020 589.47 0.0016964 83.462 83.584 0.53347 1.4285 2.2131 1210.1 -0.0054152 213.98 0.13363 1.7558 0.56954 476.01 516.93 2.4722 1.1839 1.3991 216.55 0.50994 6.0848 0.010913
-48.625 10.924 0.025184 95.531 96.690 0.59183 588.34 0.0016997 85.674 85.802 0.54334 1.4308 2.2173 1203.5 -0.0053780 211.51 0.13303 1.8345 0.54510 477.07 518.13 2.4689 1.1883 1.4044 216.82 0.50387 6.1112 0.010999
-47.625 11.448 0.026299 98.154 99.368 0.60349 587.20 0.0017030 87.891 88.025 0.55319 1.4331 2.2216 1196.9 -0.0053403 209.08 0.13244 1.9159 0.52194 478.14 519.33 2.4657 1.1927 1.4098 217.08 0.49792 6.1375 0.011085
-46.625 11.991 0.027452 100.79 102.06 0.61516 586.06 0.0017063 90.111 90.252 0.56302 1.4354 2.2259 1190.4 -0.0053020 206.69 0.13185 2.0001 0.49997 479.20 520.53 2.4625 1.1971 1.4153 217.33 0.49207 6.1639 0.011172
-45.625 12.554 0.028644 103.45 104.78 0.62686 584.92 0.0017096 92.336 92.484 0.57282 1.4378 2.2303 1183.8 -0.0052633 204.34 0.13126 2.0872 0.47912 480.27 521.74 2.4594 1.2015 1.4207 217.58 0.48633 6.1902 0.011259
-44.625 13.137 0.029876 106.12 107.51 0.63858 583.77 0.0017130 94.565 94.720 0.58260 1.4402 2.2347 1177.3 -0.0052240 202.03 0.13067 2.1771 0.45933 481.33 522.94 2.4564 1.2060 1.4263 217.82 0.48069 6.2165 0.011347
-43.625 13.741 0.031148 108.81 110.27 0.65032 582.62 0.0017164 96.799 96.961 0.59235 1.4426 2.2392 1170.7 -0.0051841 199.75 0.13008 2.2700 0.44053 482.40 524.14 2.4535 1.2104 1.4319 218.05 0.47516 6.2429 0.011435
-42.625 14.367 0.032462 111.52 113.04 0.66209 581.47 0.0017198 99.036 99.207 0.60208 1.4450 2.2437 1164.2 -0.0051437 197.51 0.12949 2.3659 0.42267 483.46 525.33 2.4506 1.2149 1.4375 218.28 0.46973 6.2692 0.011523
-41.625 15.015 0.033818 114.24 115.83 0.67388 580.32 0.0017232 101.28 101.46 0.61179 1.4475 2.2483 1157.7 -0.0051027 195.30 0.12891 2.4649 0.40569 484.53 526.53 2.4478 1.2195 1.4432 218.50 0.46440 6.2955 0.011612
-40.625 15.686 0.035218 116.98 118.64 0.68569 579.16 0.0017266 103.52 103.71 0.62147 1.4500 2.2529 1151.1 -0.0050611 193.13 0.12832 2.5671 0.38954 485.60 527.73 2.4450 1.2240 1.4489 218.72 0.45917 6.3218 0.011701
-39.625 16.380 0.036662 119.74 121.48 0.69753 578.00 0.0017301 105.78 105.97 0.63113 1.4525 2.2576 1144.6 -0.0050189 190.99 0.12774 2.6725 0.37418 486.67 528.93 2.4423 1.2286 1.4547 218.93 0.45403 6.3481 0.011790
-38.625 17.097 0.038151 122.52 124.33 0.70940 576.83 0.0017336 108.03 108.24 0.64077 1.4550 2.2623 1138.0 -0.0049761 188.88 0.12716 2.7813 0.35955 487.74 530.12 2.4397 1.2332 1.4606 219.13 0.44900 6.3744 0.011880
-37.625 17.838 0.039687 125.31 127.21 0.72130 575.66 0.0017371 110.29 110.51 0.65039 1.4576 2.2671 1131.5 -0.0049327 186.81 0.12658 2.8934 0.34562 488.81 531.32 2.4371 1.2378 1.4665 219.33 0.44405 6.4007 0.011970
-36.625 18.604 0.041270 128.13 130.10 0.73322 574.49 0.0017407 112.56 112.78 0.65999 1.4602 2.2719 1125.0 -0.0048887 184.76 0.12600 3.0089 0.33235 489.88 532.51 2.4346 1.2424 1.4724 219.52 0.43920 6.4270 0.012060
-35.625 19.395 0.042901 130.96 133.02 0.74518 573.32 0.0017442 114.83 115.06 0.66956 1.4628 2.2768 1118.5 -0.0048440 182.75 0.12542 3.1280 0.31969 490.95 533.70 2.4321 1.2471 1.4784 219.70 0.43444 6.4533 0.012151
-34.625 20.212 0.044582 133.81 135.96 0.75716 572.14 0.0017478 117.10 117.34 0.67912 1.4654 2.2818 1111.9 -0.0047987 180.76 0.12485 3.2506 0.30763 492.02 534.89 2.4297 1.2517 1.4845 219.88 0.42977 6.4797 0.012243
-33.625 21.056 0.046313 136.69 138.92 0.76918 570.96 0.0017514 119.38 119.63 0.68865 1.4681 2.2868 1105.4 -0.0047527 178.80 0.12427 3.3770 0.29612 493.09 536.08 2.4273 1.2564 1.4906 220.05 0.42519 6.5060 0.012334
-32.625 21.926 0.048096 139.58 141.90 0.78122 569.77 0.0017551 121.66 121.93 0.69817 1.4708 2.2918 1098.9 -0.0047061 176.87 0.12370 3.5071 0.28514 494.17 537.27 2.4250 1.2611 1.4968 220.21 0.42070 6.5323 0.012426
-31.625 22.823 0.049931 142.49 144.91 0.79330 568.58 0.0017588 123.95 124.23 0.70767 1.4735 2.2970 1092.3 -0.0046587 174.97 0.12313 3.6410 0.27465 495.24 538.46 2.4227 1.2659 1.5031 220.36 0.41629 6.5587 0.012519
-30.625 23.749 0.051820 145.42 147.94 0.80541 567.39 0.0017625 126.24 126.53 0.71714 1.4762 2.3021 1085.8 -0.0046107 173.09 0.12256 3.7787 0.26464 496.31 539.64 2.4205 1.2706 1.5094 220.51 0.41196 6.5850 0.012612
-29.625 24.703 0.053763 148.37 150.99 0.81756 566.19 0.0017662 128.54 128.84 0.72660 1.4790 2.3074 1079.3 -0.0045619 171.24 0.12200 3.9205 0.25507 497.38 540.83 2.4184 1.2754 1.5157 220.65 0.40772 6.6114 0.012706
-28.625 25.687 0.055763 151.34 154.07 0.82974 564.99 0.0017699 130.84 131.16 0.73604 1.4818 2.3126 1072.8 -0.0045124 169.42 0.12143 4.0663 0.24592 498.46 542.01 2.4162 1.2802 1.5222 220.79 0.40356 6.6378 0.012800
-27.625 26.700 0.057820 154.34 157.17 0.84195 563.78 0.0017737 133.15 133.48 0.74547 1.4846 2.3180 1066.2 -0.0044621 167.62 0.12087 4.2163 0.23717 499.53 543.19 2.4142 1.2850 1.5286 220.91 0.39947 6.6642 0.012894
-26.625 27.743 0.059935 157.35 160.29 0.85420 562.57 0.0017775 135.47 135.81 0.75487 1.4874 2.3234 1059.7 -0.0044111 165.84 0.12031 4.3705 0.22881 500.60 544.37 2.4122 1.2899 1.5352 221.03 0.39547 6.6906 0.012989
-25.625 28.817 0.062110 160.38 163.44 0.86649 561.36 0.0017814 137.78 138.14 0.76426 1.4902 2.3289 1053.2 -0.0043593 164.09 0.11975 4.5290 0.22080 501.68 545.55 2.4102 1.2947 1.5418 221.14 0.39154 6.7171 0.013084
-24.625 29.923 0.064345 163.44 166.62 0.87881 560.14 0.0017853 140.11 140.48 0.77363 1.4931 2.3344 1046.7 -0.0043067 162.36 0.11919 4.6918 0.21314 502.75 546.72 2.4083 1.2996 1.5485 221.25 0.38768 6.7436 0.013180
-23.625 31.061 0.066642 166.52 169.81 0.89117 558.92 0.0017892 142.44 142.82 0.78298 1.4960 2.3400 1040.1 -0.0042533 160.65 0.11863 4.8592 0.20580 503.82 547.90 2.4064 1.3045 1.5552 221.35 0.38391 6.7701 0.013277
-22.625 32.232 0.069002 169.62 173.04 0.90357 557.69 0.0017931 144.77 145.17 0.79232 1.4990 2.3457 1033.6 -0.0041990 158.97 0.11807 5.0311 0.19877 504.90 549.07 2.4045 1.3095 1.5621 221.44 0.38020 6.7967 0.013374
-21.625 33.435 0.071427 172.74 176.29 0.91601 556.46 0.0017971 147.11 147.52 0.80164 1.5019 2.3514 1027.1 -0.0041439 157.30 0.11752 5.2076 0.19203 505.97 550.24 2.4027 1.3144 1.5690 221.52 0.37656 6.8232 0.013471
-20.625 34.673 0.073918 175.89 179.56 0.92848 555.23 0.0018011 149.45 149.88 0.81095 1.5049 2.3572 1020.6 -0.0040879 155.66 0.11697 5.3889 0.18557 507.04 551.40 2.4010 1.3194 1.5759 221.59 0.37300 6.8499 0.013569
-19.625 35.946 0.076475 179.05 182.87 0.94100 553.99 0.0018051 151.80 152.25 0.82024 1.5079 2.3630 1014.0 -0.0040311 154.04 0.11642 5.5750 0.17937 508.11 552.57 2.3992 1.3244 1.5829 221.66 0.36950 6.8765 0.013668
-18.625 37.253 0.079101 182.24 186.19 0.95355 552.74 0.0018092 154.16 154.62 0.82952 1.5109 2.3689 1007.5 -0.0039733 152.44 0.11587 5.7660 0.17343 509.19 553.73 2.3976 1.3294 1.5901 221.72 0.36608 6.9032 0.013767
-17.625 38.596 0.081797 185.46 189.55 0.96615 551.49 0.0018133 156.52 157.00 0.83878 1.5140 2.3749 1001.0 -0.0039145 150.86 0.11532 5.9621 0.16773 510.26 554.89 2.3959 1.3345 1.5972 221.77 0.36272 6.9300 0.013867
-16.625 39.976 0.084565 188.69 192.93 0.97879 550.24 0.0018174 158.89 159.39 0.84803 1.5171 2.3810 994.44 -0.0038549 149.29 0.11478 6.1632 0.16225 511.33 556.05 2.3943 1.3395 1.6045 221.81 0.35942 6.9568 0.013968
-15.625 41.392 0.087405 191.95 196.34 0.99147 548.98 0.0018216 161.26 161.78 0.85726 1.5202 2.3871 987.91 -0.0037942 147.75 0.11423 6.3696 0.15700 512.40 557.20 2.3927 1.3446 1.6119 221.85 0.35619 6.9836 0.014069
-14.625 42.846 0.090319 195.23 199.78 1.0042 547.71 0.0018258 163.64 164.18 0.86649 1.5233 2.3933 981.37 -0.0037325 146.22 0.11369 6.5812 0.15195 513.47 558.36 2.3912 1.3497 1.6193 221.87 0.35302 7.0105 0.014170
-13.625 44.338 0.093309 198.54 203.24 1.0170 546.44 0.0018300 166.02 166.58 0.87569 1.5264 2.3996 974.83 -0.0036698 144.72 0.11315 6.7983 0.14710 514.54 559.51 2.3897 1.3549 1.6268 221.89 0.34992 7.0375 0.014273
-12.625 45.870 0.096376 201.87 206.74 1.0298 545.17 0.0018343 168.41 168.99 0.88489 1.5296 2.4059 968.29 -0.0036061 143.23 0.11261 7.0208 0.14243 515.61 560.65 2.3883 1.3600 1.6344 221.90 0.34688 7.0646 0.014376
-11.625 47.440 0.099522 205.23 210.26 1.0426 543.89 0.0018386 170.81 171.41 0.89407 1.5328 2.4124 961.75 -0.0035413 141.76 0.11208 7.2490 0.13795 516.68 561.80 2.3868 1.3652 1.6421 221.91 0.34389 7.0917 0.014479
-10.625 49.051 0.10275 208.61 213.81 1.0555 542.60 0.0018430 173.21 173.83 0.90324 1.5360 2.4189 955.20 -0.0034753 140.30 0.11154 7.4829 0.13364 517.75 562.94 2.3854 1.3704 1.6498 221.90 0.34097 7.1188 0.014584
-9.6250 50.703 0.10606 212.01 217.39 1.0685 541.31 0.0018474 175.61 176.26 0.91240 1.5393 2.4255 948.65 -0.0034082 138.86 0.11101 7.7226 0.12949 518.81 564.08 2.3841 1.3757 1.6577 221.88 0.33810 7.1461 0.014689
-8.6250 52.396 0.10945 215.44 221.00 1.0815 540.02 0.0018518 178.03 178.70 0.92154 1.5426 2.4321 942.10 -0.0033400 137.44 0.11048 7.9683 0.12550 519.88 565.21 2.3827 1.3809 1.6657 221.86 0.33529 7.1734 0.014795
-7.6250 54.131 0.11293 218.90 224.64 1.0945 538.72 0.0018563 180.45 181.14 0.93068 1.5459 2.4389 935.55 -0.0032705 136.03 0.10995 8.2200 0.12165 520.94 566.35 2.3814 1.3862 1.6737 221.83 0.33254 7.2008 0.014902
-6.6250 55.909 0.11649 222.38 228.31 1.1076 537.41 0.0018608 182.87 183.59 0.93980 1.5492 2.4457 928.99 -0.0031998 134.64 0.10942 8.4779 0.11795 522.01 567.48 2.3801 1.3915 1.6819 221.79 0.32984 7.2284 0.015009
-5.6250 57.730 0.12014 225.89 232.01 1.1207 536.10 0.0018653 185.30 186.05 0.94892 1.5525 2.4526 922.43 -0.0031279 133.27 0.10889 8.7420 0.11439 523.07 568.60 2.3789 1.3969 1.6902 221.74 0.32720 7.2560 0.015117
-4.6250 59.595 0.12389 229.42 235.74 1.1339 534.78 0.0018699 187.74 188.51 0.95802 1.5559 2.4596 915.87 -0.0030546 131.91 0.10837 9.0126 0.11096 524.13 569.72 2.3777 1.4022 1.6985 221.68 0.32461 7.2837 0.015226
-3.6250 61.505 0.12773 232.98 239.50 1.1471 533.45 0.0018746 190.19 190.98 0.96711 1.5593 2.4667 909.30 -0.0029800 130.56 0.10785 9.2896 0.10765 525.19 570.84 2.3765 1.4076 1.7070 221.62 0.32207 7.3115 0.015336
-2.6250 63.461 0.13166 236.56 243.29 1.1604 532.12 0.0018793 192.64 193.46 0.97620 1.5627 2.4739 902.73 -0.0029041 129.23 0.10733 9.5733 0.10446 526.25 571.96 2.3753 1.4131 1.7156 221.54 0.31958 7.3394 0.015447
-1.6250 65.462 0.13569 240.17 247.12 1.1737 530.78 0.0018840 195.10 195.95 0.98527 1.5662 2.4811 896.16 -0.0028267 127.91 0.10681 9.8638 0.10138 527.31 573.07 2.3742 1.4185 1.7243 221.45 0.31715 7.3674 0.015559
-0.62500 67.510 0.13982 243.81 250.97 1.1871 529.44 0.0018888 197.56 198.44 0.99434 1.5696 2.4885 889.58 -0.0027478 126.61 0.10629 10.161 0.098414 528.37 574.18 2.3731 1.4240 1.7331 221.36 0.31476 7.3956 0.015671
0.37500 69.606 0.14404 247.48 254.86 1.2005 528.09 0.0018936 200.03 200.94 1.0034 1.5731 2.4960 883.00 -0.0026675 125.32 0.10578 10.466 0.095552 529.42 575.28 2.3720 1.4295 1.7421 221.26 0.31242 7.4239 0.015785
1.3750 71.749 0.14838 251.17 258.78 1.2140 526.73 0.0018985 202.51 203.45 1.0124 1.5767 2.5035 876.42 -0.0025856 124.04 0.10527 10.777 0.092790 530.48 576.38 2.3709 1.4350 1.7512 221.14 0.31013 7.4523 0.015899
2.3750 73.941 0.15281 254.89 262.73 1.2275 525.37 0.0019034 204.99 205.96 1.0215 1.5802 2.5112 869.83 -0.0025022 122.78 0.10476 11.096 0.090123 531.53 577.47 2.3699 1.4406 1.7604 221.02 0.30789 7.4808 0.016015
3.3750 76.183 0.15736 258.64 266.72 1.2411 523.99 0.0019084 207.48 208.48 1.0305 1.5838 2.5190 863.24 -0.0024171 121.53 0.10425 11.422 0.087549 532.58 578.56 2.3688 1.4462 1.7697 220.89 0.30569 7.5095 0.016131
4.3750 78.475 0.16201 262.41 270.74 1.2547 522.62 0.0019134 209.98 211.01 1.0395 1.5874 2.5268 856.64 -0.0023303 120.29 0.10374 11.756 0.085062 533.63 579.65 2.3678 1.4518 1.7792 220.75 0.30354 7.5384 0.016249
5.3750 80.817 0.16678 266.22 274.79 1.2684 521.23 0.0019185 212.48 213.55 1.0486 1.5910 2.5348 850.04 -0.0022417 119.06 0.10324 12.098 0.082660 534.67 580.73 2.3669 1.4575 1.7888 220.60 0.30144 7.5674 0.016368
6.3750 83.211 0.17166 270.05 278.88 1.2822 519.84 0.0019237 215.00 216.10 1.0576 1.5946 2.5429 843.43 -0.0021514 117.85 0.10273 12.447 0.080340 535.72 581.81 2.3659 1.4632 1.7986 220.44 0.29938 7.5966 0.016487
7.3750 85.657 0.17666 273.91 283.00 1.2960 518.44 0.0019289 217.51 218.65 1.0666 1.5983 2.5511 836.82 -0.0020593 116.65 0.10223 12.805 0.078096 536.76 582.88 2.3650 1.4689 1.8085 220.27 0.29736 7.6259 0.016608
8.3750 88.156 0.18178 277.80 287.15 1.3098 517.03 0.0019341 220.04 221.22 1.0756 1.6020 2.5595 830.20 -0.0019652 115.46 0.10173 13.170 0.075928 537.80 583.95 2.3640 1.4746 1.8186 220.08 0.29538 7.6555 0.016730
9.3750 90.708 0.18702 281.72 291.34 1.3237 515.62 0.0019394 222.57 223.79 1.0846 1.6057 2.5679 823.58 -0.0018691 114.28 0.10124 13.545 0.073830 538.84 585.01 2.3631 1.4804 1.8288 219.89 0.29345 7.6852 0.016853
10.375 93.315 0.19239 285.67 295.57 1.3376 514.19 0.0019448 225.11 226.37 1.0936 1.6095 2.5765 816.96 -0.0017710 113.11 0.10074 13.927 0.071802 539.87 586.07 2.3622 1.4863 1.8392 219.69 0.29156 7.7151 0.016978
11.375 95.977 0.19789 289.65 299.83 1.3517 512.76 0.0019502 227.66 228.95 1.1025 1.6132 2.5852 810.32 -0.0016708 111.95 0.10025 14.319 0.069840 540.90 587.12 2.3614 1.4921 1.8498 219.48 0.28971 7.7452 0.017103
12.375 98.694 0.20351 293.66 304.13 1.3657 511.32 0.0019557 230.22 231.55 1.1115 1.6170 2.5940 803.68 -0.0015685 110.80 0.099756 14.719 0.067941 541.93 588.17 2.3605 1.4980 1.8605 219.26 0.28790 7.7756 0.017230
13.375 101.47 0.20928 297.70 308.46 1.3798 509.87 0.0019613 232.78 234.15 1.1205 1.6208 2.6030 797.04 -0.0014639 109.67 0.099267 15.128 0.066103 542.96 589.21 2.3597 1.5040 1.8715 219.03 0.28612 7.8061 0.017359
14.375 104.30 0.21518 301.76 312.83 1.3940 508.42 0.0019669 235.35 236.77 1.1295 1.6247 2.6121 790.39 -0.0013569 108.54 0.098779 15.547 0.064323 543.99 590.24 2.3588 1.5099 1.8826 218.79 0.28439 7.8369 0.017488
15.375 107.19 0.22122 305.86 317.23 1.4082 506.95 0.0019726 237.93 239.39 1.1384 1.6286 2.6214 783.73 -0.0012476 107.43 0.098294 15.974 0.062600 545.01 591.27 2.3580 1.5159 1.8940 218.53 0.28270 7.8680 0.017619
16.375 110.13 0.22741 309.99 321.68 1.4225 505.48 0.0019783 240.52 242.02 1.1474 1.6324 2.6308 777.07 -0.0011357 106.32 0.097810 16.412 0.060931 546.03 592.29 2.3572 1.5220 1.9055 218.27 0.28104 7.8993 0.017752
17.375 113.14 0.23374 314.15 326.16 1.4369 504.00 0.0019841 243.11 244.66 1.1564 1.6364 2.6403 770.40 -0.0010213 105.22 0.097328 16.859 0.059314 547.04 593.31 2.3564 1.5281 1.9172 217.99 0.27942 7.9308 0.017886
18.375 116.21 0.24023 318.35 330.67 1.4513 502.50 0.0019900 245.72 247.31 1.1653 1.6403 2.6501 763.72 -0.00090422 104.14 0.096848 17.317 0.057747 548.05 594.32 2.3557 1.5342 1.9292 217.71 0.27783 7.9626 0.018021
19.375 119.33 0.24688 322.57 335.23 1.4657 501.00 0.0019960 248.33 249.97 1.1743 1.6443 2.6599 757.04 -0.00078435 103.06 0.096371 17.785 0.056228 549.06 595.33 2.3549 1.5404 1.9414 217.41 0.27628 7.9947 0.018159
20.375 122.52 0.25368 326.83 339.82 1.4803 499.49 0.0020020 250.95 252.64 1.1832 1.6483 2.6700 750.35 -0.00066161 101.99 0.095895 18.263 0.054756 550.07 596.32 2.3541 1.5466 1.9538 217.10 0.27477 8.0272 0.018297
21.375 125.77 0.26065 331.12 344.46 1.4949 497.97 0.0020082 253.57 255.32 1.1922 1.6523 2.6802 743.64 -0.00053589 100.93 0.095420 18.752 0.053328 551.07 597.31 2.3534 1.5528 1.9665 216.78 0.27329 8.0599 0.018438
22.375 129.08 0.26779 335.44 349.13 1.5095 496.43 0.0020144 256.21 258.00 1.2012 1.6563 2.6906 736.94 -0.00040708 99.877 0.094948 19.252 0.051943 552.07 598.30 2.3526 1.5591 1.9795 216.45 0.27184 8.0929 0.018580
23.375 132.46 0.27510 339.79 353.84 1.5242 494.89 0.0020206 258.86 260.70 1.2101 1.6604 2.7012 730.22 -0.00027505 98.834 0.094478 19.763 0.050600 553.06 599.27 2.3519 1.5655 1.9927 216.11 0.27043 8.1263 0.018724
24.375 135.90 0.28258 344.18 358.59 1.5390 493.34 0.0020270 261.51 263.41 1.2191 1.6645 2.7120 723.49 -0.00013968 97.800 0.094009 20.285 0.049297 554.05 600.24 2.3512 1.5718 2.0061 215.75 0.26906 8.1600 0.018870
25.375 139.41 0.29025 348.60 363.38 1.5538 491.77 0.0020335 264.17 266.13 1.2280 1.6686 2.7230 716.76 -8.3775e-07 96.773 0.093543 20.820 0.048032 555.03 601.20 2.3504 1.5783 2.0199 215.39 0.26771 8.1941 0.019017
26.375 142.98 0.29811 353.05 368.21 1.5687 490.20 0.0020400 266.84 268.85 1.2370 1.6728 2.7342 710.01 0.00014161 95.755 0.093078 21.366 0.046804 556.01 602.15 2.3497 1.5847 2.0340 215.01 0.26640 8.2286 0.019167
27.375 146.62 0.30616 357.54 373.09 1.5837 488.61 0.0020466 269.52 271.59 1.2459 1.6770 2.7456 703.26 0.00028782 94.745 0.092615 21.924 0.045612 556.99 603.10 2.3490 1.5913 2.0484 214.62 0.26512 8.2634 0.019319
28.375 150.33 0.31441 362.06 378.00 1.5987 487.01 0.0020533 272.21 274.34 1.2549 1.6812 2.7573 696.49 0.00043793 93.742 0.092154 22.495 0.044454 557.96 604.03 2.3483 1.5978 2.0631 214.21 0.26387 8.2987 0.019472
29.375 154.10 0.32287 366.61 382.96 1.6138 485.40 0.0020601 274.91 277.10 1.2638 1.6854 2.7691 689.72 0.00059212 92.747 0.091695 23.079 0.043329 558.92 604.96 2.3476 1.6044 2.0781 213.80 0.26265 8.3344 0.019628
30.375 157.94 0.33153 371.20 387.96 1.6289 483.78 0.0020671 277.62 279.87 1.2728 1.6897 2.7813 682.93 0.00075055 91.760 0.091238 23.676 0.042237 559.88 605.88 2.3469 1.6111 2.0935 213.37 0.26147 8.3705 0.019786
31.375 161.86 0.34042 375.83 393.00 1.6441 482.15 0.0020741 280.34 282.66 1.2818 1.6939 2.7936 676.13 0.00091340 90.779 0.090782 24.287 0.041175 560.84 606.79 2.3462 1.6178 2.1092 212.93 0.26031 8.4071 0.019947
32.375 165.84 0.34952 380.49 398.08 1.6594 480.50 0.0020812 283.07 285.45 1.2908 1.6983 2.8063 669.32 0.0010809 89.806 0.090328 24.911 0.040143 561.79 607.69 2.3455 1.6246 2.1254 212.48 0.25919 8.4442 0.020110
33.375 169.90 0.35886 385.19 403.21 1.6747 478.83 0.0020884 285.81 288.26 1.2997 1.7026 2.8192 662.50 0.0012532 88.840 0.089876 25.549 0.039140 562.73 608.58 2.3448 1.6314 2.1419 212.01 0.25809 8.4818 0.020275
34.375 174.02 0.36843 389.92 408.38 1.6902 477.16 0.0020957 288.56 291.07 1.3087 1.7070 2.8324 655.67 0.0014305 87.880 0.089426 26.202 0.038164 563.67 609.46 2.3440 1.6383 2.1589 211.53 0.25702 8.5199 0.020443
35.375 178.22 0.37825 394.69 413.59 1.7056 475.47 0.0021032 291.32 293.90 1.3177 1.7114 2.8459 648.82 0.0016131 86.927 0.088977 26.870 0.037216 564.60 610.33 2.3433 1.6452 2.1763 211.04 0.25599 8.5586 0.020613
36.375 182.50 0.38833 399.49 418.85 1.7212 473.77 0.0021107 294.09 296.74 1.3267 1.7158 2.8597 641.96 0.0018012 85.980 0.088531 27.553 0.036293 565.52 611.19 2.3426 1.6522 2.1942 210.53 0.25498 8.5978 0.020786
37.375 186.84 0.39866 404.34 424.16 1.7368 472.05 0.0021184 296.87 299.60 1.3357 1.7203 2.8739 635.08 0.0019950 85.040 0.088085 28.252 0.035395 566.44 612.04 2.3419 1.6592 2.2125 210.01 0.25400 8.6376 0.020962
38.375 191.27 0.40927 409.22 429.50 1.7525 470.31 0.0021262 299.66 302.46 1.3447 1.7248 2.8884 628.19 0.0021949 84.105 0.087642 28.967 0.034522 567.35 612.88 2.3411 1.6663 2.2314 209.47 0.25305 8.6780 0.021141
39.375 195.77 0.42015 414.14 434.90 1.7683 468.56 0.0021342 302.46 305.34 1.3537 1.7293 2.9033 621.29 0.0024011 83.177 0.087200 29.699 0.033671 568.26 613.70 2.3404 1.6734 2.2508 208.92 0.25213 8.7190 0.021323
40.375 200.34 0.43133 419.09 440.34 1.7841 466.80 0.0021423 305.27 308.23 1.3627 1.7339 2.9185 614.37 0.0026140 82.254 0.086760 30.447 0.032844 569.15 614.52 2.3396 1.6806 2.2708 208.36 0.25123 8.7608 0.021508
41.375 205.00 0.44281 424.09 445.83 1.8000 465.01 0.0021505 308.10 311.14 1.3718 1.7385 2.9342 607.43 0.0028338 81.338 0.086322 31.214 0.032037 570.04 615.32 2.3389 1.6879 2.2913 207.78 0.25037 8.8032 0.021696
42.375 209.73 0.45460 429.12 451.37 1.8160 463.21 0.0021588 310.94 314.06 1.3808 1.7432 2.9502 600.47 0.0030609 80.426 0.085885 31.998 0.031252 570.92 616.11 2.3381 1.6952 2.3125 207.19 0.24953 8.8463 0.021888
43.375 214.54 0.46671 434.20 456.95 1.8321 461.40 0.0021673 313.79 316.99 1.3899 1.7478 2.9667 593.50 0.0032957 79.520 0.085449 32.800 0.030488 571.79 616.88 2.3373 1.7027 2.3344 206.58 0.24871 8.8902 0.022084
44.375 219.43 0.47916 439.31 462.59 1.8482 459.56 0.0021760 316.65 319.94 1.3989 1.7525 2.9837 586.51 0.0035386 78.619 0.085015 33.622 0.029742 572.65 617.65 2.3365 1.7101 2.3569 205.96 0.24793 8.9349 0.022283
45.375 224.41 0.49195 444.47 468.27 1.8644 457.71 0.0021848 319.52 322.90 1.4080 1.7573 3.0012 579.50 0.0037900 77.723 0.084583 34.463 0.029016 573.50 618.40 2.3357 1.7177 2.3802 205.32 0.24717 8.9805 0.022485
46.375 229.46 0.50511 449.66 474.00 1.8807 455.83 0.0021938 322.41 325.88 1.4171 1.7621 3.0192 572.46 0.0040504 76.832 0.084152 35.325 0.028308 574.34 619.13 2.3349 1.7253 2.4042 204.67 0.24644 9.0269 0.022692
47.375 234.60 0.51865 454.90 479.79 1.8971 453.94 0.0022029 325.31 328.87 1.4262 1.7669 3.0377 565.41 0.0043202 75.946 0.083723 36.208 0.027618 575.17 619.85 2.3340 1.7329 2.4291 204.00 0.24573 9.0742 0.022903
48.375 239.83 0.53258 460.18 485.62 1.9135 452.03 0.0022123 328.22 331.88 1.4353 1.7718 3.0569 558.34 0.0046000 75.064 0.083295 37.112 0.026945 576.00 620.55 2.3332 1.7407 2.4548 203.31 0.24505 9.1224 0.023119
49.375 245.13 0.54692 465.50 491.51 1.9300 450.09 0.0022218 331.15 334.90 1.4445 1.7767 3.0766 551.24 0.0048904 74.186 0.082868 38.039 0.026289 576.81 621.24 2.3323 1.7485 2.4815 202.61 0.24440 9.1716 0.023339
50.375 250.53 0.56169 470.87 497.44 1.9466 448.13 0.0022315 334.09 337.94 1.4536 1.7817 3.0970 544.13 0.0051920 73.313 0.082442 38.989 0.025648 577.61 621.91 2.3314 1.7564 2.5092 201.89 0.24377 9.2219 0.023564
51.375 256.01 0.57691 476.28 503.44 1.9633 446.15 0.0022414 337.04 341.00 1.4628 1.7867 3.1181 536.98 0.0055054 72.443 0.082018 39.962 0.025024 578.39 622.56 2.3304 1.7644 2.5379 201.16 0.24317 9.2733 0.023794
52.375 261.57 0.59259 481.73 509.48 1.9801 444.15 0.0022515 340.01 344.07 1.4720 1.7918 3.1400 529.82 0.0058313 71.577 0.081595 40.961 0.024414 579.17 623.20 2.3295 1.7724 2.5677 200.41 0.24260 9.3258 0.024029
53.375 267.23 0.60877 487.23 515.58 1.9970 442.12 0.0022618 343.00 347.17 1.4812 1.7969 3.1627 522.62 0.0061705 70.715 0.081174 41.985 0.023818 579.93 623.81 2.3285 1.7805 2.5987 199.63 0.24205 9.3795 0.024270
54.375 272.97 0.62546 492.78 521.74 2.0139 440.06 0.0022724 346.00 350.28 1.4904 1.8021 3.1862 515.40 0.0065239 69.856 0.080753 43.036 0.023237 580.68 624.41 2.3274 1.7887 2.6310 198.85 0.24154 9.4344 0.024516
55.375 278.81 0.64269 498.37 527.95 2.0310 437.98 0.0022832 349.02 353.40 1.4997 1.8073 3.2106 508.15 0.0068923 69.001 0.080334 44.114 0.022669 581.41 624.99 2.3264 1.7969 2.6646 198.04 0.24105 9.4907 0.024769
56.375 284.74 0.66048 504.01 534.21 2.0481 435.87 0.0022943 352.05 356.55 1.5090 1.8126 3.2360 500.87 0.0072767 68.148 0.079915 45.221 0.022114 582.13 625.54 2.3253 1.8052 2.6998 197.22 0.24059 9.5484 0.025028
57.375 290.76 0.67887 509.70 540.54 2.0654 433.73 0.0023056 355.10 359.72 1.5183 1.8179 3.2624 493.56 0.0076782 67.299 0.079498 46.358 0.021571 582.83 626.07 2.3241 1.8136 2.7365 196.37 0.24016 9.6075 0.025294
58.375 296.87 0.69789 515.44 546.93 2.0827 431.56 0.0023172 358.17 362.91 1.5276 1.8233 3.2900 486.22 0.0080980 66.451 0.079082 47.525 0.021041 583.52 626.58 2.3230 1.8220 2.7749 195.51 0.23976 9.6682 0.025568
59.375 303.08 0.71757 521.22 553.37 2.1001 429.36 0.0023290 361.25 366.12 1.5370 1.8288 3.3188 478.84 0.0085373 65.606 0.078666 48.726 0.020523 584.18 627.07 2.3218 1.8305 2.8152 194.63 0.23939 9.7305 0.025849
60.375 309.38 0.73796 527.06 559.88 2.1177 427.13 0.0023412 364.36 369.35 1.5464 1.8343 3.3489 471.43 0.0089976 64.763 0.078251 49.960 0.020016 584.83 627.53 2.3205 1.8391 2.8576 193.73 0.23905 9.7945 0.026138
61.375 315.78 0.75909 532.95 566.44 2.1353 424.87 0.0023537 367.48 372.60 1.5558 1.8400 3.3805 463.99 0.0094803 63.922 0.077838 51.229 0.019520 585.46 627.96 2.3192 1.8479 2.9022 192.82 0.23873 9.8603 0.026436
62.375 322.28 0.78100 538.89 573.07 2.1530 422.56 0.0023665 370.62 375.88 1.5653 1.8457 3.4136 456.50 0.0099871 63.083 0.077425 52.535 0.019035 586.07 628.37 2.3178 1.8567 2.9492 191.88 0.23845 9.9281 0.026744
63.375 328.88 0.80375 544.88 579.77 2.1709 420.22 0.0023797 373.79 379.18 1.5748 1.8514 3.4483 448.97 0.010520 62.244 0.077012 53.879 0.018560 586.66 628.74 2.3164 1.8656 2.9989 190.92 0.23819 9.9979 0.027061
64.375 335.58 0.82740 550.93 586.53 2.1888 417.85 0.0023932 376.97 382.51 1.5844 1.8573 3.4850 441.40 0.011081 61.407 0.076600 55.265 0.018095 587.22 629.09 2.3149 1.8747 3.0517 189.95 0.23796 10.070 0.027389
65.375 342.38 0.85199 557.04 593.36 2.2069 415.42 0.0024072 380.18 385.86 1.5939 1.8633 3.5236 433.79 0.011672 60.570 0.076189 56.692 0.017639 587.76 629.40 2.3133 1.8839 3.1077 188.95 0.23775 10.144 0.027729
66.375 349.28 0.87760 563.20 600.25 2.2250 412.96 0.0024215 383.41 389.25 1.6036 1.8693 3.5645 426.12 0.012296 59.733 0.075779 58.165 0.017193 588.28 629.68 2.3117 1.8933 3.1674 187.93 0.23757 10.221 0.028080
67.375 356.28 0.90430 569.42 607.22 2.2433 410.45 0.0024363 386.67 392.65 1.6133 1.8755 3.6078 418.41 0.012956 58.897 0.075368 59.684 0.016755 588.76 629.92 2.3100 1.9030 3.2311 186.89 0.23740 10.300 0.028446
68.375 363.40 0.93217 575.71 614.25 2.2618 407.89 0.0024516 389.95 396.09 1.6230 1.8818 3.6537 410.64 0.013655 58.059 0.074959 61.253 0.016326 589.22 630.13 2.3082 1.9129 3.2994 185.83 0.23724 10.382 0.028825
69.375 370.61 0.96130 582.05 621.36 2.2803 405.28 0.0024674 393.26 399.57 1.6328 1.8882 3.7027 402.81 0.014396 57.221 0.074549 62.875 0.015905 589.65 630.29 2.3064 1.9231 3.3727 184.74 0.23710 10.467 0.029221
70.375 377.94 0.99179 588.46 628.54 2.2990 402.62 0.0024838 396.60 403.07 1.6426 1.8947 3.7550 394.92 0.015183 56.381 0.074141 64.552 0.015491 590.04 630.41 2.3044 1.9336 3.4518 183.63 0.23697 10.555 0.029633
71.375 381.88 undefined 591.57 632.08 2.3080 65.000 0.015385 591.57 632.08 2.3080 1.9363 3.4432 184.00 0.23410 10.603 0.029797 65.000 0.015385 591.57 632.08 2.3080 1.9363 3.4432 184.00 0.23410 10.603 0.029797
72.375 384.60 undefined 593.51 634.30 2.3137 65.000 0.015385 593.51 634.30 2.3137 1.9364 3.4043 184.89 0.23036 10.635 0.029871 65.000 0.015385 593.51 634.30 2.3137 1.9364 3.4043 184.89 0.23036 10.635 0.029871
73.375 387.30 undefined 595.44 636.53 2.3193 65.000 0.015385 595.44 636.53 2.3193 1.9366 3.3677 185.78 0.22672 10.667 0.029950 65.000 0.015385 595.44 636.53 2.3193 1.9366 3.3677 185.78 0.22672 10.667 0.029950
74.375 390.00 undefined 597.38 638.75 2.3248 65.000 0.015385 597.38 638.75 2.3248 1.9369 3.3333 186.65 0.22317 10.700 0.030031 65.000 0.015385 597.38 638.75 2.3248 1.9369 3.3333 186.65 0.22317 10.700 0.030031
75.375 392.68 undefined 599.32 640.97 2.3304 65.000 0.015385 599.32 640.97 2.3304 1.9372 3.3007 187.52 0.21973 10.732 0.030116 65.000 0.015385 599.32 640.97 2.3304 1.9372 3.3007 187.52 0.21973 10.732 0.030116
76.375 395.35 undefined 601.26 643.19 2.3360 65.000 0.015385 601.26 643.19 2.3360 1.9377 3.2700 188.38 0.21638 10.764 0.030203 65.000 0.015385 601.26 643.19 2.3360 1.9377 3.2700 188.38 0.21638 10.764 0.030203
77.375 398.02 undefined 603.19 645.41 2.3415 65.000 0.015385 603.19 645.41 2.3415 1.9382 3.2409 189.23 0.21312 10.796 0.030293 65.000 0.015385 603.19 645.41 2.3415 1.9382 3.2409 189.23 0.21312 10.796 0.030293
78.375 400.67 undefined 605.13 647.63 2.3470 65.000 0.015385 605.13 647.63 2.3470 1.9388 3.2133 190.08 0.20995 10.828 0.030385 65.000 0.015385 605.13 647.63 2.3470 1.9388 3.2133 190.08 0.20995 10.828 0.030385
79.375 403.32 undefined 607.07 649.85 2.3525 65.000 0.015385 607.07 649.85 2.3525 1.9394 3.1873 190.92 0.20687 10.860 0.030480 65.000 0.015385 607.07 649.85 2.3525 1.9394 3.1873 190.92 0.20687 10.860 0.030480
80.375 405.96 undefined 609.01 652.07 2.3580 65.000 0.015385 609.01 652.07 2.3580 1.9402 3.1626 191.76 0.20387 10.892 0.030577 65.000 0.015385 609.01 652.07 2.3580 1.9402 3.1626 191.76 0.20387 10.892 0.030577
81.375 408.58 undefined 610.95 654.29 2.3635 65.000 0.015385 610.95 654.29 2.3635 1.9410 3.1392 192.59 0.20095 10.924 0.030677 65.000 0.015385 610.95 654.29 2.3635 1.9410 3.1392 192.59 0.20095 10.924 0.030677
82.375 411.21 undefined 612.89 656.51 2.3690 65.000 0.015385 612.89 656.51 2.3690 1.9418 3.1170 193.42 0.19810 10.955 0.030778 65.000 0.015385 612.89 656.51 2.3690 1.9418 3.1170 193.42 0.19810 10.955 0.030778
83.375 413.82 undefined 614.84 658.73 2.3744 65.000 0.015385 614.84 658.73 2.3744 1.9428 3.0960 194.24 0.19533 10.987 0.030881 65.000 0.015385 614.84 658.73 2.3744 1.9428 3.0960 194.24 0.19533 10.987 0.030881
84.375 416.42 undefined 616.78 660.95 2.3799 65.000 0.015385 616.78 660.95 2.3799 1.9438 3.0761 195.06 0.19262 11.019 0.030986 65.000 0.015385 616.78 660.95 2.3799 1.9438 3.0761 195.06 0.19262 11.019 0.030986
85.375 419.02 undefined 618.72 663.17 2.3853 65.000 0.015385 618.72 663.17 2.3853 1.9449 3.0572 195.87 0.18998 11.051 0.031093 65.000 0.015385 618.72 663.17 2.3853 1.9449 3.0572 195.87 0.18998 11.051 0.031093
86.375 421.61 undefined 620.67 665.39 2.3907 65.000 0.015385 620.67 665.39 2.3907 1.9462 3.0392 196.68 0.18741 11.082 0.031201 65.000 0.015385 620.67 665.39 2.3907 1.9462 3.0392 196.68 0.18741 11.082 0.031201
87.375 424.20 undefined 622.62 667.61 2.3961 65.000 0.015385 622.62 667.61 2.3961 1.9475 3.0222 197.48 0.18489 11.114 0.031311 65.000 0.015385 622.62 667.61 2.3961 1.9475 3.0222 197.48 0.18489 11.114 0.031311
88.375 426.77 undefined 624.56 669.83 2.4015 65.000 0.015385 624.56 669.83 2.4015 1.9489 3.0061 198.28 0.18243 11.146 0.031423 65.000 0.015385 624.56 669.83 2.4015 1.9489 3.0061 198.28 0.18243 11.146 0.031423
89.375 429.34 undefined 626.51 672.05 2.4069 65.000 0.015385 626.51 672.05 2.4069 1.9504 2.9908 199.07 0.18003 11.177 0.031536 65.000 0.015385 626.51 672.05 2.4069 1.9504 2.9908 199.07 0.18003 11.177 0.031536
90.375 431.91 undefined 628.46 674.28 2.4123 65.000 0.015385 628.46 674.28 2.4123 1.9521 2.9762 199.86 0.17768 11.209 0.031650 65.000 0.015385 628.46 674.28 2.4123 1.9521 2.9762 199.86 0.17768 11.209 0.031650
91.375 434.47 undefined 630.42 676.50 2.4176 65.000 0.015385 630.42 676.50 2.4176 1.9538 2.9624 200.65 0.17538 11.240 0.031765 65.000 0.015385 630.42 676.50 2.4176 1.9538 2.9624 200.65 0.17538 11.240 0.031765
92.375 437.02 undefined 632.37 678.73 2.4230 65.000 0.015385 632.37 678.73 2.4230 1.9556 2.9493 201.43 0.17313 11.272 0.031882 65.000 0.015385 632.37 678.73 2.4230 1.9556 2.9493 201.43 0.17313 11.272 0.031882
93.375 439.56 undefined 634.33 680.95 2.4283 65.000 0.015385 634.33 680.95 2.4283 1.9575 2.9368 202.21 0.17093 11.303 0.032000 65.000 0.015385 634.33 680.95 2.4283 1.9575 2.9368 202.21 0.17093 11.303 0.032000
94.375 442.11 undefined 636.29 683.18 2.4337 65.000 0.015385 636.29 683.18 2.4337 1.9594 2.9249 202.98 0.16878 11.335 0.032119 65.000 0.015385 636.29 683.18 2.4337 1.9594 2.9249 202.98 0.16878 11.335 0.032119
95.375 444.64 undefined 638.25 685.41 2.4390 65.000 0.015385 638.25 685.41 2.4390 1.9615 2.9136 203.75 0.16666 11.366 0.032239 65.000 0.015385 638.25 685.41 2.4390 1.9615 2.9136 203.75 0.16666 11.366 0.032239
96.375 447.17 undefined 640.21 687.64 2.4443 65.000 0.015385 640.21 687.64 2.4443 1.9636 2.9028 204.52 0.16460 11.397 0.032361 65.000 0.015385 640.21 687.64 2.4443 1.9636 2.9028 204.52 0.16460 11.397 0.032361
97.375 449.70 undefined 642.17 689.88 2.4496 65.000 0.015385 642.17 689.88 2.4496 1.9658 2.8926 205.28 0.16257 11.429 0.032483 65.000 0.015385 642.17 689.88 2.4496 1.9658 2.8926 205.28 0.16257 11.429 0.032483
98.375 452.22 undefined 644.14 692.11 2.4549 65.000 0.015385 644.14 692.11 2.4549 1.9680 2.8828 206.03 0.16058 11.460 0.032606 65.000 0.015385 644.14 692.11 2.4549 1.9680 2.8828 206.03 0.16058 11.460 0.032606
99.375 454.73 undefined 646.11 694.35 2.4602 65.000 0.015385 646.11 694.35 2.4602 1.9703 2.8735 206.79 0.15864 11.491 0.032731 65.000 0.015385 646.11 694.35 2.4602 1.9703 2.8735 206.79 0.15864 11.491 0.032731
100.38 457.25 undefined 648.08 696.58 2.4655 65.000 0.015385 648.08 696.58 2.4655 1.9727 2.8646 207.53 0.15673 11.522 0.032856 65.000 0.015385 648.08 696.58 2.4655 1.9727 2.8646 207.53 0.15673 11.522 0.032856
101.38 459.75 undefined 650.06 698.82 2.4708 65.000 0.015385 650.06 698.82 2.4708 1.9751 2.8561 208.28 0.15485 11.553 0.032982 65.000 0.015385 650.06 698.82 2.4708 1.9751 2.8561 208.28 0.15485 11.553 0.032982
102.38 462.25 undefined 652.03 701.07 2.4761 65.000 0.015385 652.03 701.07 2.4761 1.9776 2.8481 209.02 0.15302 11.584 0.033109 65.000 0.015385 652.03 701.07 2.4761 1.9776 2.8481 209.02 0.15302 11.584 0.033109
103.38 464.75 undefined 654.01 703.31 2.4813 65.000 0.015385 654.01 703.31 2.4813 1.9801 2.8404 209.76 0.15121 11.616 0.033236 65.000 0.015385 654.01 703.31 2.4813 1.9801 2.8404 209.76 0.15121 11.616 0.033236
104.38 467.25 undefined 655.99 705.55 2.4866 65.000 0.015385 655.99 705.55 2.4866 1.9827 2.8330 210.50 0.14945 11.647 0.033365 65.000 0.015385 655.99 705.55 2.4866 1.9827 2.8330 210.50 0.14945 11.647 0.033365
105.38 469.74 undefined 657.98 707.80 2.4918 65.000 0.015385 657.98 707.80 2.4918 1.9853 2.8260 211.23 0.14771 11.678 0.033494 65.000 0.015385 657.98 707.80 2.4918 1.9853 2.8260 211.23 0.14771 11.678 0.033494
106.38 472.22 undefined 659.96 710.05 2.4971 65.000 0.015385 659.96 710.05 2.4971 1.9880 2.8193 211.95 0.14601 11.709 0.033624 65.000 0.015385 659.96 710.05 2.4971 1.9880 2.8193 211.95 0.14601 11.709 0.033624
107.38 474.70 undefined 661.95 712.31 2.5023 65.000 0.015385 661.95 712.31 2.5023 1.9907 2.8129 212.68 0.14433 11.739 0.033755 65.000 0.015385 661.95 712.31 2.5023 1.9907 2.8129 212.68 0.14433 11.739 0.033755
108.38 477.18 undefined 663.94 714.56 2.5075 65.000 0.015385 663.94 714.56 2.5075 1.9934 2.8068 213.40 0.14269 11.770 0.033887 65.000 0.015385 663.94 714.56 2.5075 1.9934 2.8068 213.40 0.14269 11.770 0.033887
109.38 479.65 undefined 665.94 716.82 2.5128 65.000 0.015385 665.94 716.82 2.5128 1.9962 2.8010 214.12 0.14107 11.801 0.034019 65.000 0.015385 665.94 716.82 2.5128 1.9962 2.8010 214.12 0.14107 11.801 0.034019
110.38 482.12 undefined 667.94 719.08 2.5180 65.000 0.015385 667.94 719.08 2.5180 1.9990 2.7954 214.83 0.13949 11.832 0.034152 65.000 0.015385 667.94 719.08 2.5180 1.9990 2.7954 214.83 0.13949 11.832 0.034152
111.38 484.59 undefined 669.94 721.34 2.5232 65.000 0.015385 669.94 721.34 2.5232 2.0018 2.7901 215.55 0.13793 11.863 0.034286 65.000 0.015385 669.94 721.34 2.5232 2.0018 2.7901 215.55 0.13793 11.863 0.034286
112.38 487.05 undefined 671.94 723.60 2.5284 65.000 0.015385 671.94 723.60 2.5284 2.0046 2.7850 216.25 0.13640 11.894 0.034420 65.000 0.015385 671.94 723.60 2.5284 2.0046 2.7850 216.25 0.13640 11.894 0.034420
113.38 489.51 undefined 673.95 725.87 2.5336 65.000 0.015385 673.95 725.87 2.5336 2.0075 2.7802 216.96 0.13490 11.924 0.034555 65.000 0.015385 673.95 725.87 2.5336 2.0075 2.7802 216.96 0.13490 11.924 0.034555
114.38 491.97 undefined 675.96 728.14 2.5388 65.000 0.015385 675.96 728.14 2.5388 2.0104 2.7756 217.66 0.13342 11.955 0.034690 65.000 0.015385 675.96 728.14 2.5388 2.0104 2.7756 217.66 0.13342 11.955 0.034690
115.38 494.42 undefined 677.97 730.41 2.5440 65.000 0.015385 677.97 730.41 2.5440 2.0134 2.7712 218.36 0.13197 11.986 0.034827 65.000 0.015385 677.97 730.41 2.5440 2.0134 2.7712 218.36 0.13197 11.986 0.034827
116.38 496.87 undefined 679.98 732.69 2.5491 65.000 0.015385 679.98 732.69 2.5491 2.0164 2.7671 219.06 0.13054 12.016 0.034963 65.000 0.015385 679.98 732.69 2.5491 2.0164 2.7671 219.06 0.13054 12.016 0.034963
117.38 499.31 undefined 682.00 734.96 2.5543 65.000 0.015385 682.00 734.96 2.5543 2.0194 2.7631 219.75 0.12913 12.047 0.035101 65.000 0.015385 682.00 734.96 2.5543 2.0194 2.7631 219.75 0.12913 12.047 0.035101
118.38 501.76 undefined 684.02 737.24 2.5595 65.000 0.015385 684.02 737.24 2.5595 2.0224 2.7593 220.45 0.12775 12.077 0.035239 65.000 0.015385 684.02 737.24 2.5595 2.0224 2.7593 220.45 0.12775 12.077 0.035239
119.38 504.20 undefined 686.05 739.53 2.5646 65.000 0.015385 686.05 739.53 2.5646 2.0254 2.7557 221.13 0.12639 12.108 0.035377 65.000 0.015385 686.05 739.53 2.5646 2.0254 2.7557 221.13 0.12639 12.108 0.035377
120.38 506.63 undefined 688.07 741.81 2.5698 65.000 0.015385 688.07 741.81 2.5698 2.0285 2.7523 221.82 0.12505 12.138 0.035516 65.000 0.015385 688.07 741.81 2.5698 2.0285 2.7523 221.82 0.12505 12.138 0.035516
121.38 509.07 undefined 690.10 744.10 2.5749 65.000 0.015385 690.10 744.10 2.5749 2.0315 2.7491 222.50 0.12374 12.169 0.035656 65.000 0.015385 690.10 744.10 2.5749 2.0315 2.7491 222.50 0.12374 12.169 0.035656
122.38 511.50 undefined 692.14 746.39 2.5801 65.000 0.015385 692.14 746.39 2.5801 2.0346 2.7460 223.18 0.12244 12.199 0.035796 65.000 0.015385 692.14 746.39 2.5801 2.0346 2.7460 223.18 0.12244 12.199 0.035796
123.38 513.92 undefined 694.17 748.68 2.5852 65.000 0.015385 694.17 748.68 2.5852 2.0378 2.7431 223.86 0.12117 12.229 0.035937 65.000 0.015385 694.17 748.68 2.5852 2.0378 2.7431 223.86 0.12117 12.229 0.035937
124.38 516.35 undefined 696.21 750.98 2.5904 65.000 0.015385 696.21 750.98 2.5904 2.0409 2.7403 224.53 0.11992 12.260 0.036078 65.000 0.015385 696.21 750.98 2.5904 2.0409 2.7403 224.53 0.11992 12.260 0.036078
125.38 518.77 undefined 698.25 753.28 2.5955 65.000 0.015385 698.25 753.28 2.5955 2.0441 2.7377 225.21 0.11869 12.290 0.036220 65.000 0.015385 698.25 753.28 2.5955 2.0441 2.7377 225.21 0.11869 12.290 0.036220
126.38 521.19 undefined 700.30 755.58 2.6006 65.000 0.015385 700.30 755.58 2.6006 2.0472 2.7352 225.88 0.11747 12.320 0.036363 65.000 0.015385 700.30 755.58 2.6006 2.0472 2.7352 225.88 0.11747 12.320 0.036363
127.38 523.60 undefined 702.35 757.89 2.6058 65.000 0.015385 702.35 757.89 2.6058 2.0504 2.7329 226.54 0.11628 12.350 0.036505 65.000 0.015385 702.35 757.89 2.6058 2.0504 2.7329 226.54 0.11628 12.350 0.036505
128.38 526.02 undefined 704.40 760.20 2.6109 65.000 0.015385 704.40 760.20 2.6109 2.0536 2.7307 227.21 0.11510 12.381 0.036649 65.000 0.015385 704.40 760.20 2.6109 2.0536 2.7307 227.21 0.11510 12.381 0.036649
129.38 528.43 undefined 706.45 762.51 2.6160 65.000 0.015385 706.45 762.51 2.6160 2.0568 2.7286 227.87 0.11394 12.411 0.036793 65.000 0.015385 706.45 762.51 2.6160 2.0568 2.7286 227.87 0.11394 12.411 0.036793
130.38 530.84 undefined 708.51 764.82 2.6211 65.000 0.015385 708.51 764.82 2.6211 2.0601 2.7267 228.53 0.11280 12.441 0.036937 65.000 0.015385 708.51 764.82 2.6211 2.0601 2.7267 228.53 0.11280 12.441 0.036937
131.38 533.24 undefined 710.57 767.14 2.6262 65.000 0.015385 710.57 767.14 2.6262 2.0633 2.7248 229.19 0.11168 12.471 0.037082 65.000 0.015385 710.57 767.14 2.6262 2.0633 2.7248 229.19 0.11168 12.471 0.037082
132.38 535.65 undefined 712.64 769.46 2.6313 65.000 0.015385 712.64 769.46 2.6313 2.0666 2.7231 229.84 0.11057 12.501 0.037227 65.000 0.015385 712.64 769.46 2.6313 2.0666 2.7231 229.84 0.11057 12.501 0.037227
133.38 538.05 undefined 714.71 771.78 2.6364 65.000 0.015385 714.71 771.78 2.6364 2.0699 2.7215 230.50 0.10948 12.531 0.037373 65.000 0.015385 714.71 771.78 2.6364 2.0699 2.7215 230.50 0.10948 12.531 0.037373
134.38 540.44 undefined 716.78 774.11 2.6415 65.000 0.015385 716.78 774.11 2.6415 2.0732 2.7201 231.15 0.10841 12.561 0.037519 65.000 0.015385 716.78 774.11 2.6415 2.0732 2.7201 231.15 0.10841 12.561 0.037519
135.38 542.84 undefined 718.85 776.44 2.6466 65.000 0.015385 718.85 776.44 2.6466 2.0764 2.7187 231.80 0.10735 12.591 0.037665 65.000 0.015385 718.85 776.44 2.6466 2.0764 2.7187 231.80 0.10735 12.591 0.037665
136.38 545.23 undefined 720.93 778.77 2.6516 65.000 0.015385 720.93 778.77 2.6516 2.0798 2.7174 232.44 0.10631 12.621 0.037813 65.000 0.015385 720.93 778.77 2.6516 2.0798 2.7174 232.44 0.10631 12.621 0.037813
137.38 547.62 undefined 723.01 781.10 2.6567 65.000 0.015385 723.01 781.10 2.6567 2.0831 2.7162 233.09 0.10528 12.651 0.037960 65.000 0.015385 723.01 781.10 2.6567 2.0831 2.7162 233.09 0.10528 12.651 0.037960
138.38 550.01 undefined 725.10 783.44 2.6618 65.000 0.015385 725.10 783.44 2.6618 2.0864 2.7152 233.73 0.10427 12.681 0.038108 65.000 0.015385 725.10 783.44 2.6618 2.0864 2.7152 233.73 0.10427 12.681 0.038108
139.38 552.40 undefined 727.19 785.78 2.6669 65.000 0.015385 727.19 785.78 2.6669 2.0898 2.7142 234.37 0.10327 12.711 0.038257 65.000 0.015385 727.19 785.78 2.6669 2.0898 2.7142 234.37 0.10327 12.711 0.038257
140.38 554.78 undefined 729.28 788.13 2.6719 65.000 0.015385 729.28 788.13 2.6719 2.0931 2.7133 235.00 0.10229 12.740 0.038405 65.000 0.015385 729.28 788.13 2.6719 2.0931 2.7133 235.00 0.10229 12.740 0.038405
141.38 557.17 undefined 731.37 790.47 2.6770 65.000 0.015385 731.37 790.47 2.6770 2.0965 2.7125 235.64 0.10132 12.770 0.038555 65.000 0.015385 731.37 790.47 2.6770 2.0965 2.7125 235.64 0.10132 12.770 0.038555
142.38 559.55 undefined 733.47 792.82 2.6820 65.000 0.015385 733.47 792.82 2.6820 2.0998 2.7118 236.27 0.10036 12.800 0.038704 65.000 0.015385 733.47 792.82 2.6820 2.0998 2.7118 236.27 0.10036 12.800 0.038704
143.38 561.92 undefined 735.57 795.18 2.6871 65.000 0.015385 735.57 795.18 2.6871 2.1032 2.7112 236.90 0.099418 12.829 0.038855 65.000 0.015385 735.57 795.18 2.6871 2.1032 2.7112 236.90 0.099418 12.829 0.038855
144.38 564.30 undefined 737.68 797.53 2.6921 65.000 0.015385 737.68 797.53 2.6921 2.1066 2.7106 237.53 0.098490 12.859 0.039005 65.000 0.015385 737.68 797.53 2.6921 2.1066 2.7106 237.53 0.098490 12.859 0.039005
145.38 566.67 undefined 739.79 799.89 2.6972 65.000 0.015385 739.79 799.89 2.6972 2.1100 2.7102 238.16 0.097574 12.889 0.039156 65.000 0.015385 739.79 799.89 2.6972 2.1100 2.7102 238.16 0.097574 12.889 0.039156
146.38 569.04 undefined 741.90 802.26 2.7022 65.000 0.015385 741.90 802.26 2.7022 2.1134 2.7098 238.78 0.096671 12.918 0.039308 65.000 0.015385 741.90 802.26 2.7022 2.1134 2.7098 238.78 0.096671 12.918 0.039308
147.38 571.41 undefined 744.01 804.62 2.7073 65.000 0.015385 744.01 804.62 2.7073 2.1168 2.7095 239.40 0.095781 12.948 0.039459 65.000 0.015385 744.01 804.62 2.7073 2.1168 2.7095 239.40 0.095781 12.948 0.039459
148.38 573.78 undefined 746.13 806.99 2.7123 65.000 0.015385 746.13 806.99 2.7123 2.1203 2.7093 240.03 0.094902 12.977 0.039612 65.000 0.015385 746.13 806.99 2.7123 2.1203 2.7093 240.03 0.094902 12.977 0.039612
149.38 576.15 undefined 748.25 809.37 2.7173 65.000 0.015385 748.25 809.37 2.7173 2.1237 2.7091 240.64 0.094036 13.007 0.039764 65.000 0.015385 748.25 809.37 2.7173 2.1237 2.7091 240.64 0.094036 13.007 0.039764
150.38 578.51 undefined 750.38 811.74 2.7223 65.000 0.015385 750.38 811.74 2.7223 2.1271 2.7090 241.26 0.093182 13.036 0.039917 65.000 0.015385 750.38 811.74 2.7223 2.1271 2.7090 241.26 0.093182 13.036 0.039917
151.38 580.87 undefined 752.51 814.12 2.7274 65.000 0.015385 752.51 814.12 2.7274 2.1306 2.7090 241.88 0.092339 13.066 0.040071 65.000 0.015385 752.51 814.12 2.7274 2.1306 2.7090 241.88 0.092339 13.066 0.040071
152.38 583.23 undefined 754.64 816.50 2.7324 65.000 0.015385 754.64 816.50 2.7324 2.1340 2.7090 242.49 0.091507 13.095 0.040224 65.000 0.015385 754.64 816.50 2.7324 2.1340 2.7090 242.49 0.091507 13.095 0.040224
153.38 585.59 undefined 756.78 818.89 2.7374 65.000 0.015385 756.78 818.89 2.7374 2.1375 2.7091 243.10 0.090687 13.125 0.040379 65.000 0.015385 756.78 818.89 2.7374 2.1375 2.7091 243.10 0.090687 13.125 0.040379
154.38 587.94 undefined 758.91 821.28 2.7424 65.000 0.015385 758.91 821.28 2.7424 2.1409 2.7093 243.71 0.089878 13.154 0.040533 65.000 0.015385 758.91 821.28 2.7424 2.1409 2.7093 243.71 0.089878 13.154 0.040533
155.38 590.30 undefined 761.06 823.67 2.7474 65.000 0.015385 761.06 823.67 2.7474 2.1444 2.7095 244.32 0.089079 13.183 0.040688 65.000 0.015385 761.06 823.67 2.7474 2.1444 2.7095 244.32 0.089079 13.183 0.040688
156.38 592.65 undefined 763.20 826.07 2.7524 65.000 0.015385 763.20 826.07 2.7524 2.1479 2.7098 244.92 0.088291 13.212 0.040843 65.000 0.015385 763.20 826.07 2.7524 2.1479 2.7098 244.92 0.088291 13.212 0.040843
157.38 595.00 undefined 765.35 828.47 2.7574 65.000 0.015385 765.35 828.47 2.7574 2.1514 2.7102 245.52 0.087514 13.242 0.040999 65.000 0.015385 765.35 828.47 2.7574 2.1514 2.7102 245.52 0.087514 13.242 0.040999
158.38 597.35 undefined 767.51 830.87 2.7624 65.000 0.015385 767.51 830.87 2.7624 2.1549 2.7106 246.13 0.086746 13.271 0.041155 65.000 0.015385 767.51 830.87 2.7624 2.1549 2.7106 246.13 0.086746 13.271 0.041155
159.38 599.70 undefined 769.66 833.27 2.7674 65.000 0.015385 769.66 833.27 2.7674 2.1584 2.7111 246.73 0.085989 13.300 0.041312 65.000 0.015385 769.66 833.27 2.7674 2.1584 2.7111 246.73 0.085989 13.300 0.041312
160.38 602.04 undefined 771.82 835.68 2.7724 65.000 0.015385 771.82 835.68 2.7724 2.1619 2.7116 247.33 0.085241 13.329 0.041469 65.000 0.015385 771.82 835.68 2.7724 2.1619 2.7116 247.33 0.085241 13.329 0.041469
161.38 604.38 undefined 773.99 838.10 2.7774 65.000 0.015385 773.99 838.10 2.7774 2.1654 2.7121 247.92 0.084503 13.358 0.041626 65.000 0.015385 773.99 838.10 2.7774 2.1654 2.7121 247.92 0.084503 13.358 0.041626
162.38 606.73 undefined 776.15 840.51 2.7823 65.000 0.015385 776.15 840.51 2.7823 2.1689 2.7128 248.52 0.083775 13.387 0.041783 65.000 0.015385 776.15 840.51 2.7823 2.1689 2.7128 248.52 0.083775 13.387 0.041783
163.38 609.07 undefined 778.32 842.93 2.7873 65.000 0.015385 778.32 842.93 2.7873 2.1724 2.7134 249.11 0.083056 13.416 0.041941 65.000 0.015385 778.32 842.93 2.7873 2.1724 2.7134 249.11 0.083056 13.416 0.041941
164.38 611.40 undefined 780.50 845.35 2.7923 65.000 0.015385 780.50 845.35 2.7923 2.1759 2.7142 249.70 0.082346 13.445 0.042100 65.000 0.015385 780.50 845.35 2.7923 2.1759 2.7142 249.70 0.082346 13.445 0.042100
165.38 613.74 undefined 782.68 847.78 2.7973 65.000 0.015385 782.68 847.78 2.7973 2.1794 2.7149 250.29 0.081645 13.474 0.042258 65.000 0.015385 782.68 847.78 2.7973 2.1794 2.7149 250.29 0.081645 13.474 0.042258
166.38 616.08 undefined 784.86 850.21 2.8022 65.000 0.015385 784.86 850.21 2.8022 2.1829 2.7157 250.88 0.080953 13.503 0.042417 65.000 0.015385 784.86 850.21 2.8022 2.1829 2.7157 250.88 0.080953 13.503 0.042417
167.38 618.41 undefined 787.04 852.64 2.8072 65.000 0.015385 787.04 852.64 2.8072 2.1865 2.7166 251.47 0.080269 13.532 0.042577 65.000 0.015385 787.04 852.64 2.8072 2.1865 2.7166 251.47 0.080269 13.532 0.042577
168.38 620.74 undefined 789.23 855.07 2.8122 65.000 0.015385 789.23 855.07 2.8122 2.1900 2.7175 252.05 0.079595 13.561 0.042737 65.000 0.015385 789.23 855.07 2.8122 2.1900 2.7175 252.05 0.079595 13.561 0.042737
169.38 623.07 undefined 791.42 857.51 2.8171 65.000 0.015385 791.42 857.51 2.8171 2.1935 2.7185 252.63 0.078928 13.590 0.042897 65.000 0.015385 791.42 857.51 2.8171 2.1935 2.7185 252.63 0.078928 13.590 0.042897
170.38 625.40 undefined 793.62 859.96 2.8221 65.000 0.015385 793.62 859.96 2.8221 2.1971 2.7194 253.21 0.078270 13.619 0.043057 65.000 0.015385 793.62 859.96 2.8221 2.1971 2.7194 253.21 0.078270 13.619 0.043057
171.38 627.73 undefined 795.82 862.40 2.8270 65.000 0.015385 795.82 862.40 2.8270 2.2006 2.7205 253.79 0.077620 13.648 0.043218 65.000 0.015385 795.82 862.40 2.8270 2.2006 2.7205 253.79 0.077620 13.648 0.043218
172.38 630.06 undefined 798.02 864.85 2.8320 65.000 0.015385 798.02 864.85 2.8320 2.2042 2.7215 254.37 0.076978 13.676 0.043379 65.000 0.015385 798.02 864.85 2.8320 2.2042 2.7215 254.37 0.076978 13.676 0.043379
173.38 632.38 undefined 800.22 867.30 2.8369 65.000 0.015385 800.22 867.30 2.8369 2.2077 2.7227 254.95 0.076344 13.705 0.043541 65.000 0.015385 800.22 867.30 2.8369 2.2077 2.7227 254.95 0.076344 13.705 0.043541
174.38 634.71 undefined 802.43 869.76 2.8419 65.000 0.015385 802.43 869.76 2.8419 2.2113 2.7238 255.52 0.075717 13.734 0.043703 65.000 0.015385 802.43 869.76 2.8419 2.2113 2.7238 255.52 0.075717 13.734 0.043703
175.38 637.03 undefined 804.65 872.22 2.8468 65.000 0.015385 804.65 872.22 2.8468 2.2148 2.7250 256.10 0.075099 13.762 0.043865 65.000 0.015385 804.65 872.22 2.8468 2.2148 2.7250 256.10 0.075099 13.762 0.043865
176.38 639.35 undefined 806.86 874.68 2.8517 65.000 0.015385 806.86 874.68 2.8517 2.2184 2.7262 256.67 0.074487 13.791 0.044027 65.000 0.015385 806.86 874.68 2.8517 2.2184 2.7262 256.67 0.074487 13.791 0.044027
177.38 641.67 undefined 809.08 877.15 2.8567 65.000 0.015385 809.08 877.15 2.8567 2.2220 2.7275 257.24 0.073883 13.820 0.044190 65.000 0.015385 809.08 877.15 2.8567 2.2220 2.7275 257.24 0.073883 13.820 0.044190
178.38 643.99 undefined 811.31 879.62 2.8616 65.000 0.015385 811.31 879.62 2.8616 2.2255 2.7288 257.81 0.073287 13.848 0.044354 65.000 0.015385 811.31 879.62 2.8616 2.2255 2.7288 257.81 0.073287 13.848 0.044354
179.38 646.30 undefined 813.54 882.09 2.8665 65.000 0.015385 813.54 882.09 2.8665 2.2291 2.7301 258.38 0.072697 13.877 0.044517 65.000 0.015385 813.54 882.09 2.8665 2.2291 2.7301 258.38 0.072697 13.877 0.044517
180.38 648.62 undefined 815.77 884.57 2.8715 65.000 0.015385 815.77 884.57 2.8715 2.2327 2.7315 258.94 0.072114 13.905 0.044681 65.000 0.015385 815.77 884.57 2.8715 2.2327 2.7315 258.94 0.072114 13.905 0.044681
181.38 650.93 undefined 818.00 887.05 2.8764 65.000 0.015385 818.00 887.05 2.8764 2.2362 2.7329 259.51 0.071539 13.934 0.044845 65.000 0.015385 818.00 887.05 2.8764 2.2362 2.7329 259.51 0.071539 13.934 0.044845
182.38 653.24 undefined 820.24 889.53 2.8813 65.000 0.015385 820.24 889.53 2.8813 2.2398 2.7343 260.07 0.070970 13.962 0.045010 65.000 0.015385 820.24 889.53 2.8813 2.2398 2.7343 260.07 0.070970 13.962 0.045010
183.38 655.56 undefined 822.48 892.02 2.8862 65.000 0.015385 822.48 892.02 2.8862 2.2434 2.7358 260.63 0.070407 13.991 0.045175 65.000 0.015385 822.48 892.02 2.8862 2.2434 2.7358 260.63 0.070407 13.991 0.045175
184.38 657.87 undefined 824.73 894.51 2.8911 65.000 0.015385 824.73 894.51 2.8911 2.2470 2.7373 261.19 0.069852 14.019 0.045340 65.000 0.015385 824.73 894.51 2.8911 2.2470 2.7373 261.19 0.069852 14.019 0.045340
185.38 660.18 undefined 826.97 897.00 2.8960 65.000 0.015385 826.97 897.00 2.8960 2.2506 2.7388 261.75 0.069303 14.047 0.045506 65.000 0.015385 826.97 897.00 2.8960 2.2506 2.7388 261.75 0.069303 14.047 0.045506
186.38 662.48 undefined 829.23 899.50 2.9009 65.000 0.015385 829.23 899.50 2.9009 2.2541 2.7404 262.31 0.068760 14.076 0.045672 65.000 0.015385 829.23 899.50 2.9009 2.2541 2.7404 262.31 0.068760 14.076 0.045672
187.38 664.79 undefined 831.48 902.00 2.9058 65.000 0.015385 831.48 902.00 2.9058 2.2577 2.7420 262.87 0.068223 14.104 0.045838 65.000 0.015385 831.48 902.00 2.9058 2.2577 2.7420 262.87 0.068223 14.104 0.045838
188.38 667.09 undefined 833.74 904.50 2.9108 65.000 0.015385 833.74 904.50 2.9108 2.2613 2.7436 263.42 0.067693 14.132 0.046005 65.000 0.015385 833.74 904.50 2.9108 2.2613 2.7436 263.42 0.067693 14.132 0.046005
189.38 669.40 undefined 836.01 907.01 2.9156 65.000 0.015385 836.01 907.01 2.9156 2.2649 2.7452 263.98 0.067169 14.161 0.046171 65.000 0.015385 836.01 907.01 2.9156 2.2649 2.7452 263.98 0.067169 14.161 0.046171
190.38 671.70 undefined 838.27 909.52 2.9205 65.000 0.015385 838.27 909.52 2.9205 2.2685 2.7469 264.53 0.066650 14.189 0.046339 65.000 0.015385 838.27 909.52 2.9205 2.2685 2.7469 264.53 0.066650 14.189 0.046339
191.38 674.00 undefined 840.54 912.04 2.9254 65.000 0.015385 840.54 912.04 2.9254 2.2721 2.7486 265.08 0.066138 14.217 0.046506 65.000 0.015385 840.54 912.04 2.9254 2.2721 2.7486 265.08 0.066138 14.217 0.046506
192.38 676.30 undefined 842.82 914.55 2.9303 65.000 0.015385 842.82 914.55 2.9303 2.2757 2.7503 265.63 0.065631 14.245 0.046674 65.000 0.015385 842.82 914.55 2.9303 2.2757 2.7503 265.63 0.065631 14.245 0.046674
193.38 678.60 undefined 845.09 917.08 2.9352 65.000 0.015385 845.09 917.08 2.9352 2.2793 2.7521 266.18 0.065130 14.273 0.046843 65.000 0.015385 845.09 917.08 2.9352 2.2793 2.7521 266.18 0.065130 14.273 0.046843
194.38 680.90 undefined 847.37 919.60 2.9401 65.000 0.015385 847.37 919.60 2.9401 2.2829 2.7538 266.72 0.064635 14.301 0.047011 65.000 0.015385 847.37 919.60 2.9401 2.2829 2.7538 266.72 0.064635 14.301 0.047011
195.38 683.20 undefined 849.66 922.13 2.9450 65.000 0.015385 849.66 922.13 2.9450 2.2865 2.7556 267.27 0.064145 14.329 0.047180 65.000 0.015385 849.66 922.13 2.9450 2.2865 2.7556 267.27 0.064145 14.329 0.047180
196.38 685.50 undefined 851.95 924.66 2.9499 65.000 0.015385 851.95 924.66 2.9499 2.2901 2.7574 267.81 0.063661 14.357 0.047349 65.000 0.015385 851.95 924.66 2.9499 2.2901 2.7574 267.81 0.063661 14.357 0.047349
197.38 687.79 undefined 854.24 927.20 2.9547 65.000 0.015385 854.24 927.20 2.9547 2.2937 2.7593 268.36 0.063182 14.385 0.047519 65.000 0.015385 854.24 927.20 2.9547 2.2937 2.7593 268.36 0.063182 14.385 0.047519
198.38 690.08 undefined 856.53 929.73 2.9596 65.000 0.015385 856.53 929.73 2.9596 2.2973 2.7612 268.90 0.062708 14.413 0.047689 65.000 0.015385 856.53 929.73 2.9596 2.2973 2.7612 268.90 0.062708 14.413 0.047689
199.38 692.38 undefined 858.83 932.28 2.9645 65.000 0.015385 858.83 932.28 2.9645 2.3009 2.7630 269.44 0.062240 14.441 0.047859 65.000 0.015385 858.83 932.28 2.9645 2.3009 2.7630 269.44 0.062240 14.441 0.047859
200.38 694.67 undefined 861.14 934.82 2.9693 65.000 0.015385 861.14 934.82 2.9693 2.3045 2.7650 269.98 0.061777 14.469 0.048029 65.000 0.015385 861.14 934.82 2.9693 2.3045 2.7650 269.98 0.061777 14.469 0.048029
201.38 696.96 undefined 863.44 937.37 2.9742 65.000 0.015385 863.44 937.37 2.9742 2.3081 2.7669 270.51 0.061319 14.497 0.048200 65.000 0.015385 863.44 937.37 2.9742 2.3081 2.7669 270.51 0.061319 14.497 0.048200
202.38 699.25 undefined 865.75 939.92 2.9791 65.000 0.015385 865.75 939.92 2.9791 2.3117 2.7688 271.05 0.060865 14.525 0.048371 65.000 0.015385 865.75 939.92 2.9791 2.3117 2.7688 271.05 0.060865 14.525 0.048371
203.38 701.54 undefined 868.07 942.48 2.9839 65.000 0.015385 868.07 942.48 2.9839 2.3153 2.7708 271.59 0.060417 14.553 0.048543 65.000 0.015385 868.07 942.48 2.9839 2.3153 2.7708 271.59 0.060417 14.553 0.048543
204.38 703.83 undefined 870.38 945.04 2.9888 65.000 0.015385 870.38 945.04 2.9888 2.3189 2.7728 272.12 0.059974 14.580 0.048714 65.000 0.015385 870.38 945.04 2.9888 2.3189 2.7728 272.12 0.059974 14.580 0.048714
205.38 706.11 undefined 872.70 947.60 2.9936 65.000 0.015385 872.70 947.60 2.9936 2.3225 2.7748 272.65 0.059535 14.608 0.048887 65.000 0.015385 872.70 947.60 2.9936 2.3225 2.7748 272.65 0.059535 14.608 0.048887
206.38 708.40 undefined 875.03 950.17 2.9985 65.000 0.015385 875.03 950.17 2.9985 2.3261 2.7769 273.19 0.059101 14.636 0.049059 65.000 0.015385 875.03 950.17 2.9985 2.3261 2.7769 273.19 0.059101 14.636 0.049059
207.38 710.69 undefined 877.36 952.74 3.0033 65.000 0.015385 877.36 952.74 3.0033 2.3297 2.7789 273.72 0.058672 14.664 0.049232 65.000 0.015385 877.36 952.74 3.0033 2.3297 2.7789 273.72 0.058672 14.664 0.049232
208.38 712.97 undefined 879.69 955.31 3.0082 65.000 0.015385 879.69 955.31 3.0082 2.3333 2.7810 274.25 0.058247 14.691 0.049405 65.000 0.015385 879.69 955.31 3.0082 2.3333 2.7810 274.25 0.058247 14.691 0.049405
209.38 715.25 undefined 882.02 957.89 3.0130 65.000 0.015385 882.02 957.89 3.0130 2.3369 2.7831 274.77 0.057827 14.719 0.049578 65.000 0.015385 882.02 957.89 3.0130 2.3369 2.7831 274.77 0.057827 14.719 0.049578
210.38 717.53 undefined 884.36 960.47 3.0179 65.000 0.015385 884.36 960.47 3.0179 2.3405 2.7852 275.30 0.057411 14.747 0.049752 65.000 0.015385 884.36 960.47 3.0179 2.3405 2.7852 275.30 0.057411 14.747 0.049752
211.38 719.82 undefined 886.70 963.06 3.0227 65.000 0.015385 886.70 963.06 3.0227 2.3441 2.7873 275.83 0.057000 14.774 0.049926 65.000 0.015385 886.70 963.06 3.0227 2.3441 2.7873 275.83 0.057000 14.774 0.049926
212.38 722.10 undefined 889.05 965.64 3.0276 65.000 0.015385 889.05 965.64 3.0276 2.3477 2.7894 276.35 0.056593 14.802 0.050100 65.000 0.015385 889.05 965.64 3.0276 2.3477 2.7894 276.35 0.056593 14.802 0.050100
213.38 724.38 undefined 891.40 968.24 3.0324 65.000 0.015385 891.40 968.24 3.0324 2.3513 2.7916 276.87 0.056190 14.829 0.050274 65.000 0.015385 891.40 968.24 3.0324 2.3513 2.7916 276.87 0.056190 14.829 0.050274
214.38 726.65 undefined 893.75 970.83 3.0372 65.000 0.015385 893.75 970.83 3.0372 2.3549 2.7938 277.40 0.055791 14.857 0.050449 65.000 0.015385 893.75 970.83 3.0372 2.3549 2.7938 277.40 0.055791 14.857 0.050449
215.38 728.93 undefined 896.11 973.43 3.0421 65.000 0.015385 896.11 973.43 3.0421 2.3584 2.7960 277.92 0.055396 14.884 0.050625 65.000 0.015385 896.11 973.43 3.0421 2.3584 2.7960 277.92 0.055396 14.884 0.050625
216.38 731.21 undefined 898.47 976.03 3.0469 65.000 0.015385 898.47 976.03 3.0469 2.3620 2.7982 278.44 0.055006 14.912 0.050800 65.000 0.015385 898.47 976.03 3.0469 2.3620 2.7982 278.44 0.055006 14.912 0.050800
217.38 733.48 undefined 900.83 978.64 3.0517 65.000 0.015385 900.83 978.64 3.0517 2.3656 2.8004 278.96 0.054620 14.939 0.050976 65.000 0.015385 900.83 978.64 3.0517 2.3656 2.8004 278.96 0.054620 14.939 0.050976
218.38 735.76 undefined 903.20 981.24 3.0565 65.000 0.015385 903.20 981.24 3.0565 2.3692 2.8026 279.48 0.054237 14.966 0.051152 65.000 0.015385 903.20 981.24 3.0565 2.3692 2.8026 279.48 0.054237 14.966 0.051152
219.38 738.03 undefined 905.57 983.86 3.0613 65.000 0.015385 905.57 983.86 3.0613 2.3728 2.8049 279.99 0.053859 14.994 0.051328 65.000 0.015385 905.57 983.86 3.0613 2.3728 2.8049 279.99 0.053859 14.994 0.051328
220.38 740.31 undefined 907.95 986.47 3.0662 65.000 0.015385 907.95 986.47 3.0662 2.3764 2.8071 280.51 0.053484 15.021 0.051505 65.000 0.015385 907.95 986.47 3.0662 2.3764 2.8071 280.51 0.053484 15.021 0.051505
221.38 742.58 undefined 910.32 989.09 3.0710 65.000 0.015385 910.32 989.09 3.0710 2.3800 2.8094 281.02 0.053113 15.048 0.051682 65.000 0.015385 910.32 989.09 3.0710 2.3800 2.8094 281.02 0.053113 15.048 0.051682
222.38 744.85 undefined 912.71 991.71 3.0758 65.000 0.015385 912.71 991.71 3.0758 2.3836 2.8117 281.54 0.052746 15.076 0.051859 65.000 0.015385 912.71 991.71 3.0758 2.3836 2.8117 281.54 0.052746 15.076 0.051859
223.38 747.12 undefined 915.09 994.34 3.0806 65.000 0.015385 915.09 994.34 3.0806 2.3872 2.8140 282.05 0.052382 15.103 0.052037 65.000 0.015385 915.09 994.34 3.0806 2.3872 2.8140 282.05 0.052382 15.103 0.052037
224.38 749.39 undefined 917.48 996.97 3.0854 65.000 0.015385 917.48 996.97 3.0854 2.3908 2.8163 282.56 0.052023 15.130 0.052215 65.000 0.015385 917.48 996.97 3.0854 2.3908 2.8163 282.56 0.052023 15.130 0.052215
225.38 751.66 undefined 919.87 999.60 3.0902 65.000 0.015385 919.87 999.60 3.0902 2.3944 2.8186 283.07 0.051666 15.157 0.052393 65.000 0.015385 919.87 999.60 3.0902 2.3944 2.8186 283.07 0.051666 15.157 0.052393
226.38 753.93 undefined 922.27 1002.2 3.0950 65.000 0.015385 922.27 1002.2 3.0950 2.3980 2.8210 283.58 0.051314 15.184 0.052572 65.000 0.015385 922.27 1002.2 3.0950 2.3980 2.8210 283.58 0.051314 15.184 0.052572
227.38 756.20 undefined 924.67 1004.9 3.0998 65.000 0.015385 924.67 1004.9 3.0998 2.4016 2.8233 284.09 0.050965 15.211 0.052751 65.000 0.015385 924.67 1004.9 3.0998 2.4016 2.8233 284.09 0.050965 15.211 0.052751
228.38 758.47 undefined 927.07 1007.5 3.1046 65.000 0.015385 927.07 1007.5 3.1046 2.4051 2.8257 284.60 0.050619 15.238 0.052930 65.000 0.015385 927.07 1007.5 3.1046 2.4051 2.8257 284.60 0.050619 15.238 0.052930
229.38 760.73 undefined 929.48 1010.2 3.1094 65.000 0.015385 929.48 1010.2 3.1094 2.4087 2.8281 285.10 0.050277 15.266 0.053109 65.000 0.015385 929.48 1010.2 3.1094 2.4087 2.8281 285.10 0.050277 15.266 0.053109
230.38 763.00 undefined 931.89 1012.8 3.1142 65.000 0.015385 931.89 1012.8 3.1142 2.4123 2.8305 285.61 0.049938 15.293 0.053289 65.000 0.015385 931.89 1012.8 3.1142 2.4123 2.8305 285.61 0.049938 15.293 0.053289
231.38 765.26 undefined 934.30 1015.5 3.1190 65.000 0.015385 934.30 1015.5 3.1190 2.4159 2.8329 286.11 0.049602 15.320 0.053469 65.000 0.015385 934.30 1015.5 3.1190 2.4159 2.8329 286.11 0.049602 15.320 0.053469
232.38 767.53 undefined 936.72 1018.1 3.1238 65.000 0.015385 936.72 1018.1 3.1238 2.4195 2.8353 286.62 0.049270 15.347 0.053649 65.000 0.015385 936.72 1018.1 3.1238 2.4195 2.8353 286.62 0.049270 15.347 0.053649
233.38 769.79 undefined 939.14 1020.8 3.1285 65.000 0.015385 939.14 1020.8 3.1285 2.4230 2.8377 287.12 0.048941 15.373 0.053830 65.000 0.015385 939.14 1020.8 3.1285 2.4230 2.8377 287.12 0.048941 15.373 0.053830
234.38 772.05 undefined 941.57 1023.5 3.1333 65.000 0.015385 941.57 1023.5 3.1333 2.4266 2.8401 287.62 0.048615 15.400 0.054011 65.000 0.015385 941.57 1023.5 3.1333 2.4266 2.8401 287.62 0.048615 15.400 0.054011
235.38 774.32 undefined 944.00 1026.1 3.1381 65.000 0.015385 944.00 1026.1 3.1381 2.4302 2.8426 288.12 0.048292 15.427 0.054192 65.000 0.015385 944.00 1026.1 3.1381 2.4302 2.8426 288.12 0.048292 15.427 0.054192
236.38 776.58 undefined 946.43 1028.8 3.1429 65.000 0.015385 946.43 1028.8 3.1429 2.4338 2.8450 288.62 0.047972 15.454 0.054373 65.000 0.015385 946.43 1028.8 3.1429 2.4338 2.8450 288.62 0.047972 15.454 0.054373
237.38 778.84 undefined 948.86 1031.5 3.1477 65.000 0.015385 948.86 1031.5 3.1477 2.4373 2.8475 289.12 0.047656 15.481 0.054555 65.000 0.015385 948.86 1031.5 3.1477 2.4373 2.8475 289.12 0.047656 15.481 0.054555
238.38 781.10 undefined 951.30 1034.2 3.1524 65.000 0.015385 951.30 1034.2 3.1524 2.4409 2.8500 289.62 0.047342 15.508 0.054737 65.000 0.015385 951.30 1034.2 3.1524 2.4409 2.8500 289.62 0.047342 15.508 0.054737
239.38 783.36 undefined 953.74 1036.8 3.1572 65.000 0.015385 953.74 1036.8 3.1572 2.4445 2.8525 290.11 0.047032 15.534 0.054920 65.000 0.015385 953.74 1036.8 3.1572 2.4445 2.8525 290.11 0.047032 15.534 0.054920
240.38 785.61 undefined 956.19 1039.5 3.1620 65.000 0.015385 956.19 1039.5 3.1620 2.4480 2.8549 290.61 0.046724 15.561 0.055102 65.000 0.015385 956.19 1039.5 3.1620 2.4480 2.8549 290.61 0.046724 15.561 0.055102
241.38 787.87 undefined 958.64 1042.2 3.1667 65.000 0.015385 958.64 1042.2 3.1667 2.4516 2.8574 291.10 0.046419 15.588 0.055285 65.000 0.015385 958.64 1042.2 3.1667 2.4516 2.8574 291.10 0.046419 15.588 0.055285
242.38 790.13 undefined 961.09 1044.9 3.1715 65.000 0.015385 961.09 1044.9 3.1715 2.4552 2.8599 291.60 0.046118 15.615 0.055468 65.000 0.015385 961.09 1044.9 3.1715 2.4552 2.8599 291.60 0.046118 15.615 0.055468
243.38 792.39 undefined 963.55 1047.6 3.1763 65.000 0.015385 963.55 1047.6 3.1763 2.4587 2.8625 292.09 0.045819 15.641 0.055652 65.000 0.015385 963.55 1047.6 3.1763 2.4587 2.8625 292.09 0.045819 15.641 0.055652
244.38 794.64 undefined 966.01 1050.3 3.1810 65.000 0.015385 966.01 1050.3 3.1810 2.4623 2.8650 292.58 0.045522 15.668 0.055836 65.000 0.015385 966.01 1050.3 3.1810 2.4623 2.8650 292.58 0.045522 15.668 0.055836
245.38 796.90 undefined 968.48 1053.0 3.1858 65.000 0.015385 968.48 1053.0 3.1858 2.4658 2.8675 293.07 0.045229 15.695 0.056020 65.000 0.015385 968.48 1053.0 3.1858 2.4658 2.8675 293.07 0.045229 15.695 0.056020
246.38 799.15 undefined 970.94 1055.7 3.1905 65.000 0.015385 970.94 1055.7 3.1905 2.4694 2.8701 293.56 0.044938 15.721 0.056204 65.000 0.015385 970.94 1055.7 3.1905 2.4694 2.8701 293.56 0.044938 15.721 0.056204
247.38 801.41 undefined 973.41 1058.4 3.1953 65.000 0.015385 973.41 1058.4 3.1953 2.4729 2.8726 294.05 0.044650 15.748 0.056389 65.000 0.015385 973.41 1058.4 3.1953 2.4729 2.8726 294.05 0.044650 15.748 0.056389
248.38 803.66 undefined 975.89 1061.1 3.2000 65.000 0.015385 975.89 1061.1 3.2000 2.4765 2.8752 294.54 0.044365 15.774 0.056574 65.000 0.015385 975.89 1061.1 3.2000 2.4765 2.8752 294.54 0.044365 15.774 0.056574
249.38 805.91 undefined 978.37 1063.9 3.2048 65.000 0.015385 978.37 1063.9 3.2048 2.4800 2.8777 295.03 0.044082 15.801 0.056759 65.000 0.015385 978.37 1063.9 3.2048 2.4800 2.8777 295.03 0.044082 15.801 0.056759
250.38 808.17 undefined 980.85 1066.6 3.2095 65.000 0.015385 980.85 1066.6 3.2095 2.4836 2.8803 295.51 0.043802 15.827 0.056944 65.000 0.015385 980.85 1066.6 3.2095 2.4836 2.8803 295.51 0.043802 15.827 0.056944
251.38 810.42 undefined 983.33 1069.3 3.2143 65.000 0.015385 983.33 1069.3 3.2143 2.4871 2.8829 296.00 0.043524 15.854 0.057130 65.000 0.015385 983.33 1069.3 3.2143 2.4871 2.8829 296.00 0.043524 15.854 0.057130
252.38 812.67 undefined 985.82 1072.0 3.2190 65.000 0.015385 985.82 1072.0 3.2190 2.4907 2.8855 296.48 0.043249 15.880 0.057316 65.000 0.015385 985.82 1072.0 3.2190 2.4907 2.8855 296.48 0.043249 15.880 0.057316
253.38 814.92 undefined 988.32 1074.8 3.2238 65.000 0.015385 988.32 1074.8 3.2238 2.4942 2.8880 296.97 0.042977 15.906 0.057502 65.000 0.015385 988.32 1074.8 3.2238 2.4942 2.8880 296.97 0.042977 15.906 0.057502
254.38 817.17 undefined 990.81 1077.5 3.2285 65.000 0.015385 990.81 1077.5 3.2285 2.4977 2.8906 297.45 0.042707 15.933 0.057689 65.000 0.015385 990.81 1077.5 3.2285 2.4977 2.8906 297.45 0.042707 15.933 0.057689
255.38 819.42 undefined 993.31 1080.2 3.2332 65.000 0.015385 993.31 1080.2 3.2332 2.5013 2.8932 297.93 0.042439 15.959 0.057875 65.000 0.015385 993.31 1080.2 3.2332 2.5013 2.8932 297.93 0.042439 15.959 0.057875
256.38 821.67 undefined 995.81 1083.0 3.2380 65.000 0.015385 995.81 1083.0 3.2380 2.5048 2.8959 298.41 0.042174 15.985 0.058062 65.000 0.015385 995.81 1083.0 3.2380 2.5048 2.8959 298.41 0.042174 15.985 0.058062
257.38 823.91 undefined 998.32 1085.7 3.2427 65.000 0.015385 998.32 1085.7 3.2427 2.5083 2.8985 298.89 0.041911 16.012 0.058250 65.000 0.015385 998.32 1085.7 3.2427 2.5083 2.8985 298.89 0.041911 16.012 0.058250
258.38 826.16 undefined 1000.8 1088.5 3.2474 65.000 0.015385 1000.8 1088.5 3.2474 2.5118 2.9011 299.37 0.041650 16.038 0.058437 65.000 0.015385 1000.8 1088.5 3.2474 2.5118 2.9011 299.37 0.041650 16.038 0.058437
259.38 828.41 undefined 1003.3 1091.2 3.2521 65.000 0.015385 1003.3 1091.2 3.2521 2.5154 2.9037 299.85 0.041392 16.064 0.058625 65.000 0.015385 1003.3 1091.2 3.2521 2.5154 2.9037 299.85 0.041392 16.064 0.058625
260.38 830.66 undefined 1005.9 1094.0 3.2569 65.000 0.015385 1005.9 1094.0 3.2569 2.5189 2.9064 300.33 0.041136 16.090 0.058813 65.000 0.015385 1005.9 1094.0 3.2569 2.5189 2.9064 300.33 0.041136 16.090 0.058813
261.38 832.90 undefined 1008.4 1096.7 3.2616 65.000 0.015385 1008.4 1096.7 3.2616 2.5224 2.9090 300.80 0.040882 16.116 0.059001 65.000 0.015385 1008.4 1096.7 3.2616 2.5224 2.9090 300.80 0.040882 16.116 0.059001
262.38 835.15 undefined 1010.9 1099.5 3.2663 65.000 0.015385 1010.9 1099.5 3.2663 2.5259 2.9116 301.28 0.040631 16.142 0.059190 65.000 0.015385 1010.9 1099.5 3.2663 2.5259 2.9116 301.28 0.040631 16.142 0.059190
263.38 837.39 undefined 1013.4 1102.3 3.2710 65.000 0.015385 1013.4 1102.3 3.2710 2.5294 2.9143 301.76 0.040382 16.168 0.059379 65.000 0.015385 1013.4 1102.3 3.2710 2.5294 2.9143 301.76 0.040382 16.168 0.059379
264.38 839.64 undefined 1016.0 1105.0 3.2757 65.000 0.015385 1016.0 1105.0 3.2757 2.5329 2.9169 302.23 0.040135 16.195 0.059568 65.000 0.015385 1016.0 1105.0 3.2757 2.5329 2.9169 302.23 0.040135 16.195 0.059568
265.38 841.88 undefined 1018.5 1107.8 3.2804 65.000 0.015385 1018.5 1107.8 3.2804 2.5364 2.9196 302.70 0.039890 16.221 0.059757 65.000 0.015385 1018.5 1107.8 3.2804 2.5364 2.9196 302.70 0.039890 16.221 0.059757
266.38 844.12 undefined 1021.0 1110.6 3.2851 65.000 0.015385 1021.0 1110.6 3.2851 2.5399 2.9223 303.18 0.039647 16.247 0.059946 65.000 0.015385 1021.0 1110.6 3.2851 2.5399 2.9223 303.18 0.039647 16.247 0.059946
267.38 846.37 undefined 1023.6 1113.4 3.2899 65.000 0.015385 1023.6 1113.4 3.2899 2.5434 2.9249 303.65 0.039406 16.273 0.060136 65.000 0.015385 1023.6 1113.4 3.2899 2.5434 2.9249 303.65 0.039406 16.273 0.060136
268.38 848.61 undefined 1026.1 1116.1 3.2946 65.000 0.015385 1026.1 1116.1 3.2946 2.5469 2.9276 304.12 0.039168 16.299 0.060326 65.000 0.015385 1026.1 1116.1 3.2946 2.5469 2.9276 304.12 0.039168 16.299 0.060326
269.38 850.85 undefined 1028.7 1118.9 3.2993 65.000 0.015385 1028.7 1118.9 3.2993 2.5504 2.9303 304.59 0.038931 16.324 0.060516 65.000 0.015385 1028.7 1118.9 3.2993 2.5504 2.9303 304.59 0.038931 16.324 0.060516
270.38 853.09 undefined 1031.2 1121.7 3.3040 65.000 0.015385 1031.2 1121.7 3.3040 2.5539 2.9329 305.06 0.038697 16.350 0.060706 65.000 0.015385 1031.2 1121.7 3.3040 2.5539 2.9329 305.06 0.038697 16.350 0.060706
271.38 855.33 undefined 1033.8 1124.5 3.3087 65.000 0.015385 1033.8 1124.5 3.3087 2.5574 2.9356 305.53 0.038464 16.376 0.060896 65.000 0.015385 1033.8 1124.5 3.3087 2.5574 2.9356 305.53 0.038464 16.376 0.060896
272.38 857.57 undefined 1036.3 1127.3 3.3134 65.000 0.015385 1036.3 1127.3 3.3134 2.5609 2.9383 305.99 0.038234 16.402 0.061086 65.000 0.015385 1036.3 1127.3 3.3134 2.5609 2.9383 305.99 0.038234 16.402 0.061086
273.38 859.81 undefined 1038.9 1130.1 3.3180 65.000 0.015385 1038.9 1130.1 3.3180 2.5644 2.9410 306.46 0.038005 16.428 0.061277 65.000 0.015385 1038.9 1130.1 3.3180 2.5644 2.9410 306.46 0.038005 16.428 0.061277
274.38 862.05 undefined 1041.5 1132.9 3.3227 65.000 0.015385 1041.5 1132.9 3.3227 2.5679 2.9437 306.93 0.037779 16.454 0.061467 65.000 0.015385 1041.5 1132.9 3.3227 2.5679 2.9437 306.93 0.037779 16.454 0.061467
275.38 864.29 undefined 1044.0 1135.7 3.3274 65.000 0.015385 1044.0 1135.7 3.3274 2.5713 2.9464 307.39 0.037554 16.479 0.061658 65.000 0.015385 1044.0 1135.7 3.3274 2.5713 2.9464 307.39 0.037554 16.479 0.061658
276.38 866.53 undefined 1046.6 1138.5 3.3321 65.000 0.015385 1046.6 1138.5 3.3321 2.5748 2.9491 307.86 0.037331 16.505 0.061848 65.000 0.015385 1046.6 1138.5 3.3321 2.5748 2.9491 307.86 0.037331 16.505 0.061848
277.38 868.77 undefined 1049.2 1141.3 3.3368 65.000 0.015385 1049.2 1141.3 3.3368 2.5783 2.9518 308.32 0.037111 16.531 0.062038 65.000 0.015385 1049.2 1141.3 3.3368 2.5783 2.9518 308.32 0.037111 16.531 0.062038
278.38 871.00 undefined 1051.8 1144.2 3.3415 65.000 0.015385 1051.8 1144.2 3.3415 2.5817 2.9545 308.79 0.036891 16.557 0.062228 65.000 0.015385 1051.8 1144.2 3.3415 2.5817 2.9545 308.79 0.036891 16.557 0.062228
279.38 873.24 undefined 1054.4 1147.0 3.3462 65.000 0.015385 1054.4 1147.0 3.3462 2.5852 2.9572 309.25 0.036674 16.582 0.062417 65.000 0.015385 1054.4 1147.0 3.3462 2.5852 2.9572 309.25 0.036674 16.582 0.062417
280.38 875.48 undefined 1056.9 1149.8 3.3508 65.000 0.015385 1056.9 1149.8 3.3508 2.5887 2.9599 309.71 0.036459 16.608 0.062604 65.000 0.015385 1056.9 1149.8 3.3508 2.5887 2.9599 309.71 0.036459 16.608 0.062604
281.38 877.71 undefined 1059.5 1152.6 3.3555 65.000 0.015385 1059.5 1152.6 3.3555 2.5921 2.9627 310.17 0.036245 16.633 0.062785 65.000 0.015385 1059.5 1152.6 3.3555 2.5921 2.9627 310.17 0.036245 16.633 0.062785
282.38 879.95 undefined 1062.1 1155.5 3.3602 65.000 0.015385 1062.1 1155.5 3.3602 2.5956 2.9654 310.63 0.036033 16.659 0.062971 65.000 0.015385 1062.1 1155.5 3.3602 2.5956 2.9654 310.63 0.036033 16.659 0.062971
283.38 882.19 undefined 1064.7 1158.3 3.3649 65.000 0.015385 1064.7 1158.3 3.3649 2.5990 2.9681 311.09 0.035823 16.685 0.063169 65.000 0.015385 1064.7 1158.3 3.3649 2.5990 2.9681 311.09 0.035823 16.685 0.063169
284.38 884.42 undefined 1067.3 1161.1 3.3695 65.000 0.015385 1067.3 1161.1 3.3695 2.6025 2.9708 311.55 0.035615 16.710 0.063367 65.000 0.015385 1067.3 1161.1 3.3695 2.6025 2.9708 311.55 0.035615 16.710 0.063367
285.38 886.65 undefined 1069.9 1164.0 3.3742 65.000 0.015385 1069.9 1164.0 3.3742 2.6059 2.9736 312.01 0.035408 16.736 0.063566 65.000 0.015385 1069.9 1164.0 3.3742 2.6059 2.9736 312.01 0.035408 16.736 0.063566
286.38 888.89 undefined 1072.5 1166.8 3.3789 65.000 0.015385 1072.5 1166.8 3.3789 2.6094 2.9763 312.46 0.035203 16.761 0.063765 65.000 0.015385 1072.5 1166.8 3.3789 2.6094 2.9763 312.46 0.035203 16.761 0.063765
287.38 891.12 undefined 1075.1 1169.7 3.3835 65.000 0.015385 1075.1 1169.7 3.3835 2.6128 2.9790 312.92 0.035000 16.787 0.063964 65.000 0.015385 1075.1 1169.7 3.3835 2.6128 2.9790 312.92 0.035000 16.787 0.063964
288.38 893.35 undefined 1077.8 1172.5 3.3882 65.000 0.015385 1077.8 1172.5 3.3882 2.6162 2.9818 313.37 0.034798 16.812 0.064164 65.000 0.015385 1077.8 1172.5 3.3882 2.6162 2.9818 313.37 0.034798 16.812 0.064164
289.38 895.59 undefined 1080.4 1175.4 3.3928 65.000 0.015385 1080.4 1175.4 3.3928 2.6197 2.9845 313.83 0.034598 16.837 0.064363 65.000 0.015385 1080.4 1175.4 3.3928 2.6197 2.9845 313.83 0.034598 16.837 0.064363
290.38 897.82 undefined 1083.0 1178.2 3.3975 65.000 0.015385 1083.0 1178.2 3.3975 2.6231 2.9872 314.28 0.034400 16.863 0.064564 65.000 0.015385 1083.0 1178.2 3.3975 2.6231 2.9872 314.28 0.034400 16.863 0.064564
291.38 900.05 undefined 1085.6 1181.1 3.4021 65.000 0.015385 1085.6 1181.1 3.4021 2.6265 2.9900 314.74 0.034203 16.888 0.064764 65.000 0.015385 1085.6 1181.1 3.4021 2.6265 2.9900 314.74 0.034203 16.888 0.064764
292.38 902.28 undefined 1088.3 1184.0 3.4068 65.000 0.015385 1088.3 1184.0 3.4068 2.6299 2.9927 315.19 0.034008 16.913 0.064965 65.000 0.015385 1088.3 1184.0 3.4068 2.6299 2.9927 315.19 0.034008 16.913 0.064965
293.38 904.51 undefined 1090.9 1186.8 3.4114 65.000 0.015385 1090.9 1186.8 3.4114 2.6333 2.9955 315.64 0.033814 16.939 0.065166 65.000 0.015385 1090.9 1186.8 3.4114 2.6333 2.9955 315.64 0.033814 16.939 0.065166
294.38 906.74 undefined 1093.5 1189.7 3.4161 65.000 0.015385 1093.5 1189.7 3.4161 2.6368 2.9982 316.09 0.033622 16.964 0.065367 65.000 0.015385 1093.5 1189.7 3.4161 2.6368 2.9982 316.09 0.033622 16.964 0.065367
295.38 908.97 undefined 1096.2 1192.6 3.4207 65.000 0.015385 1096.2 1192.6 3.4207 2.6402 3.0010 316.54 0.033431 16.989 0.065568 65.000 0.015385 1096.2 1192.6 3.4207 2.6402 3.0010 316.54 0.033431 16.989 0.065568
296.38 911.20 undefined 1098.8 1195.5 3.4254 65.000 0.015385 1098.8 1195.5 3.4254 2.6436 3.0037 316.99 0.033242 17.014 0.065770 65.000 0.015385 1098.8 1195.5 3.4254 2.6436 3.0037 316.99 0.033242 17.014 0.065770
297.38 913.43 undefined 1101.4 1198.3 3.4300 65.000 0.015385 1101.4 1198.3 3.4300 2.6470 3.0065 317.44 0.033054 17.039 0.065972 65.000 0.015385 1101.4 1198.3 3.4300 2.6470 3.0065 317.44 0.033054 17.039 0.065972
298.38 915.66 undefined 1104.1 1201.2 3.4347 65.000 0.015385 1104.1 1201.2 3.4347 2.6504 3.0092 317.89 0.032868 17.065 0.066175 65.000 0.015385 1104.1 1201.2 3.4347 2.6504 3.0092 317.89 0.032868 17.065 0.066175
299.38 917.89 undefined 1106.7 1204.1 3.4393 65.000 0.015385 1106.7 1204.1 3.4393 2.6538 3.0120 318.34 0.032684 17.090 0.066378 65.000 0.015385 1106.7 1204.1 3.4393 2.6538 3.0120 318.34 0.032684 17.090 0.066378
300.38 920.12 undefined 1109.4 1207.0 3.4439 65.000 0.015385 1109.4 1207.0 3.4439 2.6572 3.0147 318.79 0.032500 17.115 0.066581 65.000 0.015385 1109.4 1207.0 3.4439 2.6572 3.0147 318.79 0.032500 17.115 0.066581