Temperature (C) Pressure (psia) Quality (l+v) Internal Energy (l+v, kJ/kg) Enthalpy (l+v, kJ/kg) Entropy (l+v, J/g*K) Density (l, kg/m3) Volume (l, m3/kg) Internal Energy (l, kJ/kg) Enthalpy (l, kJ/kg) Entropy (l, J/g*K) Cv (l, J/g*K) Cp (l, J/g*K) Sound Spd. (l, m/s) Joule-Thomson (l, F/psia) Viscosity (l, uPa*s) Therm. Cond. (l, W/m*K) Density (v, kg/m3) Volume (v, m3/kg) Internal Energy (v, kJ/kg) Enthalpy (v, kJ/kg) Entropy (v, J/g*K) Cv (v, J/g*K) Cp (v, J/g*K) Sound Spd. (v, m/s) Joule-Thomson (v, F/psia) Viscosity (v, uPa*s) Therm. Cond. (v, W/m*K)
-187.62 2.4953e-08 1.8610e-12 -196.64 -196.64 -1.3959 733.13 0.0013640 -196.64 -196.64 -1.3959 1.3553 1.9158 2136.4 -0.0077592 10960. 0.20792 1.0669e-08 9.3732e+07 350.13 366.26 5.1858 0.69067 0.87923 143.28 6.1051 2.3259 0.0017061
-186.62 3.7339e-08 2.7219e-12 -194.73 -194.73 -1.3736 732.08 0.0013660 -194.73 -194.73 -1.3736 1.3539 1.9166 2129.6 -0.0077546 10073. 0.20765 1.5780e-08 6.3371e+07 350.82 367.14 5.1200 0.69462 0.88317 144.03 5.9178 2.3534 0.0017533
-185.62 5.5322e-08 3.9417e-12 -192.81 -192.81 -1.3516 731.04 0.0013679 -192.81 -192.81 -1.3516 1.3525 1.9174 2122.9 -0.0077498 9276.1 0.20737 2.3112e-08 4.3267e+07 351.52 368.02 5.0561 0.69857 0.88713 144.77 5.7383 2.3808 0.0018007
-184.62 8.1182e-08 5.6536e-12 -190.89 -190.89 -1.3298 730.00 0.0013699 -190.89 -190.89 -1.3298 1.3513 1.9182 2116.1 -0.0077448 8557.8 0.20708 3.3533e-08 2.9821e+07 352.22 368.91 4.9939 0.70253 0.89108 145.51 5.5662 2.4083 0.0018485
-183.62 1.1803e-07 8.0339e-12 -188.97 -188.97 -1.3083 728.96 0.0013718 -188.97 -188.97 -1.3083 1.3501 1.9191 2109.3 -0.0077395 7909.8 0.20678 4.8211e-08 2.0742e+07 352.92 369.81 4.9333 0.70648 0.89504 146.24 5.4011 2.4357 0.0018965
-182.62 1.7009e-07 1.1315e-11 -187.05 -187.05 -1.2869 727.92 0.0013738 -187.05 -187.05 -1.2869 1.3490 1.9201 2102.5 -0.0077340 7324.3 0.20647 6.8704e-08 1.4555e+07 353.63 370.70 4.8744 0.71043 0.89899 146.97 5.2426 2.4632 0.0019448
-181.62 2.4299e-07 1.5797e-11 -185.13 -185.13 -1.2658 726.88 0.0013757 -185.13 -185.13 -1.2658 1.3480 1.9210 2095.7 -0.0077283 6794.5 0.20616 9.7079e-08 1.0301e+07 354.35 371.60 4.8170 0.71438 0.90294 147.69 5.0904 2.4906 0.0019934
-180.62 3.4425e-07 2.1872e-11 -183.21 -183.21 -1.2450 725.85 0.0013777 -183.21 -183.21 -1.2450 1.3470 1.9220 2088.9 -0.0077225 6314.4 0.20584 1.3605e-07 7.3504e+06 355.06 372.51 4.7612 0.71833 0.90688 148.41 4.9442 2.5181 0.0020423
-179.62 4.8378e-07 3.0037e-11 -181.29 -181.29 -1.2243 724.81 0.0013797 -181.29 -181.29 -1.2243 1.3461 1.9231 2082.0 -0.0077164 5878.8 0.20551 1.8915e-07 5.2868e+06 355.78 373.42 4.7068 0.72227 0.91082 149.13 4.8038 2.5456 0.0020915
-178.62 6.7459e-07 4.0926e-11 -179.37 -179.37 -1.2038 723.78 0.0013816 -179.37 -179.37 -1.2038 1.3453 1.9241 2075.2 -0.0077102 5482.9 0.20517 2.6096e-07 3.8320e+06 356.51 374.33 4.6538 0.72620 0.91475 149.84 4.6688 2.5731 0.0021410
-177.62 9.3358e-07 5.5341e-11 -177.44 -177.44 -1.1836 722.75 0.0013836 -177.44 -177.44 -1.1836 1.3445 1.9252 2068.4 -0.0077039 5122.6 0.20483 3.5737e-07 2.7982e+06 357.23 375.25 4.6022 0.73012 0.91867 150.54 4.5390 2.6005 0.0021907
-176.62 1.2826e-06 7.4282e-11 -175.52 -175.52 -1.1635 721.72 0.0013856 -175.52 -175.52 -1.1635 1.3437 1.9263 2061.5 -0.0076973 4794.1 0.20447 4.8588e-07 2.0581e+06 357.97 376.17 4.5519 0.73403 0.92258 151.25 4.4142 2.6280 0.0022408
-175.62 1.7496e-06 9.8995e-11 -173.59 -173.59 -1.1437 720.69 0.0013876 -173.59 -173.59 -1.1437 1.3430 1.9274 2054.7 -0.0076907 4494.3 0.20411 6.5601e-07 1.5244e+06 358.70 377.09 4.5029 0.73792 0.92648 151.95 4.2941 2.6555 0.0022912
-174.62 2.3705e-06 1.3102e-10 -171.66 -171.66 -1.1240 719.66 0.0013895 -171.66 -171.66 -1.1240 1.3423 1.9286 2047.9 -0.0076838 4220.2 0.20375 8.7976e-07 1.1367e+06 359.44 378.02 4.4551 0.74181 0.93036 152.64 4.1784 2.6830 0.0023418
-173.62 3.1903e-06 1.7223e-10 -169.73 -169.73 -1.1045 718.64 0.0013915 -169.73 -169.73 -1.1045 1.3417 1.9298 2041.0 -0.0076769 3969.3 0.20338 1.1721e-06 8.5314e+05 360.19 378.95 4.4085 0.74568 0.93423 153.33 4.0671 2.7105 0.0023928
-172.62 4.2661e-06 2.2493e-10 -167.80 -167.80 -1.0852 717.61 0.0013935 -167.80 -167.80 -1.0852 1.3411 1.9310 2034.2 -0.0076698 3739.3 0.20300 1.5518e-06 6.4441e+05 360.93 379.89 4.3631 0.74953 0.93809 154.02 3.9599 2.7379 0.0024440
-171.62 5.6692e-06 2.9189e-10 -165.87 -165.87 -1.0661 716.58 0.0013955 -165.87 -165.87 -1.0661 1.3405 1.9322 2027.3 -0.0076625 3528.0 0.20261 2.0419e-06 4.8974e+05 361.69 380.83 4.3188 0.75337 0.94193 154.71 3.8566 2.7654 0.0024955
-170.62 7.4884e-06 3.7646e-10 -163.94 -163.94 -1.0472 715.56 0.0013975 -163.94 -163.94 -1.0472 1.3400 1.9334 2020.5 -0.0076552 3333.8 0.20222 2.6708e-06 3.7442e+05 362.44 381.77 4.2755 0.75720 0.94575 155.39 3.7570 2.7929 0.0025473
-169.62 9.8334e-06 4.8263e-10 -162.00 -162.00 -1.0284 714.54 0.0013995 -162.00 -162.00 -1.0284 1.3395 1.9347 2013.6 -0.0076477 3154.9 0.20182 3.4733e-06 2.8791e+05 363.20 382.72 4.2334 0.76100 0.94956 156.07 3.6609 2.8204 0.0025994
-168.62 1.2839e-05 6.1514e-10 -160.07 -160.07 -1.0098 713.52 0.0014015 -160.07 -160.07 -1.0098 1.3390 1.9359 2006.8 -0.0076401 2989.9 0.20141 4.4917e-06 2.2263e+05 363.96 383.67 4.1922 0.76479 0.95335 156.74 3.5683 2.8479 0.0026518
-167.62 1.6672e-05 7.7958e-10 -158.13 -158.13 -0.99134 712.49 0.0014035 -158.13 -158.13 -0.99134 1.3386 1.9372 2000.0 -0.0076323 2837.5 0.20100 5.7771e-06 1.7310e+05 364.73 384.63 4.1521 0.76856 0.95712 157.41 3.4790 2.8754 0.0027045
-166.62 2.1533e-05 9.8253e-10 -156.19 -156.19 -0.97306 711.47 0.0014055 -156.19 -156.19 -0.97306 1.3382 1.9385 1993.1 -0.0076245 2696.5 0.20058 7.3914e-06 1.3529e+05 365.50 385.59 4.1129 0.77232 0.96087 158.08 3.3927 2.9029 0.0027575
-165.62 2.7666e-05 1.2317e-09 -154.25 -154.25 -0.95494 710.45 0.0014075 -154.25 -154.25 -0.95494 1.3378 1.9398 1986.3 -0.0076165 2566.0 0.20016 9.4084e-06 1.0629e+05 366.27 386.55 4.0746 0.77605 0.96460 158.75 3.3095 2.9304 0.0028108
-164.62 3.5367e-05 1.5359e-09 -152.31 -152.31 -0.93698 709.44 0.0014096 -152.31 -152.31 -0.93698 1.3375 1.9411 1979.4 -0.0076084 2444.9 0.19973 1.1916e-05 83918. 367.05 387.52 4.0372 0.77976 0.96832 159.41 3.2291 2.9579 0.0028643
-163.62 4.4989e-05 1.9055e-09 -150.37 -150.37 -0.91917 708.42 0.0014116 -150.37 -150.37 -0.91917 1.3371 1.9424 1972.6 -0.0076002 2332.3 0.19930 1.5020e-05 66577. 367.83 388.49 4.0008 0.78346 0.97201 160.07 3.1514 2.9854 0.0029182
-162.62 5.6956e-05 2.3524e-09 -148.43 -148.43 -0.90151 707.40 0.0014136 -148.43 -148.43 -0.90151 1.3368 1.9437 1965.8 -0.0075919 2227.7 0.19886 1.8844e-05 53068. 368.62 389.46 3.9651 0.78713 0.97569 160.72 3.0764 3.0129 0.0029723
-161.62 7.1773e-05 2.8898e-09 -146.48 -146.48 -0.88400 706.38 0.0014157 -146.48 -146.48 -0.88400 1.3365 1.9451 1959.0 -0.0075834 2130.2 0.19841 2.3533e-05 42494. 369.41 390.44 3.9304 0.79079 0.97935 161.38 3.0038 3.0404 0.0030268
-160.62 9.0036e-05 3.5333e-09 -144.54 -144.54 -0.86663 705.37 0.0014177 -144.54 -144.54 -0.86663 1.3363 1.9465 1952.1 -0.0075748 2039.2 0.19796 2.9258e-05 34178. 370.20 391.42 3.8964 0.79443 0.98298 162.03 2.9337 3.0679 0.0030815
-159.62 0.00011245 4.3001e-09 -142.59 -142.59 -0.84940 704.35 0.0014197 -142.59 -142.59 -0.84940 1.3360 1.9478 1945.3 -0.0075661 1954.2 0.19751 3.6221e-05 27609. 371.00 392.40 3.8632 0.79805 0.98660 162.68 2.8658 3.0955 0.0031365
-158.62 0.00013985 5.2096e-09 -140.64 -140.64 -0.83231 703.34 0.0014218 -140.64 -140.64 -0.83231 1.3358 1.9492 1938.5 -0.0075573 1874.8 0.19705 4.4652e-05 22395. 371.80 393.39 3.8307 0.80164 0.99020 163.32 2.8002 3.1230 0.0031918
-157.62 0.00017320 6.2836e-09 -138.69 -138.69 -0.81536 702.32 0.0014238 -138.69 -138.69 -0.81536 1.3356 1.9506 1931.7 -0.0075484 1800.3 0.19658 5.4822e-05 18241. 372.60 394.38 3.7990 0.80522 0.99378 163.96 2.7367 3.1505 0.0032474
-156.62 0.00021364 7.5461e-09 -136.74 -136.74 -0.79854 701.31 0.0014259 -136.74 -136.74 -0.79854 1.3354 1.9520 1924.9 -0.0075393 1730.5 0.19611 6.7040e-05 14916. 373.41 395.38 3.7680 0.80878 0.99734 164.60 2.6752 3.1780 0.0033033
-155.62 0.00026248 9.0240e-09 -134.79 -134.79 -0.78185 700.30 0.0014280 -134.79 -134.79 -0.78185 1.3352 1.9534 1918.1 -0.0075302 1664.9 0.19564 8.1666e-05 12245. 374.22 396.38 3.7377 0.81232 1.0009 165.24 2.6157 3.2055 0.0033595
-154.62 0.00032125 1.0746e-08 -132.83 -132.83 -0.76530 699.29 0.0014300 -132.83 -132.83 -0.76530 1.3350 1.9548 1911.3 -0.0075209 1603.3 0.19516 9.9109e-05 10090. 375.03 397.38 3.7081 0.81585 1.0044 165.87 2.5580 3.2330 0.0034160
-153.62 0.00039171 1.2746e-08 -130.88 -130.88 -0.74887 698.27 0.0014321 -130.88 -130.88 -0.74887 1.3349 1.9563 1904.5 -0.0075114 1545.3 0.19468 0.00011984 8344.6 375.85 398.39 3.6792 0.81935 1.0079 166.50 2.5022 3.2606 0.0034727
-152.62 0.00047590 1.5056e-08 -128.92 -128.92 -0.73256 697.26 0.0014342 -128.92 -128.92 -0.73256 1.3348 1.9577 1897.8 -0.0075019 1490.6 0.19419 0.00014439 6925.9 376.67 399.40 3.6509 0.82284 1.0114 167.13 2.4481 3.2881 0.0035298
-151.62 0.00057613 1.7716e-08 -126.96 -126.96 -0.71638 696.25 0.0014363 -126.96 -126.96 -0.71638 1.3346 1.9592 1891.0 -0.0074922 1438.9 0.19370 0.00017336 5768.4 377.49 400.41 3.6232 0.82631 1.0149 167.76 2.3957 3.3156 0.0035872
-150.62 0.00069507 2.0766e-08 -125.00 -125.00 -0.70032 695.24 0.0014384 -125.00 -125.00 -0.70032 1.3345 1.9606 1884.2 -0.0074824 1390.2 0.19320 0.00020744 4820.7 378.32 401.42 3.5962 0.82976 1.0183 168.38 2.3448 3.3431 0.0036448
-149.62 0.00083574 2.4249e-08 -123.04 -123.04 -0.68438 694.23 0.0014404 -123.04 -123.04 -0.68438 1.3345 1.9621 1877.4 -0.0074724 1344.0 0.19270 0.00024740 4042.0 379.15 402.44 3.5697 0.83319 1.0218 169.00 2.2956 3.3706 0.0037027
-148.62 0.0010016 2.8209e-08 -121.08 -121.08 -0.66855 693.22 0.0014425 -121.08 -121.08 -0.66855 1.3344 1.9636 1870.7 -0.0074623 1300.3 0.19220 0.00029412 3400.0 379.99 403.47 3.5438 0.83661 1.0252 169.62 2.2478 3.3982 0.0037610
-147.62 0.0011965 3.2697e-08 -119.11 -119.11 -0.65284 692.21 0.0014447 -119.11 -119.11 -0.65284 1.3343 1.9651 1863.9 -0.0074521 1258.9 0.19169 0.00034856 2869.0 380.83 404.49 3.5185 0.84001 1.0286 170.24 2.2014 3.4257 0.0038195
-146.62 0.0014249 3.7761e-08 -117.15 -117.15 -0.63724 691.20 0.0014468 -117.15 -117.15 -0.63724 1.3343 1.9666 1857.2 -0.0074417 1219.6 0.19117 0.00041181 2428.3 381.67 405.52 3.4938 0.84340 1.0320 170.85 2.1565 3.4532 0.0038783
-145.62 0.0016917 4.3454e-08 -115.18 -115.18 -0.62175 690.19 0.0014489 -115.18 -115.18 -0.62175 1.3343 1.9682 1850.4 -0.0074312 1182.3 0.19066 0.00048510 2061.4 382.51 406.56 3.4695 0.84677 1.0353 171.46 2.1128 3.4807 0.0039374
-144.62 0.0020026 4.9829e-08 -113.21 -113.21 -0.60637 689.18 0.0014510 -113.21 -113.21 -0.60637 1.3343 1.9697 1843.7 -0.0074206 1146.8 0.19014 0.00056976 1755.1 383.36 407.59 3.4458 0.85012 1.0387 172.07 2.0705 3.5082 0.0039967
-143.62 0.0023637 5.6939e-08 -111.24 -111.24 -0.59110 688.17 0.0014531 -111.24 -111.24 -0.59110 1.3343 1.9713 1836.9 -0.0074098 1113.0 0.18962 0.00066731 1498.6 384.21 408.63 3.4226 0.85346 1.0420 172.68 2.0294 3.5358 0.0040564
-142.62 0.0027820 6.4838e-08 -109.27 -109.27 -0.57593 687.16 0.0014553 -109.27 -109.27 -0.57593 1.3343 1.9728 1830.2 -0.0073988 1080.8 0.18909 0.00077939 1283.1 385.07 409.68 3.3999 0.85679 1.0454 173.28 1.9896 3.5633 0.0041164
-141.62 0.0032653 7.3579e-08 -107.30 -107.30 -0.56087 686.15 0.0014574 -107.30 -107.30 -0.56087 1.3343 1.9744 1823.5 -0.0073878 1050.1 0.18856 0.00090784 1101.5 385.93 410.72 3.3777 0.86011 1.0487 173.88 1.9508 3.5908 0.0041766
-140.62 0.0038222 8.3215e-08 -105.32 -105.32 -0.54591 685.14 0.0014596 -105.32 -105.32 -0.54591 1.3344 1.9760 1816.7 -0.0073765 1020.7 0.18803 0.0010547 948.16 386.79 411.77 3.3560 0.86341 1.0520 174.48 1.9133 3.6183 0.0042372
-139.62 0.0044623 9.3792e-08 -103.34 -103.34 -0.53105 684.13 0.0014617 -103.34 -103.34 -0.53105 1.3344 1.9776 1810.0 -0.0073651 992.74 0.18749 0.0012221 818.26 387.65 412.83 3.3347 0.86670 1.0553 175.08 1.8768 3.6459 0.0042980
-138.62 0.0051963 1.0536e-07 -101.37 -101.37 -0.51629 683.12 0.0014639 -101.37 -101.37 -0.51629 1.3345 1.9792 1803.3 -0.0073536 965.97 0.18695 0.0014125 707.94 388.52 413.88 3.3139 0.86998 1.0586 175.67 1.8413 3.6734 0.0043592
-137.62 0.0060358 1.1794e-07 -99.386 -99.386 -0.50162 682.11 0.0014660 -99.386 -99.386 -0.50162 1.3346 1.9808 1796.6 -0.0073419 940.35 0.18641 0.0016287 614.00 389.39 414.94 3.2935 0.87325 1.0619 176.26 1.8069 3.7009 0.0044206
-136.62 0.0069938 1.3159e-07 -97.404 -97.404 -0.48705 681.10 0.0014682 -97.404 -97.404 -0.48705 1.3347 1.9825 1789.9 -0.0073301 915.81 0.18586 0.0018733 533.80 390.26 416.00 3.2735 0.87650 1.0651 176.85 1.7734 3.7284 0.0044823
-135.62 0.0080843 1.4632e-07 -95.421 -95.421 -0.47258 680.09 0.0014704 -95.421 -95.421 -0.47258 1.3348 1.9841 1783.2 -0.0073180 892.30 0.18531 0.0021497 465.17 391.14 417.07 3.2540 0.87975 1.0684 177.44 1.7409 3.7559 0.0045443
-134.62 0.0093230 1.6214e-07 -93.436 -93.436 -0.45820 679.08 0.0014726 -93.436 -93.436 -0.45820 1.3350 1.9858 1776.5 -0.0073059 869.75 0.18476 0.0024613 406.30 392.02 418.14 3.2348 0.88299 1.0716 178.02 1.7093 3.7834 0.0046066
-133.62 0.010727 1.7904e-07 -91.449 -91.449 -0.44391 678.07 0.0014748 -91.450 -91.449 -0.44391 1.3351 1.9875 1769.8 -0.0072935 848.11 0.18421 0.0028116 355.67 392.91 419.21 3.2161 0.88622 1.0749 178.61 1.6786 3.8109 0.0046691
-132.62 0.012315 1.9703e-07 -89.461 -89.461 -0.42971 677.06 0.0014770 -89.461 -89.461 -0.42971 1.3353 1.9892 1763.1 -0.0072810 827.32 0.18365 0.0032049 312.03 393.79 420.29 3.1977 0.88944 1.0781 179.19 1.6488 3.8385 0.0047320
-131.62 0.014106 2.1605e-07 -87.471 -87.471 -0.41560 676.04 0.0014792 -87.471 -87.471 -0.41560 1.3354 1.9909 1756.4 -0.0072684 807.34 0.18309 0.0036453 274.33 394.68 421.36 3.1798 0.89266 1.0813 179.76 1.6197 3.8660 0.0047951
-130.62 0.016124 2.3605e-07 -85.479 -85.479 -0.40157 675.03 0.0014814 -85.479 -85.479 -0.40157 1.3356 1.9926 1749.7 -0.0072555 788.12 0.18253 0.0041375 241.69 395.58 422.44 3.1622 0.89586 1.0846 180.34 1.5915 3.8935 0.0048586
-129.62 0.018392 2.5696e-07 -83.486 -83.486 -0.38763 674.02 0.0014836 -83.486 -83.486 -0.38763 1.3358 1.9944 1743.0 -0.0072425 769.63 0.18196 0.0046867 213.37 396.47 423.53 3.1450 0.89906 1.0878 180.91 1.5641 3.9210 0.0049223
-128.62 0.020935 2.7866e-07 -81.491 -81.490 -0.37378 673.01 0.0014859 -81.491 -81.490 -0.37378 1.3360 1.9961 1736.3 -0.0072294 751.83 0.18140 0.0052981 188.75 397.37 424.62 3.1281 0.90226 1.0910 181.48 1.5374 3.9485 0.0049863
-127.62 0.023783 3.0101e-07 -79.493 -79.493 -0.36001 672.00 0.0014881 -79.494 -79.493 -0.36001 1.3363 1.9979 1729.6 -0.0072160 734.67 0.18083 0.0059776 167.29 398.27 425.71 3.1116 0.90545 1.0942 182.05 1.5114 3.9760 0.0050506
-126.62 0.026966 3.2384e-07 -77.495 -77.494 -0.34632 670.98 0.0014904 -77.495 -77.495 -0.34632 1.3365 1.9997 1722.9 -0.0072025 718.14 0.18025 0.0067313 148.56 399.18 426.80 3.0954 0.90863 1.0974 182.62 1.4861 4.0035 0.0051152
-125.62 0.030515 3.4694e-07 -75.494 -75.494 -0.33271 669.97 0.0014926 -75.494 -75.494 -0.33272 1.3368 2.0015 1716.2 -0.0071888 702.18 0.17968 0.0075660 132.17 400.09 427.89 3.0795 0.91181 1.1006 183.18 1.4615 4.0310 0.0051800
-124.62 0.034467 3.7003e-07 -73.492 -73.491 -0.31919 668.95 0.0014949 -73.492 -73.492 -0.31919 1.3371 2.0033 1709.5 -0.0071749 686.79 0.17910 0.0084885 117.81 401.00 428.99 3.0640 0.91499 1.1038 183.74 1.4375 4.0584 0.0052452
-123.62 0.038859 3.9282e-07 -71.487 -71.487 -0.30574 667.94 0.0014971 -71.488 -71.487 -0.30574 1.3374 2.0051 1702.8 -0.0071609 671.93 0.17852 0.0095065 105.19 401.91 430.10 3.0488 0.91816 1.1070 184.30 1.4141 4.0859 0.0053106
-122.62 0.043731 4.1493e-07 -69.481 -69.481 -0.29237 666.92 0.0014994 -69.482 -69.481 -0.29237 1.3377 2.0070 1696.2 -0.0071466 657.57 0.17794 0.010628 94.092 402.83 431.20 3.0339 0.92134 1.1102 184.86 1.3913 4.1134 0.0053764
-121.62 0.049128 4.3595e-07 -67.473 -67.473 -0.27907 665.91 0.0015017 -67.474 -67.473 -0.27907 1.3380 2.0089 1689.5 -0.0071322 643.70 0.17736 0.011861 84.309 403.75 432.31 3.0193 0.92451 1.1134 185.41 1.3691 4.1409 0.0054424
-120.62 0.055096 4.5539e-07 -65.464 -65.463 -0.26585 664.89 0.0015040 -65.464 -65.463 -0.26585 1.3384 2.0107 1682.8 -0.0071176 630.28 0.17678 0.013215 75.669 404.67 433.42 3.0050 0.92767 1.1166 185.96 1.3475 4.1683 0.0055087
-119.62 0.061684 4.7267e-07 -63.452 -63.451 -0.25270 663.87 0.0015063 -63.452 -63.452 -0.25271 1.3387 2.0126 1676.1 -0.0071028 617.30 0.17619 0.014700 68.027 405.60 434.53 2.9909 0.93084 1.1198 186.51 1.3264 4.1958 0.0055752
-118.62 0.068946 4.8717e-07 -61.438 -61.438 -0.23963 662.86 0.0015086 -61.439 -61.438 -0.23963 1.3391 2.0146 1669.4 -0.0070878 604.74 0.17560 0.016325 61.255 406.53 435.64 2.9772 0.93401 1.1231 187.06 1.3058 4.2233 0.0056421
-117.62 0.076937 4.9815e-07 -59.423 -59.422 -0.22663 661.84 0.0015109 -59.423 -59.422 -0.22663 1.3395 2.0165 1662.8 -0.0070726 592.58 0.17501 0.018101 55.245 407.46 436.76 2.9638 0.93718 1.1263 187.60 1.2857 4.2507 0.0057092
-116.62 0.085718 5.0479e-07 -57.405 -57.405 -0.21370 660.82 0.0015133 -57.406 -57.405 -0.21370 1.3400 2.0184 1656.1 -0.0070573 580.80 0.17442 0.020040 49.901 408.39 437.88 2.9506 0.94035 1.1295 188.14 1.2660 4.2782 0.0057767
-115.62 0.095353 5.0618e-07 -55.386 -55.385 -0.20084 659.80 0.0015156 -55.386 -55.385 -0.20084 1.3404 2.0204 1649.4 -0.0070417 569.38 0.17383 0.022152 45.142 409.33 439.01 2.9377 0.94352 1.1327 188.68 1.2468 4.3056 0.0058444
-114.62 0.10591 5.0129e-07 -53.365 -53.364 -0.18805 658.78 0.0015180 -53.365 -53.364 -0.18805 1.3409 2.0224 1642.7 -0.0070260 558.32 0.17323 0.024451 40.898 410.27 440.13 2.9250 0.94669 1.1360 189.22 1.2281 4.3330 0.0059123
-113.62 0.11746 4.8897e-07 -51.341 -51.340 -0.17532 657.76 0.0015203 -51.342 -51.340 -0.17533 1.3413 2.0244 1636.0 -0.0070100 547.59 0.17264 0.026949 37.107 411.21 441.26 2.9126 0.94987 1.1392 189.75 1.2097 4.3604 0.0059806
-112.62 0.13008 4.6797e-07 -49.316 -49.315 -0.16267 656.73 0.0015227 -49.316 -49.315 -0.16267 1.3418 2.0264 1629.3 -0.0069938 537.18 0.17204 0.029661 33.715 412.16 442.39 2.9005 0.95305 1.1424 190.28 1.1918 4.3879 0.0060491
-111.62 0.14384 4.3687e-07 -47.289 -47.287 -0.15008 655.71 0.0015251 -47.289 -47.287 -0.15008 1.3424 2.0285 1622.7 -0.0069774 527.08 0.17144 0.032600 30.675 413.10 443.53 2.8885 0.95623 1.1457 190.81 1.1742 4.4153 0.0061180
-110.62 0.15884 3.9413e-07 -45.259 -45.257 -0.13755 654.69 0.0015274 -45.259 -45.258 -0.13755 1.3429 2.0305 1616.0 -0.0069609 517.28 0.17084 0.035781 27.948 414.06 444.66 2.8769 0.95942 1.1490 191.34 1.1570 4.4427 0.0061871
-109.62 0.17516 3.3806e-07 -43.228 -43.226 -0.12509 653.66 0.0015298 -43.228 -43.226 -0.12509 1.3435 2.0326 1609.3 -0.0069441 507.76 0.17024 0.039220 25.497 415.01 445.80 2.8654 0.96261 1.1522 191.86 1.1402 4.4701 0.0062564
-108.62 0.19290 2.6680e-07 -41.194 -41.192 -0.11269 652.64 0.0015322 -41.194 -41.192 -0.11269 1.3441 2.0347 1602.6 -0.0069271 498.51 0.16964 0.042933 23.292 415.96 446.94 2.8542 0.96581 1.1555 192.38 1.1236 4.4974 0.0063261
-107.62 0.21215 1.7833e-07 -39.158 -39.156 -0.10036 651.61 0.0015347 -39.158 -39.156 -0.10036 1.3447 2.0369 1595.9 -0.0069098 489.52 0.16903 0.046937 21.305 416.92 448.09 2.8433 0.96901 1.1588 192.90 1.1075 4.5248 0.0063960
-106.62 0.23301 7.0427e-08 -37.120 -37.118 -0.088082 650.58 0.0015371 -37.120 -37.118 -0.088082 1.3453 2.0390 1589.2 -0.0068924 480.79 0.16843 0.051250 19.512 417.88 449.23 2.8325 0.97222 1.1621 193.41 1.0916 4.5522 0.0064662
-105.62 107.89 undefined -35.383 -34.238 -0.077675 650.00 0.0015385 -35.383 -34.238 -0.077675 1.3468 2.0399 1586.6 -0.0068857 475.14 0.16817 650.00 0.0015385 -35.383 -34.238 -0.077675 1.3468 2.0399 1586.6 -0.0068857 475.14 0.16817
-104.62 354.78 undefined -34.035 -30.271 -0.069652 650.00 0.0015385 -34.035 -30.271 -0.069652 1.3493 2.0392 1589.1 -0.0068929 473.28 0.16837 650.00 0.0015385 -34.035 -30.271 -0.069652 1.3493 2.0392 1589.1 -0.0068929 473.28 0.16837
-103.62 601.02 undefined -32.684 -26.309 -0.061662 650.00 0.0015385 -32.684 -26.309 -0.061662 1.3518 2.0386 1591.6 -0.0068998 471.44 0.16857 650.00 0.0015385 -32.684 -26.309 -0.061662 1.3518 2.0386 1591.6 -0.0068998 471.44 0.16857
-102.62 846.64 undefined -31.331 -22.350 -0.053704 650.00 0.0015385 -31.331 -22.350 -0.053704 1.3543 2.0380 1594.0 -0.0069065 469.63 0.16878 650.00 0.0015385 -31.331 -22.350 -0.053704 1.3543 2.0380 1594.0 -0.0069065 469.63 0.16878
-101.62 1091.6 undefined -29.976 -18.396 -0.045778 650.00 0.0015385 -29.976 -18.396 -0.045778 1.3568 2.0375 1596.5 -0.0069130 467.85 0.16898 650.00 0.0015385 -29.976 -18.396 -0.045778 1.3568 2.0375 1596.5 -0.0069130 467.85 0.16898
-100.62 1336.0 undefined -28.617 -14.446 -0.037883 650.00 0.0015385 -28.617 -14.446 -0.037883 1.3593 2.0371 1599.0 -0.0069192 466.09 0.16918 650.00 0.0015385 -28.617 -14.446 -0.037883 1.3593 2.0371 1599.0 -0.0069192 466.09 0.16918
-99.625 1579.7 undefined -27.257 -10.500 -0.030020 650.00 0.0015385 -27.257 -10.500 -0.030020 1.3619 2.0366 1601.4 -0.0069252 464.36 0.16938 650.00 0.0015385 -27.257 -10.500 -0.030020 1.3619 2.0366 1601.4 -0.0069252 464.36 0.16938
-98.625 1822.9 undefined -25.894 -6.5578 -0.022187 650.00 0.0015385 -25.894 -6.5578 -0.022187 1.3644 2.0363 1603.8 -0.0069309 462.65 0.16959 650.00 0.0015385 -25.894 -6.5578 -0.022187 1.3644 2.0363 1603.8 -0.0069309 462.65 0.16959
-97.625 2065.4 undefined -24.528 -2.6194 -0.014384 650.00 0.0015385 -24.528 -2.6194 -0.014384 1.3670 2.0359 1606.3 -0.0069364 460.96 0.16979 650.00 0.0015385 -24.528 -2.6194 -0.014384 1.3670 2.0359 1606.3 -0.0069364 460.96 0.16979
-96.625 2307.4 undefined -23.160 1.3152 -0.0066108 650.00 0.0015385 -23.160 1.3152 -0.0066108 1.3695 2.0357 1608.7 -0.0069417 459.30 0.16999 650.00 0.0015385 -23.160 1.3152 -0.0066108 1.3695 2.0357 1608.7 -0.0069417 459.30 0.16999
-95.625 2548.7 undefined -21.789 5.2461 0.0011328 650.00 0.0015385 -21.789 5.2461 0.0011328 1.3721 2.0355 1611.1 -0.0069467 457.66 0.17020 650.00 0.0015385 -21.789 5.2461 0.0011328 1.3721 2.0355 1611.1 -0.0069467 457.66 0.17020
-94.625 2789.5 undefined -20.416 9.1733 0.0088475 650.00 0.0015385 -20.416 9.1733 0.0088475 1.3747 2.0353 1613.4 -0.0069515 456.05 0.17040 650.00 0.0015385 -20.416 9.1733 0.0088475 1.3747 2.0353 1613.4 -0.0069515 456.05 0.17040
-93.625 3029.7 undefined -19.040 13.097 0.016534 650.00 0.0015385 -19.040 13.097 0.016534 1.3773 2.0352 1615.8 -0.0069561 454.46 0.17060 650.00 0.0015385 -19.040 13.097 0.016534 1.3773 2.0352 1615.8 -0.0069561 454.46 0.17060
-92.625 3269.3 undefined -17.661 17.017 0.024191 650.00 0.0015385 -17.661 17.017 0.024191 1.3799 2.0351 1618.2 -0.0069605 452.89 0.17081 650.00 0.0015385 -17.661 17.017 0.024191 1.3799 2.0351 1618.2 -0.0069605 452.89 0.17081
-91.625 3508.3 undefined -16.280 20.934 0.031821 650.00 0.0015385 -16.280 20.934 0.031821 1.3825 2.0351 1620.5 -0.0069646 451.34 0.17101 650.00 0.0015385 -16.280 20.934 0.031821 1.3825 2.0351 1620.5 -0.0069646 451.34 0.17101
-90.625 3746.7 undefined -14.896 24.847 0.039424 650.00 0.0015385 -14.896 24.847 0.039424 1.3852 2.0351 1622.8 -0.0069685 449.82 0.17122 650.00 0.0015385 -14.896 24.847 0.039424 1.3852 2.0351 1622.8 -0.0069685 449.82 0.17122
-89.625 3984.6 undefined -13.509 28.757 0.046999 650.00 0.0015385 -13.509 28.757 0.046999 1.3878 2.0351 1625.2 -0.0069722 448.31 0.17142 650.00 0.0015385 -13.509 28.757 0.046999 1.3878 2.0351 1625.2 -0.0069722 448.31 0.17142
-88.625 4222.0 undefined -12.120 32.663 0.054548 650.00 0.0015385 -12.120 32.663 0.054548 1.3905 2.0352 1627.5 -0.0069757 446.83 0.17163 650.00 0.0015385 -12.120 32.663 0.054548 1.3905 2.0352 1627.5 -0.0069757 446.83 0.17163
-87.625 4458.8 undefined -10.728 36.567 0.062070 650.00 0.0015385 -10.728 36.567 0.062070 1.3931 2.0354 1629.8 -0.0069790 445.37 0.17184 650.00 0.0015385 -10.728 36.567 0.062070 1.3931 2.0354 1629.8 -0.0069790 445.37 0.17184
-86.625 4695.0 undefined -9.3340 40.467 0.069566 650.00 0.0015385 -9.3340 40.467 0.069566 1.3958 2.0356 1632.0 -0.0069821 443.93 0.17204 650.00 0.0015385 -9.3340 40.467 0.069566 1.3958 2.0356 1632.0 -0.0069821 443.93 0.17204
-85.625 4930.7 undefined -7.9368 44.364 0.077037 650.00 0.0015385 -7.9368 44.364 0.077037 1.3985 2.0358 1634.3 -0.0069849 442.51 0.17225 650.00 0.0015385 -7.9368 44.364 0.077037 1.3985 2.0358 1634.3 -0.0069849 442.51 0.17225
-84.625 5165.8 undefined -6.5369 48.259 0.084482 650.00 0.0015385 -6.5369 48.259 0.084482 1.4012 2.0361 1636.6 -0.0069876 441.10 0.17246 650.00 0.0015385 -6.5369 48.259 0.084482 1.4012 2.0361 1636.6 -0.0069876 441.10 0.17246
-83.625 5400.4 undefined -5.1344 52.150 0.091902 650.00 0.0015385 -5.1344 52.150 0.091902 1.4040 2.0365 1638.8 -0.0069900 439.72 0.17266 650.00 0.0015385 -5.1344 52.150 0.091902 1.4040 2.0365 1638.8 -0.0069900 439.72 0.17266
-82.625 5634.5 undefined -3.7290 56.038 0.099298 650.00 0.0015385 -3.7290 56.038 0.099298 1.4067 2.0368 1641.0 -0.0069923 438.36 0.17287 650.00 0.0015385 -3.7290 56.038 0.099298 1.4067 2.0368 1641.0 -0.0069923 438.36 0.17287
-81.625 5868.1 undefined -2.3209 59.924 0.10667 650.00 0.0015385 -2.3209 59.924 0.10667 1.4095 2.0372 1643.2 -0.0069944 437.01 0.17308 650.00 0.0015385 -2.3209 59.924 0.10667 1.4095 2.0372 1643.2 -0.0069944 437.01 0.17308
-80.625 6101.1 undefined -0.91011 63.806 0.11402 650.00 0.0015385 -0.91011 63.806 0.11402 1.4122 2.0377 1645.4 -0.0069962 435.69 0.17329 650.00 0.0015385 -0.91011 63.806 0.11402 1.4122 2.0377 1645.4 -0.0069962 435.69 0.17329
-79.625 6333.6 undefined 0.50349 67.686 0.12134 650.00 0.0015385 0.50349 67.686 0.12134 1.4150 2.0382 1647.6 -0.0069979 434.38 0.17350 650.00 0.0015385 0.50349 67.686 0.12134 1.4150 2.0382 1647.6 -0.0069979 434.38 0.17350
-78.625 6565.6 undefined 1.9199 71.563 0.12864 650.00 0.0015385 1.9199 71.563 0.12864 1.4178 2.0387 1649.8 -0.0069994 433.09 0.17370 650.00 0.0015385 1.9199 71.563 0.12864 1.4178 2.0387 1649.8 -0.0069994 433.09 0.17370
-77.625 6797.1 undefined 3.3391 75.438 0.13592 650.00 0.0015385 3.3391 75.438 0.13592 1.4206 2.0393 1651.9 -0.0070007 431.82 0.17391 650.00 0.0015385 3.3391 75.438 0.13592 1.4206 2.0393 1651.9 -0.0070007 431.82 0.17391
-76.625 7028.0 undefined 4.7611 79.310 0.14317 650.00 0.0015385 4.7611 79.310 0.14317 1.4234 2.0399 1654.1 -0.0070018 430.56 0.17412 650.00 0.0015385 4.7611 79.310 0.14317 1.4234 2.0399 1654.1 -0.0070018 430.56 0.17412
-75.625 7258.5 undefined 6.1859 83.179 0.15040 650.00 0.0015385 6.1859 83.179 0.15040 1.4263 2.0406 1656.2 -0.0070027 429.33 0.17433 650.00 0.0015385 6.1859 83.179 0.15040 1.4263 2.0406 1656.2 -0.0070027 429.33 0.17433
-74.625 7488.5 undefined 7.6136 87.046 0.15761 650.00 0.0015385 7.6136 87.046 0.15761 1.4291 2.0413 1658.3 -0.0070035 428.10 0.17454 650.00 0.0015385 7.6136 87.046 0.15761 1.4291 2.0413 1658.3 -0.0070035 428.10 0.17454
-73.625 7717.9 undefined 9.0442 90.911 0.16480 650.00 0.0015385 9.0442 90.911 0.16480 1.4320 2.0420 1660.5 -0.0070040 426.90 0.17475 650.00 0.0015385 9.0442 90.911 0.16480 1.4320 2.0420 1660.5 -0.0070040 426.90 0.17475
-72.625 7946.9 undefined 10.478 94.773 0.17197 650.00 0.0015385 10.478 94.773 0.17197 1.4349 2.0428 1662.5 -0.0070044 425.71 0.17496 650.00 0.0015385 10.478 94.773 0.17197 1.4349 2.0428 1662.5 -0.0070044 425.71 0.17496
-71.625 8175.4 undefined 11.914 98.633 0.17911 650.00 0.0015385 11.914 98.633 0.17911 1.4378 2.0436 1664.6 -0.0070047 424.54 0.17517 650.00 0.0015385 11.914 98.633 0.17911 1.4378 2.0436 1664.6 -0.0070047 424.54 0.17517
-70.625 8403.4 undefined 13.353 102.49 0.18624 650.00 0.0015385 13.353 102.49 0.18624 1.4407 2.0445 1666.7 -0.0070047 423.38 0.17538 650.00 0.0015385 13.353 102.49 0.18624 1.4407 2.0445 1666.7 -0.0070047 423.38 0.17538
-69.625 8630.9 undefined 14.795 106.35 0.19334 650.00 0.0015385 14.795 106.35 0.19334 1.4436 2.0454 1668.7 -0.0070046 422.24 0.17560 650.00 0.0015385 14.795 106.35 0.19334 1.4436 2.0454 1668.7 -0.0070046 422.24 0.17560
-68.625 8857.9 undefined 16.240 110.20 0.20042 650.00 0.0015385 16.240 110.20 0.20042 1.4466 2.0463 1670.8 -0.0070043 421.11 0.17581 650.00 0.0015385 16.240 110.20 0.20042 1.4466 2.0463 1670.8 -0.0070043 421.11 0.17581
-67.625 9084.4 undefined 17.688 114.05 0.20748 650.00 0.0015385 17.688 114.05 0.20748 1.4495 2.0473 1672.8 -0.0070038 420.00 0.17602 650.00 0.0015385 17.688 114.05 0.20748 1.4495 2.0473 1672.8 -0.0070038 420.00 0.17602
-66.625 9310.5 undefined 19.139 117.90 0.21453 650.00 0.0015385 19.139 117.90 0.21453 1.4525 2.0483 1674.8 -0.0070032 418.91 0.17623 650.00 0.0015385 19.139 117.90 0.21453 1.4525 2.0483 1674.8 -0.0070032 418.91 0.17623
-65.625 9536.1 undefined 20.593 121.75 0.22155 650.00 0.0015385 20.593 121.75 0.22155 1.4555 2.0493 1676.8 -0.0070025 417.82 0.17644 650.00 0.0015385 20.593 121.75 0.22155 1.4555 2.0493 1676.8 -0.0070025 417.82 0.17644
-64.625 9761.2 undefined 22.050 125.59 0.22855 650.00 0.0015385 22.050 125.59 0.22855 1.4585 2.0504 1678.8 -0.0070015 416.76 0.17666 650.00 0.0015385 22.050 125.59 0.22855 1.4585 2.0504 1678.8 -0.0070015 416.76 0.17666
-63.625 9985.9 undefined 23.510 129.43 0.23554 650.00 0.0015385 23.510 129.43 0.23554 1.4615 2.0515 1680.8 -0.0070004 415.70 0.17687 650.00 0.0015385 23.510 129.43 0.23554 1.4615 2.0515 1680.8 -0.0070004 415.70 0.17687
-62.625 10210. undefined 24.974 133.27 0.24251 650.00 0.0015385 24.974 133.27 0.24251 1.4646 2.0526 1682.8 -0.0069992 414.66 0.17708 650.00 0.0015385 24.974 133.27 0.24251 1.4646 2.0526 1682.8 -0.0069992 414.66 0.17708
-61.625 10434. undefined 26.440 137.11 0.24945 650.00 0.0015385 26.440 137.11 0.24945 1.4676 2.0538 1684.7 -0.0069978 413.63 0.17730 650.00 0.0015385 26.440 137.11 0.24945 1.4676 2.0538 1684.7 -0.0069978 413.63 0.17730
-60.625 10657. undefined 27.909 140.95 0.25638 650.00 0.0015385 27.909 140.95 0.25638 1.4707 2.0550 1686.7 -0.0069962 412.62 0.17751 650.00 0.0015385 27.909 140.95 0.25638 1.4707 2.0550 1686.7 -0.0069962 412.62 0.17751
-59.625 10880. undefined 29.381 144.79 0.26329 650.00 0.0015385 29.381 144.79 0.26329 1.4738 2.0563 1688.6 -0.0069945 411.62 0.17772 650.00 0.0015385 29.381 144.79 0.26329 1.4738 2.0563 1688.6 -0.0069945 411.62 0.17772
-58.625 11102. undefined 30.856 148.62 0.27019 650.00 0.0015385 30.856 148.62 0.27019 1.4769 2.0576 1690.5 -0.0069927 410.63 0.17794 650.00 0.0015385 30.856 148.62 0.27019 1.4769 2.0576 1690.5 -0.0069927 410.63 0.17794
-57.625 11324. undefined 32.335 152.45 0.27706 650.00 0.0015385 32.335 152.45 0.27706 1.4800 2.0589 1692.4 -0.0069907 409.66 0.17815 650.00 0.0015385 32.335 152.45 0.27706 1.4800 2.0589 1692.4 -0.0069907 409.66 0.17815
-56.625 11546. undefined 33.816 156.29 0.28392 650.00 0.0015385 33.816 156.29 0.28392 1.4832 2.0603 1694.3 -0.0069886 408.70 0.17837 650.00 0.0015385 33.816 156.29 0.28392 1.4832 2.0603 1694.3 -0.0069886 408.70 0.17837
-55.625 11767. undefined 35.301 160.11 0.29076 650.00 0.0015385 35.301 160.11 0.29076 1.4863 2.0616 1696.2 -0.0069863 407.75 0.17858 650.00 0.0015385 35.301 160.11 0.29076 1.4863 2.0616 1696.2 -0.0069863 407.75 0.17858
-54.625 11987. undefined 36.789 163.94 0.29759 650.00 0.0015385 36.789 163.94 0.29759 1.4895 2.0631 1698.0 -0.0069839 406.81 0.17880 650.00 0.0015385 36.789 163.94 0.29759 1.4895 2.0631 1698.0 -0.0069839 406.81 0.17880
-53.625 12207. undefined 38.280 167.77 0.30439 650.00 0.0015385 38.280 167.77 0.30439 1.4927 2.0645 1699.9 -0.0069813 405.88 0.17902 650.00 0.0015385 38.280 167.77 0.30439 1.4927 2.0645 1699.9 -0.0069813 405.88 0.17902
-52.625 12427. undefined 39.775 171.59 0.31119 650.00 0.0015385 39.775 171.59 0.31119 1.4959 2.0660 1701.7 -0.0069786 404.97 0.17923 650.00 0.0015385 39.775 171.59 0.31119 1.4959 2.0660 1701.7 -0.0069786 404.97 0.17923
-51.625 12646. undefined 41.272 175.42 0.31796 650.00 0.0015385 41.272 175.42 0.31796 1.4991 2.0675 1703.6 -0.0069758 404.07 0.17945 650.00 0.0015385 41.272 175.42 0.31796 1.4991 2.0675 1703.6 -0.0069758 404.07 0.17945
-50.625 12865. undefined 42.773 179.24 0.32472 650.00 0.0015385 42.773 179.24 0.32472 1.5024 2.0691 1705.4 -0.0069729 403.17 0.17967 650.00 0.0015385 42.773 179.24 0.32472 1.5024 2.0691 1705.4 -0.0069729 403.17 0.17967
-49.625 13084. undefined 44.277 183.06 0.33146 650.00 0.0015385 44.277 183.06 0.33146 1.5056 2.0707 1707.2 -0.0069698 402.29 0.17988 650.00 0.0015385 44.277 183.06 0.33146 1.5056 2.0707 1707.2 -0.0069698 402.29 0.17988
-48.625 13302. undefined 45.784 186.88 0.33819 650.00 0.0015385 45.784 186.88 0.33819 1.5089 2.0723 1709.0 -0.0069666 401.42 0.18010 650.00 0.0015385 45.784 186.88 0.33819 1.5089 2.0723 1709.0 -0.0069666 401.42 0.18010
-47.625 13519. undefined 47.295 190.70 0.34491 650.00 0.0015385 47.295 190.70 0.34491 1.5122 2.0739 1710.8 -0.0069632 400.57 0.18032 650.00 0.0015385 47.295 190.70 0.34491 1.5122 2.0739 1710.8 -0.0069632 400.57 0.18032
-46.625 13736. undefined 48.808 194.51 0.35160 650.00 0.0015385 48.808 194.51 0.35160 1.5155 2.0756 1712.6 -0.0069597 399.72 0.18054 650.00 0.0015385 48.808 194.51 0.35160 1.5155 2.0756 1712.6 -0.0069597 399.72 0.18054
-45.625 13953. undefined 50.326 198.33 0.35829 650.00 0.0015385 50.326 198.33 0.35829 1.5188 2.0773 1714.3 -0.0069562 398.88 0.18076 650.00 0.0015385 50.326 198.33 0.35829 1.5188 2.0773 1714.3 -0.0069562 398.88 0.18076
-44.625 14169. undefined 51.846 202.15 0.36495 650.00 0.0015385 51.846 202.15 0.36495 1.5222 2.0791 1716.1 -0.0069524 398.05 0.18097 650.00 0.0015385 51.846 202.15 0.36495 1.5222 2.0791 1716.1 -0.0069524 398.05 0.18097
-43.625 14385. undefined 53.370 205.96 0.37161 650.00 0.0015385 53.370 205.96 0.37161 1.5255 2.0808 1717.8 -0.0069486 397.24 0.18119 650.00 0.0015385 53.370 205.96 0.37161 1.5255 2.0808 1717.8 -0.0069486 397.24 0.18119
-42.625 14601. undefined 54.897 209.77 0.37825 650.00 0.0015385 54.897 209.77 0.37825 1.5289 2.0826 1719.6 -0.0069447 396.43 0.18141 650.00 0.0015385 54.897 209.77 0.37825 1.5289 2.0826 1719.6 -0.0069447 396.43 0.18141
-41.625 14816. undefined 56.428 213.58 0.38487 650.00 0.0015385 56.428 213.58 0.38487 1.5323 2.0845 1721.3 -0.0069406 395.63 0.18163 650.00 0.0015385 56.428 213.58 0.38487 1.5323 2.0845 1721.3 -0.0069406 395.63 0.18163
-40.625 15031. undefined 57.962 217.40 0.39148 650.00 0.0015385 57.962 217.40 0.39148 1.5357 2.0863 1723.0 -0.0069364 394.85 0.18185 650.00 0.0015385 57.962 217.40 0.39148 1.5357 2.0863 1723.0 -0.0069364 394.85 0.18185
-39.625 15245. undefined 59.499 221.21 0.39808 650.00 0.0015385 59.499 221.21 0.39808 1.5391 2.0882 1724.7 -0.0069321 394.07 0.18207 650.00 0.0015385 59.499 221.21 0.39808 1.5391 2.0882 1724.7 -0.0069321 394.07 0.18207
-38.625 15459. undefined 61.040 225.01 0.40467 650.00 0.0015385 61.040 225.01 0.40467 1.5426 2.0901 1726.4 -0.0069277 393.30 0.18229 650.00 0.0015385 61.040 225.01 0.40467 1.5426 2.0901 1726.4 -0.0069277 393.30 0.18229
-37.625 15672. undefined 62.584 228.82 0.41124 650.00 0.0015385 62.584 228.82 0.41124 1.5460 2.0921 1728.1 -0.0069232 392.54 0.18251 650.00 0.0015385 62.584 228.82 0.41124 1.5460 2.0921 1728.1 -0.0069232 392.54 0.18251
-36.625 15885. undefined 64.132 232.63 0.41779 650.00 0.0015385 64.132 232.63 0.41779 1.5495 2.0941 1729.8 -0.0069186 391.79 0.18273 650.00 0.0015385 64.132 232.63 0.41779 1.5495 2.0941 1729.8 -0.0069186 391.79 0.18273
-35.625 16098. undefined 65.683 236.44 0.42434 650.00 0.0015385 65.683 236.44 0.42434 1.5530 2.0961 1731.5 -0.0069139 391.05 0.18295 650.00 0.0015385 65.683 236.44 0.42434 1.5530 2.0961 1731.5 -0.0069139 391.05 0.18295
-34.625 16310. undefined 67.238 240.24 0.43087 650.00 0.0015385 67.238 240.24 0.43087 1.5565 2.0981 1733.1 -0.0069090 390.32 0.18318 650.00 0.0015385 67.238 240.24 0.43087 1.5565 2.0981 1733.1 -0.0069090 390.32 0.18318
-33.625 16522. undefined 68.796 244.05 0.43739 650.00 0.0015385 68.796 244.05 0.43739 1.5600 2.1002 1734.8 -0.0069041 389.60 0.18340 650.00 0.0015385 68.796 244.05 0.43739 1.5600 2.1002 1734.8 -0.0069041 389.60 0.18340
-32.625 16733. undefined 70.358 247.85 0.44390 650.00 0.0015385 70.358 247.85 0.44390 1.5635 2.1023 1736.4 -0.0068991 388.88 0.18362 650.00 0.0015385 70.358 247.85 0.44390 1.5635 2.1023 1736.4 -0.0068991 388.88 0.18362
-31.625 16944. undefined 71.923 251.66 0.45039 650.00 0.0015385 71.923 251.66 0.45039 1.5671 2.1044 1738.0 -0.0068940 388.18 0.18384 650.00 0.0015385 71.923 251.66 0.45039 1.5671 2.1044 1738.0 -0.0068940 388.18 0.18384
-30.625 17155. undefined 73.492 255.46 0.45687 650.00 0.0015385 73.492 255.46 0.45687 1.5707 2.1065 1739.7 -0.0068887 387.48 0.18407 650.00 0.0015385 73.492 255.46 0.45687 1.5707 2.1065 1739.7 -0.0068887 387.48 0.18407
-29.625 17365. undefined 75.065 259.27 0.46334 650.00 0.0015385 75.065 259.27 0.46334 1.5742 2.1087 1741.3 -0.0068834 386.79 0.18429 650.00 0.0015385 75.065 259.27 0.46334 1.5742 2.1087 1741.3 -0.0068834 386.79 0.18429
-28.625 17575. undefined 76.641 263.07 0.46980 650.00 0.0015385 76.641 263.07 0.46980 1.5778 2.1109 1742.9 -0.0068780 386.11 0.18451 650.00 0.0015385 76.641 263.07 0.46980 1.5778 2.1109 1742.9 -0.0068780 386.11 0.18451
-27.625 17785. undefined 78.220 266.87 0.47625 650.00 0.0015385 78.220 266.87 0.47625 1.5814 2.1131 1744.5 -0.0068725 385.44 0.18474 650.00 0.0015385 78.220 266.87 0.47625 1.5814 2.1131 1744.5 -0.0068725 385.44 0.18474
-26.625 17994. undefined 79.804 270.67 0.48268 650.00 0.0015385 79.804 270.67 0.48268 1.5851 2.1153 1746.1 -0.0068669 384.77 0.18496 650.00 0.0015385 79.804 270.67 0.48268 1.5851 2.1153 1746.1 -0.0068669 384.77 0.18496
-25.625 18203. undefined 81.391 274.47 0.48911 650.00 0.0015385 81.391 274.47 0.48911 1.5887 2.1176 1747.7 -0.0068612 384.11 0.18518 650.00 0.0015385 81.391 274.47 0.48911 1.5887 2.1176 1747.7 -0.0068612 384.11 0.18518
-24.625 18411. undefined 82.981 278.28 0.49552 650.00 0.0015385 82.981 278.28 0.49552 1.5924 2.1199 1749.2 -0.0068554 383.46 0.18541 650.00 0.0015385 82.981 278.28 0.49552 1.5924 2.1199 1749.2 -0.0068554 383.46 0.18541
-23.625 18619. undefined 84.575 282.08 0.50192 650.00 0.0015385 84.575 282.08 0.50192 1.5960 2.1222 1750.8 -0.0068495 382.82 0.18563 650.00 0.0015385 84.575 282.08 0.50192 1.5960 2.1222 1750.8 -0.0068495 382.82 0.18563
-22.625 18827. undefined 86.173 285.88 0.50831 650.00 0.0015385 86.173 285.88 0.50831 1.5997 2.1246 1752.3 -0.0068436 382.18 0.18586 650.00 0.0015385 86.173 285.88 0.50831 1.5997 2.1246 1752.3 -0.0068436 382.18 0.18586
-21.625 19034. undefined 87.775 289.68 0.51469 650.00 0.0015385 87.775 289.68 0.51469 1.6034 2.1270 1753.9 -0.0068375 381.56 0.18608 650.00 0.0015385 87.775 289.68 0.51469 1.6034 2.1270 1753.9 -0.0068375 381.56 0.18608
-20.625 19241. undefined 89.380 293.48 0.52106 650.00 0.0015385 89.380 293.48 0.52106 1.6071 2.1294 1755.4 -0.0068314 380.94 0.18631 650.00 0.0015385 89.380 293.48 0.52106 1.6071 2.1294 1755.4 -0.0068314 380.94 0.18631
-19.625 19448. undefined 90.989 297.28 0.52742 650.00 0.0015385 90.989 297.28 0.52742 1.6108 2.1318 1757.0 -0.0068252 380.32 0.18653 650.00 0.0015385 90.989 297.28 0.52742 1.6108 2.1318 1757.0 -0.0068252 380.32 0.18653
-18.625 19654. undefined 92.602 301.08 0.53377 650.00 0.0015385 92.602 301.08 0.53377 1.6146 2.1342 1758.5 -0.0068190 379.72 0.18676 650.00 0.0015385 92.602 301.08 0.53377 1.6146 2.1342 1758.5 -0.0068190 379.72 0.18676
-17.625 19860. undefined 94.218 304.88 0.54011 650.00 0.0015385 94.218 304.88 0.54011 1.6183 2.1367 1760.0 -0.0068126 379.12 0.18699 650.00 0.0015385 94.218 304.88 0.54011 1.6183 2.1367 1760.0 -0.0068126 379.12 0.18699
-16.625 20065. undefined 95.838 308.68 0.54644 650.00 0.0015385 95.838 308.68 0.54644 1.6221 2.1392 1761.5 -0.0068062 378.52 0.18721 650.00 0.0015385 95.838 308.68 0.54644 1.6221 2.1392 1761.5 -0.0068062 378.52 0.18721
-15.625 20271. undefined 97.462 312.48 0.55276 650.00 0.0015385 97.462 312.48 0.55276 1.6258 2.1417 1763.0 -0.0067997 377.94 0.18744 650.00 0.0015385 97.462 312.48 0.55276 1.6258 2.1417 1763.0 -0.0067997 377.94 0.18744
-14.625 20475. undefined 99.090 316.28 0.55906 650.00 0.0015385 99.090 316.28 0.55906 1.6296 2.1442 1764.5 -0.0067931 377.36 0.18767 650.00 0.0015385 99.090 316.28 0.55906 1.6296 2.1442 1764.5 -0.0067931 377.36 0.18767
-13.625 20680. undefined 100.72 320.08 0.56536 650.00 0.0015385 100.72 320.08 0.56536 1.6334 2.1468 1766.0 -0.0067865 376.78 0.18790 650.00 0.0015385 100.72 320.08 0.56536 1.6334 2.1468 1766.0 -0.0067865 376.78 0.18790
-12.625 20884. undefined 102.36 323.88 0.57165 650.00 0.0015385 102.36 323.88 0.57165 1.6372 2.1494 1767.5 -0.0067798 376.22 0.18812 650.00 0.0015385 102.36 323.88 0.57165 1.6372 2.1494 1767.5 -0.0067798 376.22 0.18812
-11.625 21088. undefined 104.00 327.68 0.57793 650.00 0.0015385 104.00 327.68 0.57793 1.6411 2.1520 1769.0 -0.0067730 375.66 0.18835 650.00 0.0015385 104.00 327.68 0.57793 1.6411 2.1520 1769.0 -0.0067730 375.66 0.18835
-10.625 21291. undefined 105.64 331.48 0.58420 650.00 0.0015385 105.64 331.48 0.58420 1.6449 2.1546 1770.5 -0.0067661 375.10 0.18858 650.00 0.0015385 105.64 331.48 0.58420 1.6449 2.1546 1770.5 -0.0067661 375.10 0.18858
-9.6250 21494. undefined 107.29 335.28 0.59046 650.00 0.0015385 107.29 335.28 0.59046 1.6487 2.1572 1772.0 -0.0067592 374.56 0.18881 650.00 0.0015385 107.29 335.28 0.59046 1.6487 2.1572 1772.0 -0.0067592 374.56 0.18881
-8.6250 21697. undefined 108.94 339.08 0.59671 650.00 0.0015385 108.94 339.08 0.59671 1.6526 2.1599 1773.4 -0.0067523 374.01 0.18904 650.00 0.0015385 108.94 339.08 0.59671 1.6526 2.1599 1773.4 -0.0067523 374.01 0.18904
-7.6250 21899. undefined 110.59 342.88 0.60296 650.00 0.0015385 110.59 342.88 0.60296 1.6565 2.1626 1774.9 -0.0067452 373.48 0.18927 650.00 0.0015385 110.59 342.88 0.60296 1.6565 2.1626 1774.9 -0.0067452 373.48 0.18927
-6.6250 22101. undefined 112.25 346.68 0.60919 650.00 0.0015385 112.25 346.68 0.60919 1.6604 2.1653 1776.3 -0.0067381 372.95 0.18950 650.00 0.0015385 112.25 346.68 0.60919 1.6604 2.1653 1776.3 -0.0067381 372.95 0.18950
-5.6250 22303. undefined 113.91 350.48 0.61542 650.00 0.0015385 113.91 350.48 0.61542 1.6643 2.1680 1777.8 -0.0067310 372.42 0.18973 650.00 0.0015385 113.91 350.48 0.61542 1.6643 2.1680 1777.8 -0.0067310 372.42 0.18973
-4.6250 22504. undefined 115.58 354.29 0.62163 650.00 0.0015385 115.58 354.29 0.62163 1.6682 2.1708 1779.2 -0.0067238 371.90 0.18996 650.00 0.0015385 115.58 354.29 0.62163 1.6682 2.1708 1779.2 -0.0067238 371.90 0.18996
-3.6250 22705. undefined 117.25 358.09 0.62784 650.00 0.0015385 117.25 358.09 0.62784 1.6721 2.1735 1780.6 -0.0067165 371.39 0.19019 650.00 0.0015385 117.25 358.09 0.62784 1.6721 2.1735 1780.6 -0.0067165 371.39 0.19019
-2.6250 22906. undefined 118.92 361.89 0.63404 650.00 0.0015385 118.92 361.89 0.63404 1.6760 2.1763 1782.1 -0.0067092 370.88 0.19042 650.00 0.0015385 118.92 361.89 0.63404 1.6760 2.1763 1782.1 -0.0067092 370.88 0.19042
-1.6250 23106. undefined 120.60 365.69 0.64023 650.00 0.0015385 120.60 365.69 0.64023 1.6799 2.1791 1783.5 -0.0067018 370.38 0.19065 650.00 0.0015385 120.60 365.69 0.64023 1.6799 2.1791 1783.5 -0.0067018 370.38 0.19065
-0.62500 23306. undefined 122.28 369.50 0.64642 650.00 0.0015385 122.28 369.50 0.64642 1.6839 2.1820 1784.9 -0.0066944 369.89 0.19088 650.00 0.0015385 122.28 369.50 0.64642 1.6839 2.1820 1784.9 -0.0066944 369.89 0.19088
0.37500 23506. undefined 123.97 373.30 0.65259 650.00 0.0015385 123.97 373.30 0.65259 1.6878 2.1848 1786.3 -0.0066869 369.40 0.19112 650.00 0.0015385 123.97 373.30 0.65259 1.6878 2.1848 1786.3 -0.0066869 369.40 0.19112
1.3750 23705. undefined 125.66 377.11 0.65876 650.00 0.0015385 125.66 377.11 0.65876 1.6918 2.1877 1787.7 -0.0066794 368.91 0.19135 650.00 0.0015385 125.66 377.11 0.65876 1.6918 2.1877 1787.7 -0.0066794 368.91 0.19135
2.3750 23904. undefined 127.35 380.91 0.66492 650.00 0.0015385 127.35 380.91 0.66492 1.6958 2.1905 1789.1 -0.0066718 368.43 0.19158 650.00 0.0015385 127.35 380.91 0.66492 1.6958 2.1905 1789.1 -0.0066718 368.43 0.19158
3.3750 24103. undefined 129.05 384.72 0.67107 650.00 0.0015385 129.05 384.72 0.67107 1.6998 2.1934 1790.5 -0.0066642 367.95 0.19181 650.00 0.0015385 129.05 384.72 0.67107 1.6998 2.1934 1790.5 -0.0066642 367.95 0.19181
4.3750 24301. undefined 130.75 388.52 0.67721 650.00 0.0015385 130.75 388.52 0.67721 1.7038 2.1964 1791.9 -0.0066565 367.48 0.19205 650.00 0.0015385 130.75 388.52 0.67721 1.7038 2.1964 1791.9 -0.0066565 367.48 0.19205
5.3750 24499. undefined 132.46 392.33 0.68334 650.00 0.0015385 132.46 392.33 0.68334 1.7078 2.1993 1793.3 -0.0066488 367.02 0.19228 650.00 0.0015385 132.46 392.33 0.68334 1.7078 2.1993 1793.3 -0.0066488 367.02 0.19228
6.3750 24697. undefined 134.17 396.14 0.68947 650.00 0.0015385 134.17 396.14 0.68947 1.7118 2.2022 1794.7 -0.0066410 366.56 0.19251 650.00 0.0015385 134.17 396.14 0.68947 1.7118 2.2022 1794.7 -0.0066410 366.56 0.19251
7.3750 24894. undefined 135.88 399.94 0.69559 650.00 0.0015385 135.88 399.94 0.69559 1.7158 2.2052 1796.0 -0.0066332 366.10 0.19275 650.00 0.0015385 135.88 399.94 0.69559 1.7158 2.2052 1796.0 -0.0066332 366.10 0.19275
8.3750 25092. undefined 137.60 403.75 0.70171 650.00 0.0015385 137.60 403.75 0.70171 1.7198 2.2082 1797.4 -0.0066254 365.65 0.19298 650.00 0.0015385 137.60 403.75 0.70171 1.7198 2.2082 1797.4 -0.0066254 365.65 0.19298
9.3750 25288. undefined 139.32 407.56 0.70781 650.00 0.0015385 139.32 407.56 0.70781 1.7239 2.2112 1798.8 -0.0066175 365.21 0.19321 650.00 0.0015385 139.32 407.56 0.70781 1.7239 2.2112 1798.8 -0.0066175 365.21 0.19321
10.375 25485. undefined 141.05 411.37 0.71391 650.00 0.0015385 141.05 411.37 0.71391 1.7279 2.2142 1800.1 -0.0066096 364.76 0.19345 650.00 0.0015385 141.05 411.37 0.71391 1.7279 2.2142 1800.1 -0.0066096 364.76 0.19345
11.375 25681. undefined 142.78 415.18 0.72000 650.00 0.0015385 142.78 415.18 0.72000 1.7320 2.2172 1801.5 -0.0066017 364.33 0.19368 650.00 0.0015385 142.78 415.18 0.72000 1.7320 2.2172 1801.5 -0.0066017 364.33 0.19368
12.375 25877. undefined 144.51 418.99 0.72608 650.00 0.0015385 144.51 418.99 0.72608 1.7361 2.2203 1802.8 -0.0065937 363.90 0.19392 650.00 0.0015385 144.51 418.99 0.72608 1.7361 2.2203 1802.8 -0.0065937 363.90 0.19392
13.375 26073. undefined 146.25 422.81 0.73216 650.00 0.0015385 146.25 422.81 0.73216 1.7401 2.2233 1804.2 -0.0065856 363.47 0.19416 650.00 0.0015385 146.25 422.81 0.73216 1.7401 2.2233 1804.2 -0.0065856 363.47 0.19416
14.375 26268. undefined 147.99 426.62 0.73823 650.00 0.0015385 147.99 426.62 0.73823 1.7442 2.2264 1805.5 -0.0065776 363.05 0.19439 650.00 0.0015385 147.99 426.62 0.73823 1.7442 2.2264 1805.5 -0.0065776 363.05 0.19439
15.375 26463. undefined 149.74 430.43 0.74429 650.00 0.0015385 149.74 430.43 0.74429 1.7483 2.2295 1806.9 -0.0065695 362.63 0.19463 650.00 0.0015385 149.74 430.43 0.74429 1.7483 2.2295 1806.9 -0.0065695 362.63 0.19463
16.375 26657. undefined 151.49 434.25 0.75035 650.00 0.0015385 151.49 434.25 0.75035 1.7524 2.2326 1808.2 -0.0065614 362.21 0.19486 650.00 0.0015385 151.49 434.25 0.75035 1.7524 2.2326 1808.2 -0.0065614 362.21 0.19486
17.375 26852. undefined 153.24 438.07 0.75640 650.00 0.0015385 153.24 438.07 0.75640 1.7565 2.2357 1809.5 -0.0065532 361.80 0.19510 650.00 0.0015385 153.24 438.07 0.75640 1.7565 2.2357 1809.5 -0.0065532 361.80 0.19510
18.375 27046. undefined 155.00 441.88 0.76244 650.00 0.0015385 155.00 441.88 0.76244 1.7606 2.2389 1810.9 -0.0065450 361.40 0.19534 650.00 0.0015385 155.00 441.88 0.76244 1.7606 2.2389 1810.9 -0.0065450 361.40 0.19534
19.375 27240. undefined 156.76 445.70 0.76848 650.00 0.0015385 156.76 445.70 0.76848 1.7647 2.2420 1812.2 -0.0065368 360.99 0.19557 650.00 0.0015385 156.76 445.70 0.76848 1.7647 2.2420 1812.2 -0.0065368 360.99 0.19557
20.375 27433. undefined 158.53 449.52 0.77451 650.00 0.0015385 158.53 449.52 0.77451 1.7689 2.2452 1813.5 -0.0065286 360.60 0.19581 650.00 0.0015385 158.53 449.52 0.77451 1.7689 2.2452 1813.5 -0.0065286 360.60 0.19581
21.375 27626. undefined 160.30 453.34 0.78053 650.00 0.0015385 160.30 453.34 0.78053 1.7730 2.2484 1814.8 -0.0065203 360.20 0.19605 650.00 0.0015385 160.30 453.34 0.78053 1.7730 2.2484 1814.8 -0.0065203 360.20 0.19605
22.375 27819. undefined 162.08 457.16 0.78655 650.00 0.0015385 162.08 457.16 0.78655 1.7771 2.2516 1816.1 -0.0065120 359.81 0.19629 650.00 0.0015385 162.08 457.16 0.78655 1.7771 2.2516 1816.1 -0.0065120 359.81 0.19629
23.375 28012. undefined 163.85 460.98 0.79256 650.00 0.0015385 163.85 460.98 0.79256 1.7813 2.2548 1817.4 -0.0065037 359.43 0.19653 650.00 0.0015385 163.85 460.98 0.79256 1.7813 2.2548 1817.4 -0.0065037 359.43 0.19653
24.375 28204. undefined 165.64 464.81 0.79856 650.00 0.0015385 165.64 464.81 0.79856 1.7854 2.2580 1818.7 -0.0064954 359.05 0.19677 650.00 0.0015385 165.64 464.81 0.79856 1.7854 2.2580 1818.7 -0.0064954 359.05 0.19677
25.375 28396. undefined 167.43 468.63 0.80456 650.00 0.0015385 167.43 468.63 0.80456 1.7896 2.2612 1820.0 -0.0064870 358.67 0.19701 650.00 0.0015385 167.43 468.63 0.80456 1.7896 2.2612 1820.0 -0.0064870 358.67 0.19701
26.375 28588. undefined 169.22 472.46 0.81055 650.00 0.0015385 169.22 472.46 0.81055 1.7938 2.2645 1821.3 -0.0064786 358.29 0.19724 650.00 0.0015385 169.22 472.46 0.81055 1.7938 2.2645 1821.3 -0.0064786 358.29 0.19724
27.375 28779. undefined 171.01 476.28 0.81654 650.00 0.0015385 171.01 476.28 0.81654 1.7979 2.2677 1822.6 -0.0064702 357.92 0.19748 650.00 0.0015385 171.01 476.28 0.81654 1.7979 2.2677 1822.6 -0.0064702 357.92 0.19748
28.375 28970. undefined 172.81 480.11 0.82252 650.00 0.0015385 172.81 480.11 0.82252 1.8021 2.2710 1823.9 -0.0064618 357.56 0.19772 650.00 0.0015385 172.81 480.11 0.82252 1.8021 2.2710 1823.9 -0.0064618 357.56 0.19772
29.375 29161. undefined 174.62 483.94 0.82849 650.00 0.0015385 174.62 483.94 0.82849 1.8063 2.2743 1825.2 -0.0064534 357.19 0.19796 650.00 0.0015385 174.62 483.94 0.82849 1.8063 2.2743 1825.2 -0.0064534 357.19 0.19796
30.375 29352. undefined 176.43 487.77 0.83446 650.00 0.0015385 176.43 487.77 0.83446 1.8105 2.2775 1826.5 -0.0064449 356.83 0.19820 650.00 0.0015385 176.43 487.77 0.83446 1.8105 2.2775 1826.5 -0.0064449 356.83 0.19820
31.375 29542. undefined 178.24 491.60 0.84042 650.00 0.0015385 178.24 491.60 0.84042 1.8147 2.2808 1827.7 -0.0064365 356.48 0.19845 650.00 0.0015385 178.24 491.60 0.84042 1.8147 2.2808 1827.7 -0.0064365 356.48 0.19845
32.375 29732. undefined 180.05 495.43 0.84638 650.00 0.0015385 180.05 495.43 0.84638 1.8189 2.2842 1829.0 -0.0064280 356.13 0.19869 650.00 0.0015385 180.05 495.43 0.84638 1.8189 2.2842 1829.0 -0.0064280 356.13 0.19869
33.375 29922. undefined 181.88 499.26 0.85233 650.00 0.0015385 181.88 499.26 0.85233 1.8231 2.2875 1830.3 -0.0064195 355.78 0.19893 650.00 0.0015385 181.88 499.26 0.85233 1.8231 2.2875 1830.3 -0.0064195 355.78 0.19893
34.375 30111. undefined 183.70 503.10 0.85827 650.00 0.0015385 183.70 503.10 0.85827 1.8273 2.2908 1831.5 -0.0064109 355.43 0.19917 650.00 0.0015385 183.70 503.10 0.85827 1.8273 2.2908 1831.5 -0.0064109 355.43 0.19917
35.375 30300. undefined 185.53 506.94 0.86421 650.00 0.0015385 185.53 506.94 0.86421 1.8315 2.2942 1832.8 -0.0064024 355.09 0.19941 650.00 0.0015385 185.53 506.94 0.86421 1.8315 2.2942 1832.8 -0.0064024 355.09 0.19941
36.375 30489. undefined 187.36 510.77 0.87014 650.00 0.0015385 187.36 510.77 0.87014 1.8357 2.2975 1834.1 -0.0063939 354.75 0.19965 650.00 0.0015385 187.36 510.77 0.87014 1.8357 2.2975 1834.1 -0.0063939 354.75 0.19965
37.375 30678. undefined 189.20 514.61 0.87607 650.00 0.0015385 189.20 514.61 0.87607 1.8399 2.3009 1835.3 -0.0063853 354.42 0.19990 650.00 0.0015385 189.20 514.61 0.87607 1.8399 2.3009 1835.3 -0.0063853 354.42 0.19990
38.375 30866. undefined 191.04 518.45 0.88199 650.00 0.0015385 191.04 518.45 0.88199 1.8442 2.3043 1836.6 -0.0063767 354.08 0.20014 650.00 0.0015385 191.04 518.45 0.88199 1.8442 2.3043 1836.6 -0.0063767 354.08 0.20014
39.375 31054. undefined 192.89 522.29 0.88791 650.00 0.0015385 192.89 522.29 0.88791 1.8484 2.3076 1837.8 -0.0063682 353.75 0.20038 650.00 0.0015385 192.89 522.29 0.88791 1.8484 2.3076 1837.8 -0.0063682 353.75 0.20038
40.375 31242. undefined 194.74 526.14 0.89382 650.00 0.0015385 194.74 526.14 0.89382 1.8526 2.3110 1839.1 -0.0063596 353.43 0.20063 650.00 0.0015385 194.74 526.14 0.89382 1.8526 2.3110 1839.1 -0.0063596 353.43 0.20063
41.375 31430. undefined 196.60 529.98 0.89973 650.00 0.0015385 196.60 529.98 0.89973 1.8569 2.3144 1840.3 -0.0063510 353.11 0.20087 650.00 0.0015385 196.60 529.98 0.89973 1.8569 2.3144 1840.3 -0.0063510 353.11 0.20087
42.375 31617. undefined 198.45 533.83 0.90563 650.00 0.0015385 198.45 533.83 0.90563 1.8611 2.3179 1841.5 -0.0063424 352.79 0.20111 650.00 0.0015385 198.45 533.83 0.90563 1.8611 2.3179 1841.5 -0.0063424 352.79 0.20111
43.375 31804. undefined 200.32 537.67 0.91153 650.00 0.0015385 200.32 537.67 0.91153 1.8654 2.3213 1842.8 -0.0063338 352.47 0.20136 650.00 0.0015385 200.32 537.67 0.91153 1.8654 2.3213 1842.8 -0.0063338 352.47 0.20136
44.375 31991. undefined 202.19 541.52 0.91742 650.00 0.0015385 202.19 541.52 0.91742 1.8696 2.3247 1844.0 -0.0063251 352.16 0.20160 650.00 0.0015385 202.19 541.52 0.91742 1.8696 2.3247 1844.0 -0.0063251 352.16 0.20160
45.375 32177. undefined 204.06 545.37 0.92330 650.00 0.0015385 204.06 545.37 0.92330 1.8739 2.3282 1845.3 -0.0063165 351.85 0.20185 650.00 0.0015385 204.06 545.37 0.92330 1.8739 2.3282 1845.3 -0.0063165 351.85 0.20185
46.375 32364. undefined 205.93 549.23 0.92918 650.00 0.0015385 205.93 549.23 0.92918 1.8781 2.3316 1846.5 -0.0063079 351.54 0.20209 650.00 0.0015385 205.93 549.23 0.92918 1.8781 2.3316 1846.5 -0.0063079 351.54 0.20209
47.375 32550. undefined 207.81 553.08 0.93506 650.00 0.0015385 207.81 553.08 0.93506 1.8824 2.3351 1847.7 -0.0062992 351.24 0.20234 650.00 0.0015385 207.81 553.08 0.93506 1.8824 2.3351 1847.7 -0.0062992 351.24 0.20234
48.375 32735. undefined 209.70 556.93 0.94093 650.00 0.0015385 209.70 556.93 0.94093 1.8866 2.3385 1848.9 -0.0062906 350.93 0.20259 650.00 0.0015385 209.70 556.93 0.94093 1.8866 2.3385 1848.9 -0.0062906 350.93 0.20259
49.375 32921. undefined 211.59 560.79 0.94679 650.00 0.0015385 211.59 560.79 0.94679 1.8909 2.3420 1850.1 -0.0062820 350.64 0.20283 650.00 0.0015385 211.59 560.79 0.94679 1.8909 2.3420 1850.1 -0.0062820 350.64 0.20283
50.375 33106. undefined 213.48 564.65 0.95265 650.00 0.0015385 213.48 564.65 0.95265 1.8952 2.3455 1851.4 -0.0062733 350.34 0.20308 650.00 0.0015385 213.48 564.65 0.95265 1.8952 2.3455 1851.4 -0.0062733 350.34 0.20308
51.375 33291. undefined 215.38 568.51 0.95851 650.00 0.0015385 215.38 568.51 0.95851 1.8994 2.3490 1852.6 -0.0062647 350.05 0.20332 650.00 0.0015385 215.38 568.51 0.95851 1.8994 2.3490 1852.6 -0.0062647 350.05 0.20332
52.375 33476. undefined 217.28 572.37 0.96436 650.00 0.0015385 217.28 572.37 0.96436 1.9037 2.3525 1853.8 -0.0062560 349.76 0.20357 650.00 0.0015385 217.28 572.37 0.96436 1.9037 2.3525 1853.8 -0.0062560 349.76 0.20357
53.375 33660. undefined 219.18 576.23 0.97021 650.00 0.0015385 219.18 576.23 0.97021 1.9080 2.3560 1855.0 -0.0062474 349.47 0.20382 650.00 0.0015385 219.18 576.23 0.97021 1.9080 2.3560 1855.0 -0.0062474 349.47 0.20382
54.375 33845. undefined 221.09 580.09 0.97605 650.00 0.0015385 221.09 580.09 0.97605 1.9123 2.3595 1856.2 -0.0062387 349.18 0.20407 650.00 0.0015385 221.09 580.09 0.97605 1.9123 2.3595 1856.2 -0.0062387 349.18 0.20407
55.375 34028. undefined 223.01 583.96 0.98188 650.00 0.0015385 223.01 583.96 0.98188 1.9166 2.3630 1857.4 -0.0062301 348.90 0.20431 650.00 0.0015385 223.01 583.96 0.98188 1.9166 2.3630 1857.4 -0.0062301 348.90 0.20431
56.375 34212. undefined 224.93 587.83 0.98771 650.00 0.0015385 224.93 587.83 0.98771 1.9208 2.3665 1858.6 -0.0062214 348.62 0.20456 650.00 0.0015385 224.93 587.83 0.98771 1.9208 2.3665 1858.6 -0.0062214 348.62 0.20456
57.375 34396. undefined 226.85 591.70 0.99354 650.00 0.0015385 226.85 591.70 0.99354 1.9251 2.3701 1859.8 -0.0062128 348.35 0.20481 650.00 0.0015385 226.85 591.70 0.99354 1.9251 2.3701 1859.8 -0.0062128 348.35 0.20481
58.375 34579. undefined 228.78 595.57 0.99936 650.00 0.0015385 228.78 595.57 0.99936 1.9294 2.3736 1861.0 -0.0062041 348.07 0.20506 650.00 0.0015385 228.78 595.57 0.99936 1.9294 2.3736 1861.0 -0.0062041 348.07 0.20506
59.375 34762. undefined 230.71 599.44 1.0052 650.00 0.0015385 230.71 599.44 1.0052 1.9337 2.3772 1862.2 -0.0061955 347.80 0.20531 650.00 0.0015385 230.71 599.44 1.0052 1.9337 2.3772 1862.2 -0.0061955 347.80 0.20531
60.375 34945. undefined 232.65 603.31 1.0110 650.00 0.0015385 232.65 603.31 1.0110 1.9380 2.3807 1863.4 -0.0061869 347.53 0.20556 650.00 0.0015385 232.65 603.31 1.0110 1.9380 2.3807 1863.4 -0.0061869 347.53 0.20556
61.375 35127. undefined 234.59 607.19 1.0168 650.00 0.0015385 234.59 607.19 1.0168 1.9423 2.3843 1864.6 -0.0061782 347.26 0.20581 650.00 0.0015385 234.59 607.19 1.0168 1.9423 2.3843 1864.6 -0.0061782 347.26 0.20581
62.375 35309. undefined 236.53 611.07 1.0226 650.00 0.0015385 236.53 611.07 1.0226 1.9466 2.3878 1865.8 -0.0061696 347.00 0.20606 650.00 0.0015385 236.53 611.07 1.0226 1.9466 2.3878 1865.8 -0.0061696 347.00 0.20606
63.375 35491. undefined 238.48 614.95 1.0284 650.00 0.0015385 238.48 614.95 1.0284 1.9509 2.3914 1866.9 -0.0061610 346.74 0.20631 650.00 0.0015385 238.48 614.95 1.0284 1.9509 2.3914 1866.9 -0.0061610 346.74 0.20631
64.375 35673. undefined 240.43 618.83 1.0342 650.00 0.0015385 240.43 618.83 1.0342 1.9552 2.3950 1868.1 -0.0061523 346.48 0.20656 650.00 0.0015385 240.43 618.83 1.0342 1.9552 2.3950 1868.1 -0.0061523 346.48 0.20656
65.375 35855. undefined 242.39 622.71 1.0400 650.00 0.0015385 242.39 622.71 1.0400 1.9595 2.3986 1869.3 -0.0061437 346.22 0.20681 650.00 0.0015385 242.39 622.71 1.0400 1.9595 2.3986 1869.3 -0.0061437 346.22 0.20681
66.375 36036. undefined 244.35 626.59 1.0458 650.00 0.0015385 244.35 626.59 1.0458 1.9638 2.4022 1870.5 -0.0061351 345.97 0.20706 650.00 0.0015385 244.35 626.59 1.0458 1.9638 2.4022 1870.5 -0.0061351 345.97 0.20706
67.375 36217. undefined 246.32 630.48 1.0516 650.00 0.0015385 246.32 630.48 1.0516 1.9681 2.4058 1871.6 -0.0061265 345.72 0.20731 650.00 0.0015385 246.32 630.48 1.0516 1.9681 2.4058 1871.6 -0.0061265 345.72 0.20731
68.375 36398. undefined 248.29 634.37 1.0573 650.00 0.0015385 248.29 634.37 1.0573 1.9724 2.4094 1872.8 -0.0061179 345.47 0.20756 650.00 0.0015385 248.29 634.37 1.0573 1.9724 2.4094 1872.8 -0.0061179 345.47 0.20756
69.375 36578. undefined 250.26 638.26 1.0631 650.00 0.0015385 250.26 638.26 1.0631 1.9767 2.4130 1874.0 -0.0061093 345.22 0.20782 650.00 0.0015385 250.26 638.26 1.0631 1.9767 2.4130 1874.0 -0.0061093 345.22 0.20782
70.375 36759. undefined 252.24 642.15 1.0689 650.00 0.0015385 252.24 642.15 1.0689 1.9810 2.4166 1875.1 -0.0061007 344.97 0.20807 650.00 0.0015385 252.24 642.15 1.0689 1.9810 2.4166 1875.1 -0.0061007 344.97 0.20807
71.375 36939. undefined 254.22 646.04 1.0746 650.00 0.0015385 254.22 646.04 1.0746 1.9853 2.4202 1876.3 -0.0060922 344.73 0.20832 650.00 0.0015385 254.22 646.04 1.0746 1.9853 2.4202 1876.3 -0.0060922 344.73 0.20832
72.375 37119. undefined 256.21 649.94 1.0804 650.00 0.0015385 256.21 649.94 1.0804 1.9896 2.4238 1877.5 -0.0060836 344.49 0.20857 650.00 0.0015385 256.21 649.94 1.0804 1.9896 2.4238 1877.5 -0.0060836 344.49 0.20857
73.375 37298. undefined 258.20 653.84 1.0862 650.00 0.0015385 258.20 653.84 1.0862 1.9939 2.4274 1878.6 -0.0060750 344.25 0.20883 650.00 0.0015385 258.20 653.84 1.0862 1.9939 2.4274 1878.6 -0.0060750 344.25 0.20883
74.375 37478. undefined 260.20 657.74 1.0919 650.00 0.0015385 260.20 657.74 1.0919 1.9982 2.4311 1879.8 -0.0060665 344.01 0.20908 650.00 0.0015385 260.20 657.74 1.0919 1.9982 2.4311 1879.8 -0.0060665 344.01 0.20908
75.375 37657. undefined 262.20 661.64 1.0977 650.00 0.0015385 262.20 661.64 1.0977 2.0025 2.4347 1880.9 -0.0060580 343.78 0.20933 650.00 0.0015385 262.20 661.64 1.0977 2.0025 2.4347 1880.9 -0.0060580 343.78 0.20933
76.375 37836. undefined 264.20 665.54 1.1034 650.00 0.0015385 264.20 665.54 1.1034 2.0068 2.4383 1882.1 -0.0060494 343.55 0.20959 650.00 0.0015385 264.20 665.54 1.1034 2.0068 2.4383 1882.1 -0.0060494 343.55 0.20959
77.375 38015. undefined 266.21 669.45 1.1091 650.00 0.0015385 266.21 669.45 1.1091 2.0111 2.4420 1883.2 -0.0060409 343.32 0.20984 650.00 0.0015385 266.21 669.45 1.1091 2.0111 2.4420 1883.2 -0.0060409 343.32 0.20984
78.375 38193. undefined 268.23 673.35 1.1149 650.00 0.0015385 268.23 673.35 1.1149 2.0154 2.4456 1884.4 -0.0060324 343.09 0.21010 650.00 0.0015385 268.23 673.35 1.1149 2.0154 2.4456 1884.4 -0.0060324 343.09 0.21010
79.375 38371. undefined 270.24 677.26 1.1206 650.00 0.0015385 270.24 677.26 1.1206 2.0198 2.4493 1885.5 -0.0060239 342.86 0.21035 650.00 0.0015385 270.24 677.26 1.1206 2.0198 2.4493 1885.5 -0.0060239 342.86 0.21035
80.375 38549. undefined 272.27 681.17 1.1263 650.00 0.0015385 272.27 681.17 1.1263 2.0241 2.4529 1886.7 -0.0060154 342.64 0.21061 650.00 0.0015385 272.27 681.17 1.1263 2.0241 2.4529 1886.7 -0.0060154 342.64 0.21061
81.375 38727. undefined 274.29 685.08 1.1321 650.00 0.0015385 274.29 685.08 1.1321 2.0284 2.4566 1887.8 -0.0060070 342.41 0.21086 650.00 0.0015385 274.29 685.08 1.1321 2.0284 2.4566 1887.8 -0.0060070 342.41 0.21086
82.375 38905. undefined 276.32 689.00 1.1378 650.00 0.0015385 276.32 689.00 1.1378 2.0327 2.4602 1889.0 -0.0059985 342.19 0.21112 650.00 0.0015385 276.32 689.00 1.1378 2.0327 2.4602 1889.0 -0.0059985 342.19 0.21112
83.375 39082. undefined 278.36 692.92 1.1435 650.00 0.0015385 278.36 692.92 1.1435 2.0370 2.4639 1890.1 -0.0059901 341.98 0.21137 650.00 0.0015385 278.36 692.92 1.1435 2.0370 2.4639 1890.1 -0.0059901 341.98 0.21137
84.375 39260. undefined 280.40 696.83 1.1492 650.00 0.0015385 280.40 696.83 1.1492 2.0413 2.4675 1891.2 -0.0059816 341.76 0.21163 650.00 0.0015385 280.40 696.83 1.1492 2.0413 2.4675 1891.2 -0.0059816 341.76 0.21163
85.375 39436. undefined 282.44 700.75 1.1549 650.00 0.0015385 282.44 700.75 1.1549 2.0456 2.4712 1892.4 -0.0059732 341.54 0.21189 650.00 0.0015385 282.44 700.75 1.1549 2.0456 2.4712 1892.4 -0.0059732 341.54 0.21189
86.375 39613. undefined 284.49 704.68 1.1606 650.00 0.0015385 284.49 704.68 1.1606 2.0499 2.4749 1893.5 -0.0059648 341.33 0.21214 650.00 0.0015385 284.49 704.68 1.1606 2.0499 2.4749 1893.5 -0.0059648 341.33 0.21214
87.375 39790. undefined 286.54 708.60 1.1663 650.00 0.0015385 286.54 708.60 1.1663 2.0542 2.4786 1894.6 -0.0059564 341.12 0.21240 650.00 0.0015385 286.54 708.60 1.1663 2.0542 2.4786 1894.6 -0.0059564 341.12 0.21240
88.375 39966. undefined 288.60 712.53 1.1720 650.00 0.0015385 288.60 712.53 1.1720 2.0585 2.4822 1895.7 -0.0059480 340.91 0.21266 650.00 0.0015385 288.60 712.53 1.1720 2.0585 2.4822 1895.7 -0.0059480 340.91 0.21266
89.375 40142. undefined 290.66 716.46 1.1777 650.00 0.0015385 290.66 716.46 1.1777 2.0628 2.4859 1896.9 -0.0059397 340.71 0.21292 650.00 0.0015385 290.66 716.46 1.1777 2.0628 2.4859 1896.9 -0.0059397 340.71 0.21292
90.375 40318. undefined 292.72 720.39 1.1834 650.00 0.0015385 292.72 720.39 1.1834 2.0671 2.4896 1898.0 -0.0059313 340.50 0.21317 650.00 0.0015385 292.72 720.39 1.1834 2.0671 2.4896 1898.0 -0.0059313 340.50 0.21317
91.375 40494. undefined 294.79 724.32 1.1891 650.00 0.0015385 294.79 724.32 1.1891 2.0714 2.4933 1899.1 -0.0059230 340.30 0.21343 650.00 0.0015385 294.79 724.32 1.1891 2.0714 2.4933 1899.1 -0.0059230 340.30 0.21343
92.375 40669. undefined 296.86 728.25 1.1948 650.00 0.0015385 296.86 728.25 1.1948 2.0757 2.4970 1900.2 -0.0059147 340.09 0.21369 650.00 0.0015385 296.86 728.25 1.1948 2.0757 2.4970 1900.2 -0.0059147 340.09 0.21369
93.375 40844. undefined 298.94 732.19 1.2004 650.00 0.0015385 298.94 732.19 1.2004 2.0800 2.5007 1901.3 -0.0059064 339.89 0.21395 650.00 0.0015385 298.94 732.19 1.2004 2.0800 2.5007 1901.3 -0.0059064 339.89 0.21395
94.375 41019. undefined 301.02 736.13 1.2061 650.00 0.0015385 301.02 736.13 1.2061 2.0843 2.5043 1902.5 -0.0058981 339.70 0.21421 650.00 0.0015385 301.02 736.13 1.2061 2.0843 2.5043 1902.5 -0.0058981 339.70 0.21421
95.375 41194. undefined 303.11 740.07 1.2118 650.00 0.0015385 303.11 740.07 1.2118 2.0886 2.5080 1903.6 -0.0058898 339.50 0.21447 650.00 0.0015385 303.11 740.07 1.2118 2.0886 2.5080 1903.6 -0.0058898 339.50 0.21447
96.375 41369. undefined 305.20 744.01 1.2174 650.00 0.0015385 305.20 744.01 1.2174 2.0929 2.5117 1904.7 -0.0058815 339.31 0.21473 650.00 0.0015385 305.20 744.01 1.2174 2.0929 2.5117 1904.7 -0.0058815 339.31 0.21473
97.375 41543. undefined 307.30 747.96 1.2231 650.00 0.0015385 307.30 747.96 1.2231 2.0972 2.5154 1905.8 -0.0058733 339.11 0.21499 650.00 0.0015385 307.30 747.96 1.2231 2.0972 2.5154 1905.8 -0.0058733 339.11 0.21499
98.375 41717. undefined 309.40 751.91 1.2288 650.00 0.0015385 309.40 751.91 1.2288 2.1015 2.5191 1906.9 -0.0058651 338.92 0.21525 650.00 0.0015385 309.40 751.91 1.2288 2.1015 2.5191 1906.9 -0.0058651 338.92 0.21525
99.375 41891. undefined 311.50 755.85 1.2344 650.00 0.0015385 311.50 755.85 1.2344 2.1058 2.5228 1908.0 -0.0058569 338.73 0.21551 650.00 0.0015385 311.50 755.85 1.2344 2.1058 2.5228 1908.0 -0.0058569 338.73 0.21551
100.38 42065. undefined 313.61 759.81 1.2401 650.00 0.0015385 313.61 759.81 1.2401 2.1101 2.5265 1909.1 -0.0058487 338.54 0.21577 650.00 0.0015385 313.61 759.81 1.2401 2.1101 2.5265 1909.1 -0.0058487 338.54 0.21577
101.38 42239. undefined 315.72 763.76 1.2457 650.00 0.0015385 315.72 763.76 1.2457 2.1143 2.5302 1910.2 -0.0058405 338.36 0.21603 650.00 0.0015385 315.72 763.76 1.2457 2.1143 2.5302 1910.2 -0.0058405 338.36 0.21603
102.38 42412. undefined 317.84 767.71 1.2514 650.00 0.0015385 317.84 767.71 1.2514 2.1186 2.5339 1911.3 -0.0058323 338.17 0.21629 650.00 0.0015385 317.84 767.71 1.2514 2.1186 2.5339 1911.3 -0.0058323 338.17 0.21629
103.38 42585. undefined 319.96 771.67 1.2570 650.00 0.0015385 319.96 771.67 1.2570 2.1229 2.5376 1912.4 -0.0058242 337.99 0.21656 650.00 0.0015385 319.96 771.67 1.2570 2.1229 2.5376 1912.4 -0.0058242 337.99 0.21656
104.38 42758. undefined 322.08 775.63 1.2626 650.00 0.0015385 322.08 775.63 1.2626 2.1272 2.5413 1913.5 -0.0058161 337.81 0.21682 650.00 0.0015385 322.08 775.63 1.2626 2.1272 2.5413 1913.5 -0.0058161 337.81 0.21682
105.38 42931. undefined 324.21 779.59 1.2683 650.00 0.0015385 324.21 779.59 1.2683 2.1315 2.5450 1914.6 -0.0058080 337.63 0.21708 650.00 0.0015385 324.21 779.59 1.2683 2.1315 2.5450 1914.6 -0.0058080 337.63 0.21708
106.38 43104. undefined 326.34 783.56 1.2739 650.00 0.0015385 326.34 783.56 1.2739 2.1357 2.5487 1915.7 -0.0057999 337.45 0.21734 650.00 0.0015385 326.34 783.56 1.2739 2.1357 2.5487 1915.7 -0.0057999 337.45 0.21734
107.38 43276. undefined 328.48 787.52 1.2795 650.00 0.0015385 328.48 787.52 1.2795 2.1400 2.5525 1916.8 -0.0057918 337.27 0.21761 650.00 0.0015385 328.48 787.52 1.2795 2.1400 2.5525 1916.8 -0.0057918 337.27 0.21761
108.38 43448. undefined 330.62 791.49 1.2851 650.00 0.0015385 330.62 791.49 1.2851 2.1443 2.5562 1917.9 -0.0057838 337.09 0.21787 650.00 0.0015385 330.62 791.49 1.2851 2.1443 2.5562 1917.9 -0.0057838 337.09 0.21787
109.38 43620. undefined 332.77 795.46 1.2908 650.00 0.0015385 332.77 795.46 1.2908 2.1486 2.5599 1918.9 -0.0057758 336.92 0.21813 650.00 0.0015385 332.77 795.46 1.2908 2.1486 2.5599 1918.9 -0.0057758 336.92 0.21813
110.38 43792. undefined 334.92 799.44 1.2964 650.00 0.0015385 334.92 799.44 1.2964 2.1528 2.5636 1920.0 -0.0057677 336.75 0.21840 650.00 0.0015385 334.92 799.44 1.2964 2.1528 2.5636 1920.0 -0.0057677 336.75 0.21840
111.38 43963. undefined 337.08 803.41 1.3020 650.00 0.0015385 337.08 803.41 1.3020 2.1571 2.5673 1921.1 -0.0057598 336.58 0.21866 650.00 0.0015385 337.08 803.41 1.3020 2.1571 2.5673 1921.1 -0.0057598 336.58 0.21866
112.38 44135. undefined 339.24 807.39 1.3076 650.00 0.0015385 339.24 807.39 1.3076 2.1614 2.5710 1922.2 -0.0057518 336.41 0.21893 650.00 0.0015385 339.24 807.39 1.3076 2.1614 2.5710 1922.2 -0.0057518 336.41 0.21893
113.38 44306. undefined 341.40 811.37 1.3132 650.00 0.0015385 341.40 811.37 1.3132 2.1656 2.5747 1923.3 -0.0057438 336.24 0.21919 650.00 0.0015385 341.40 811.37 1.3132 2.1656 2.5747 1923.3 -0.0057438 336.24 0.21919
114.38 44477. undefined 343.57 815.35 1.3188 650.00 0.0015385 343.57 815.35 1.3188 2.1699 2.5784 1924.3 -0.0057359 336.07 0.21946 650.00 0.0015385 343.57 815.35 1.3188 2.1699 2.5784 1924.3 -0.0057359 336.07 0.21946
115.38 44648. undefined 345.74 819.33 1.3244 650.00 0.0015385 345.74 819.33 1.3244 2.1741 2.5821 1925.4 -0.0057280 335.90 0.21972 650.00 0.0015385 345.74 819.33 1.3244 2.1741 2.5821 1925.4 -0.0057280 335.90 0.21972
116.38 44818. undefined 347.92 823.32 1.3300 650.00 0.0015385 347.92 823.32 1.3300 2.1784 2.5859 1926.5 -0.0057201 335.74 0.21999 650.00 0.0015385 347.92 823.32 1.3300 2.1784 2.5859 1926.5 -0.0057201 335.74 0.21999
117.38 44989. undefined 350.10 827.31 1.3356 650.00 0.0015385 350.10 827.31 1.3356 2.1826 2.5896 1927.6 -0.0057122 335.58 0.22025 650.00 0.0015385 350.10 827.31 1.3356 2.1826 2.5896 1927.6 -0.0057122 335.58 0.22025
118.38 45159. undefined 352.28 831.30 1.3412 650.00 0.0015385 352.28 831.30 1.3412 2.1869 2.5933 1928.6 -0.0057043 335.42 0.22052 650.00 0.0015385 352.28 831.30 1.3412 2.1869 2.5933 1928.6 -0.0057043 335.42 0.22052
119.38 45329. undefined 354.47 835.29 1.3468 650.00 0.0015385 354.47 835.29 1.3468 2.1911 2.5970 1929.7 -0.0056965 335.25 0.22079 650.00 0.0015385 354.47 835.29 1.3468 2.1911 2.5970 1929.7 -0.0056965 335.25 0.22079
120.38 45499. undefined 356.66 839.28 1.3523 650.00 0.0015385 356.66 839.28 1.3523 2.1954 2.6007 1930.8 -0.0056887 335.10 0.22105 650.00 0.0015385 356.66 839.28 1.3523 2.1954 2.6007 1930.8 -0.0056887 335.10 0.22105
121.38 45668. undefined 358.86 843.28 1.3579 650.00 0.0015385 358.86 843.28 1.3579 2.1996 2.6044 1931.8 -0.0056809 334.94 0.22132 650.00 0.0015385 358.86 843.28 1.3579 2.1996 2.6044 1931.8 -0.0056809 334.94 0.22132
122.38 45838. undefined 361.06 847.28 1.3635 650.00 0.0015385 361.06 847.28 1.3635 2.2038 2.6081 1932.9 -0.0056731 334.78 0.22159 650.00 0.0015385 361.06 847.28 1.3635 2.2038 2.6081 1932.9 -0.0056731 334.78 0.22159
123.38 46007. undefined 363.27 851.28 1.3691 650.00 0.0015385 363.27 851.28 1.3691 2.2081 2.6118 1934.0 -0.0056654 334.63 0.22185 650.00 0.0015385 363.27 851.28 1.3691 2.2081 2.6118 1934.0 -0.0056654 334.63 0.22185
124.38 46176. undefined 365.48 855.28 1.3746 650.00 0.0015385 365.48 855.28 1.3746 2.2123 2.6155 1935.0 -0.0056576 334.47 0.22212 650.00 0.0015385 365.48 855.28 1.3746 2.2123 2.6155 1935.0 -0.0056576 334.47 0.22212
125.38 46345. undefined 367.69 859.29 1.3802 650.00 0.0015385 367.69 859.29 1.3802 2.2165 2.6192 1936.1 -0.0056499 334.32 0.22239 650.00 0.0015385 367.69 859.29 1.3802 2.2165 2.6192 1936.1 -0.0056499 334.32 0.22239
126.38 46514. undefined 369.91 863.30 1.3857 650.00 0.0015385 369.91 863.30 1.3857 2.2208 2.6230 1937.1 -0.0056422 334.17 0.22266 650.00 0.0015385 369.91 863.30 1.3857 2.2208 2.6230 1937.1 -0.0056422 334.17 0.22266
127.38 46682. undefined 372.13 867.31 1.3913 650.00 0.0015385 372.13 867.31 1.3913 2.2250 2.6267 1938.2 -0.0056345 334.02 0.22293 650.00 0.0015385 372.13 867.31 1.3913 2.2250 2.6267 1938.2 -0.0056345 334.02 0.22293
128.38 46851. undefined 374.36 871.32 1.3969 650.00 0.0015385 374.36 871.32 1.3969 2.2292 2.6304 1939.3 -0.0056269 333.87 0.22320 650.00 0.0015385 374.36 871.32 1.3969 2.2292 2.6304 1939.3 -0.0056269 333.87 0.22320
129.38 47019. undefined 376.59 875.33 1.4024 650.00 0.0015385 376.59 875.33 1.4024 2.2334 2.6341 1940.3 -0.0056192 333.72 0.22347 650.00 0.0015385 376.59 875.33 1.4024 2.2334 2.6341 1940.3 -0.0056192 333.72 0.22347
130.38 47187. undefined 378.83 879.35 1.4080 650.00 0.0015385 378.83 879.35 1.4080 2.2376 2.6378 1941.4 -0.0056116 333.58 0.22374 650.00 0.0015385 378.83 879.35 1.4080 2.2376 2.6378 1941.4 -0.0056116 333.58 0.22374
131.38 47354. undefined 381.07 883.37 1.4135 650.00 0.0015385 381.07 883.37 1.4135 2.2418 2.6415 1942.4 -0.0056040 333.43 0.22401 650.00 0.0015385 381.07 883.37 1.4135 2.2418 2.6415 1942.4 -0.0056040 333.43 0.22401
132.38 47522. undefined 383.31 887.39 1.4190 650.00 0.0015385 383.31 887.39 1.4190 2.2460 2.6452 1943.5 -0.0055965 333.29 0.22428 650.00 0.0015385 383.31 887.39 1.4190 2.2460 2.6452 1943.5 -0.0055965 333.29 0.22428
133.38 47689. undefined 385.56 891.42 1.4246 650.00 0.0015385 385.56 891.42 1.4246 2.2502 2.6489 1944.5 -0.0055889 333.15 0.22455 650.00 0.0015385 385.56 891.42 1.4246 2.2502 2.6489 1944.5 -0.0055889 333.15 0.22455
134.38 47857. undefined 387.81 895.44 1.4301 650.00 0.0015385 387.81 895.44 1.4301 2.2544 2.6526 1945.5 -0.0055814 333.00 0.22482 650.00 0.0015385 387.81 895.44 1.4301 2.2544 2.6526 1945.5 -0.0055814 333.00 0.22482
135.38 48024. undefined 390.07 899.47 1.4356 650.00 0.0015385 390.07 899.47 1.4356 2.2586 2.6563 1946.6 -0.0055739 332.86 0.22509 650.00 0.0015385 390.07 899.47 1.4356 2.2586 2.6563 1946.6 -0.0055739 332.86 0.22509
136.38 48191. undefined 392.33 903.50 1.4412 650.00 0.0015385 392.33 903.50 1.4412 2.2628 2.6600 1947.6 -0.0055664 332.72 0.22536 650.00 0.0015385 392.33 903.50 1.4412 2.2628 2.6600 1947.6 -0.0055664 332.72 0.22536
137.38 48357. undefined 394.59 907.53 1.4467 650.00 0.0015385 394.59 907.53 1.4467 2.2670 2.6637 1948.7 -0.0055589 332.59 0.22563 650.00 0.0015385 394.59 907.53 1.4467 2.2670 2.6637 1948.7 -0.0055589 332.59 0.22563
138.38 48524. undefined 396.86 911.57 1.4522 650.00 0.0015385 396.86 911.57 1.4522 2.2712 2.6674 1949.7 -0.0055515 332.45 0.22591 650.00 0.0015385 396.86 911.57 1.4522 2.2712 2.6674 1949.7 -0.0055515 332.45 0.22591
139.38 48690. undefined 399.14 915.61 1.4577 650.00 0.0015385 399.14 915.61 1.4577 2.2754 2.6711 1950.7 -0.0055441 332.31 0.22618 650.00 0.0015385 399.14 915.61 1.4577 2.2754 2.6711 1950.7 -0.0055441 332.31 0.22618
140.38 48856. undefined 401.41 919.65 1.4632 650.00 0.0015385 401.41 919.65 1.4632 2.2795 2.6748 1951.8 -0.0055367 332.18 0.22645 650.00 0.0015385 401.41 919.65 1.4632 2.2795 2.6748 1951.8 -0.0055367 332.18 0.22645
141.38 49022. undefined 403.70 923.69 1.4688 650.00 0.0015385 403.70 923.69 1.4688 2.2837 2.6785 1952.8 -0.0055293 332.04 0.22672 650.00 0.0015385 403.70 923.69 1.4688 2.2837 2.6785 1952.8 -0.0055293 332.04 0.22672
142.38 49188. undefined 405.98 927.73 1.4743 650.00 0.0015385 405.98 927.73 1.4743 2.2879 2.6821 1953.8 -0.0055219 331.91 0.22700 650.00 0.0015385 405.98 927.73 1.4743 2.2879 2.6821 1953.8 -0.0055219 331.91 0.22700
143.38 49354. undefined 408.27 931.78 1.4798 650.00 0.0015385 408.27 931.78 1.4798 2.2920 2.6858 1954.9 -0.0055146 331.78 0.22727 650.00 0.0015385 408.27 931.78 1.4798 2.2920 2.6858 1954.9 -0.0055146 331.78 0.22727
144.38 49519. undefined 410.57 935.83 1.4853 650.00 0.0015385 410.57 935.83 1.4853 2.2962 2.6895 1955.9 -0.0055073 331.65 0.22754 650.00 0.0015385 410.57 935.83 1.4853 2.2962 2.6895 1955.9 -0.0055073 331.65 0.22754
145.38 49684. undefined 412.86 939.88 1.4908 650.00 0.0015385 412.86 939.88 1.4908 2.3003 2.6932 1956.9 -0.0055000 331.52 0.22782 650.00 0.0015385 412.86 939.88 1.4908 2.3003 2.6932 1956.9 -0.0055000 331.52 0.22782
146.38 49849. undefined 415.17 943.94 1.4963 650.00 0.0015385 415.17 943.94 1.4963 2.3045 2.6969 1958.0 -0.0054927 331.39 0.22809 650.00 0.0015385 415.17 943.94 1.4963 2.3045 2.6969 1958.0 -0.0054927 331.39 0.22809
147.38 50014. undefined 417.47 947.99 1.5018 650.00 0.0015385 417.47 947.99 1.5018 2.3086 2.7006 1959.0 -0.0054854 331.26 0.22837 650.00 0.0015385 417.47 947.99 1.5018 2.3086 2.7006 1959.0 -0.0054854 331.26 0.22837
148.38 50179. undefined 419.78 952.05 1.5072 650.00 0.0015385 419.78 952.05 1.5072 2.3128 2.7042 1960.0 -0.0054782 331.14 0.22864 650.00 0.0015385 419.78 952.05 1.5072 2.3128 2.7042 1960.0 -0.0054782 331.14 0.22864
149.38 50344. undefined 422.10 956.11 1.5127 650.00 0.0015385 422.10 956.11 1.5127 2.3169 2.7079 1961.0 -0.0054710 331.01 0.22892 650.00 0.0015385 422.10 956.11 1.5127 2.3169 2.7079 1961.0 -0.0054710 331.01 0.22892
150.38 50508. undefined 424.42 960.17 1.5182 650.00 0.0015385 424.42 960.17 1.5182 2.3211 2.7116 1962.1 -0.0054638 330.89 0.22919 650.00 0.0015385 424.42 960.17 1.5182 2.3211 2.7116 1962.1 -0.0054638 330.89 0.22919
151.38 50672. undefined 426.74 964.24 1.5237 650.00 0.0015385 426.74 964.24 1.5237 2.3252 2.7153 1963.1 -0.0054566 330.76 0.22947 650.00 0.0015385 426.74 964.24 1.5237 2.3252 2.7153 1963.1 -0.0054566 330.76 0.22947
152.38 50836. undefined 429.07 968.31 1.5292 650.00 0.0015385 429.07 968.31 1.5292 2.3293 2.7189 1964.1 -0.0054495 330.64 0.22975 650.00 0.0015385 429.07 968.31 1.5292 2.3293 2.7189 1964.1 -0.0054495 330.64 0.22975
153.38 51000. undefined 431.40 972.38 1.5346 650.00 0.0015385 431.40 972.38 1.5346 2.3334 2.7226 1965.1 -0.0054424 330.52 0.23002 650.00 0.0015385 431.40 972.38 1.5346 2.3334 2.7226 1965.1 -0.0054424 330.52 0.23002
154.38 51164. undefined 433.73 976.45 1.5401 650.00 0.0015385 433.73 976.45 1.5401 2.3376 2.7263 1966.1 -0.0054353 330.40 0.23030 650.00 0.0015385 433.73 976.45 1.5401 2.3376 2.7263 1966.1 -0.0054353 330.40 0.23030
155.38 51328. undefined 436.07 980.52 1.5456 650.00 0.0015385 436.07 980.52 1.5456 2.3417 2.7299 1967.1 -0.0054282 330.28 0.23058 650.00 0.0015385 436.07 980.52 1.5456 2.3417 2.7299 1967.1 -0.0054282 330.28 0.23058
156.38 51491. undefined 438.42 984.60 1.5510 650.00 0.0015385 438.42 984.60 1.5510 2.3458 2.7336 1968.2 -0.0054211 330.16 0.23085 650.00 0.0015385 438.42 984.60 1.5510 2.3458 2.7336 1968.2 -0.0054211 330.16 0.23085
157.38 51654. undefined 440.77 988.68 1.5565 650.00 0.0015385 440.77 988.68 1.5565 2.3499 2.7372 1969.2 -0.0054141 330.04 0.23113 650.00 0.0015385 440.77 988.68 1.5565 2.3499 2.7372 1969.2 -0.0054141 330.04 0.23113
158.38 51817. undefined 443.12 992.76 1.5619 650.00 0.0015385 443.12 992.76 1.5619 2.3540 2.7409 1970.2 -0.0054071 329.93 0.23141 650.00 0.0015385 443.12 992.76 1.5619 2.3540 2.7409 1970.2 -0.0054071 329.93 0.23141
159.38 51980. undefined 445.47 996.85 1.5674 650.00 0.0015385 445.47 996.85 1.5674 2.3581 2.7446 1971.2 -0.0054001 329.81 0.23169 650.00 0.0015385 445.47 996.85 1.5674 2.3581 2.7446 1971.2 -0.0054001 329.81 0.23169
160.38 52143. undefined 447.83 1000.9 1.5729 650.00 0.0015385 447.83 1000.9 1.5729 2.3622 2.7482 1972.2 -0.0053931 329.69 0.23197 650.00 0.0015385 447.83 1000.9 1.5729 2.3622 2.7482 1972.2 -0.0053931 329.69 0.23197
161.38 52306. undefined 450.20 1005.0 1.5783 650.00 0.0015385 450.20 1005.0 1.5783 2.3663 2.7519 1973.2 -0.0053862 329.58 0.23225 650.00 0.0015385 450.20 1005.0 1.5783 2.3663 2.7519 1973.2 -0.0053862 329.58 0.23225
162.38 52468. undefined 452.57 1009.1 1.5837 650.00 0.0015385 452.57 1009.1 1.5837 2.3704 2.7555 1974.2 -0.0053792 329.47 0.23252 650.00 0.0015385 452.57 1009.1 1.5837 2.3704 2.7555 1974.2 -0.0053792 329.47 0.23252
163.38 52630. undefined 454.94 1013.2 1.5892 650.00 0.0015385 454.94 1013.2 1.5892 2.3744 2.7591 1975.2 -0.0053723 329.36 0.23280 650.00 0.0015385 454.94 1013.2 1.5892 2.3744 2.7591 1975.2 -0.0053723 329.36 0.23280
164.38 52792. undefined 457.32 1017.3 1.5946 650.00 0.0015385 457.32 1017.3 1.5946 2.3785 2.7628 1976.2 -0.0053654 329.24 0.23308 650.00 0.0015385 457.32 1017.3 1.5946 2.3785 2.7628 1976.2 -0.0053654 329.24 0.23308
165.38 52954. undefined 459.70 1021.4 1.6001 650.00 0.0015385 459.70 1021.4 1.6001 2.3826 2.7664 1977.2 -0.0053586 329.13 0.23336 650.00 0.0015385 459.70 1021.4 1.6001 2.3826 2.7664 1977.2 -0.0053586 329.13 0.23336
166.38 53116. undefined 462.08 1025.5 1.6055 650.00 0.0015385 462.08 1025.5 1.6055 2.3866 2.7701 1978.2 -0.0053517 329.02 0.23364 650.00 0.0015385 462.08 1025.5 1.6055 2.3866 2.7701 1978.2 -0.0053517 329.02 0.23364
167.38 53278. undefined 464.47 1029.6 1.6109 650.00 0.0015385 464.47 1029.6 1.6109 2.3907 2.7737 1979.2 -0.0053449 328.91 0.23392 650.00 0.0015385 464.47 1029.6 1.6109 2.3907 2.7737 1979.2 -0.0053449 328.91 0.23392
168.38 53439. undefined 466.86 1033.7 1.6163 650.00 0.0015385 466.86 1033.7 1.6163 2.3948 2.7773 1980.2 -0.0053381 328.81 0.23421 650.00 0.0015385 466.86 1033.7 1.6163 2.3948 2.7773 1980.2 -0.0053381 328.81 0.23421
169.38 53600. undefined 469.26 1037.8 1.6218 650.00 0.0015385 469.26 1037.8 1.6218 2.3988 2.7809 1981.2 -0.0053313 328.70 0.23449 650.00 0.0015385 469.26 1037.8 1.6218 2.3988 2.7809 1981.2 -0.0053313 328.70 0.23449
170.38 53761. undefined 471.66 1041.9 1.6272 650.00 0.0015385 471.66 1041.9 1.6272 2.4029 2.7846 1982.2 -0.0053246 328.59 0.23477 650.00 0.0015385 471.66 1041.9 1.6272 2.4029 2.7846 1982.2 -0.0053246 328.59 0.23477
171.38 53922. undefined 474.06 1046.0 1.6326 650.00 0.0015385 474.06 1046.0 1.6326 2.4069 2.7882 1983.2 -0.0053178 328.49 0.23505 650.00 0.0015385 474.06 1046.0 1.6326 2.4069 2.7882 1983.2 -0.0053178 328.49 0.23505
172.38 54083. undefined 476.47 1050.2 1.6380 650.00 0.0015385 476.47 1050.2 1.6380 2.4109 2.7918 1984.2 -0.0053111 328.38 0.23533 650.00 0.0015385 476.47 1050.2 1.6380 2.4109 2.7918 1984.2 -0.0053111 328.38 0.23533
173.38 54244. undefined 478.89 1054.3 1.6434 650.00 0.0015385 478.89 1054.3 1.6434 2.4150 2.7954 1985.2 -0.0053044 328.28 0.23561 650.00 0.0015385 478.89 1054.3 1.6434 2.4150 2.7954 1985.2 -0.0053044 328.28 0.23561
174.38 54404. undefined 481.30 1058.4 1.6488 650.00 0.0015385 481.30 1058.4 1.6488 2.4190 2.7990 1986.2 -0.0052978 328.18 0.23590 650.00 0.0015385 481.30 1058.4 1.6488 2.4190 2.7990 1986.2 -0.0052978 328.18 0.23590
175.38 54565. undefined 483.72 1062.5 1.6542 650.00 0.0015385 483.72 1062.5 1.6542 2.4230 2.8026 1987.1 -0.0052911 328.07 0.23618 650.00 0.0015385 483.72 1062.5 1.6542 2.4230 2.8026 1987.1 -0.0052911 328.07 0.23618
176.38 54725. undefined 486.15 1066.6 1.6596 650.00 0.0015385 486.15 1066.6 1.6596 2.4271 2.8063 1988.1 -0.0052845 327.97 0.23646 650.00 0.0015385 486.15 1066.6 1.6596 2.4271 2.8063 1988.1 -0.0052845 327.97 0.23646
177.38 54885. undefined 488.58 1070.8 1.6650 650.00 0.0015385 488.58 1070.8 1.6650 2.4311 2.8099 1989.1 -0.0052779 327.87 0.23675 650.00 0.0015385 488.58 1070.8 1.6650 2.4311 2.8099 1989.1 -0.0052779 327.87 0.23675
178.38 55045. undefined 491.01 1074.9 1.6704 650.00 0.0015385 491.01 1074.9 1.6704 2.4351 2.8135 1990.1 -0.0052713 327.77 0.23703 650.00 0.0015385 491.01 1074.9 1.6704 2.4351 2.8135 1990.1 -0.0052713 327.77 0.23703
179.38 55204. undefined 493.45 1079.0 1.6758 650.00 0.0015385 493.45 1079.0 1.6758 2.4391 2.8171 1991.1 -0.0052647 327.67 0.23731 650.00 0.0015385 493.45 1079.0 1.6758 2.4391 2.8171 1991.1 -0.0052647 327.67 0.23731
180.38 55364. undefined 495.89 1083.2 1.6812 650.00 0.0015385 495.89 1083.2 1.6812 2.4431 2.8206 1992.1 -0.0052582 327.57 0.23760 650.00 0.0015385 495.89 1083.2 1.6812 2.4431 2.8206 1992.1 -0.0052582 327.57 0.23760
181.38 55523. undefined 498.33 1087.3 1.6866 650.00 0.0015385 498.33 1087.3 1.6866 2.4471 2.8242 1993.0 -0.0052517 327.48 0.23788 650.00 0.0015385 498.33 1087.3 1.6866 2.4471 2.8242 1993.0 -0.0052517 327.48 0.23788
182.38 55683. undefined 500.78 1091.4 1.6920 650.00 0.0015385 500.78 1091.4 1.6920 2.4511 2.8278 1994.0 -0.0052452 327.38 0.23817 650.00 0.0015385 500.78 1091.4 1.6920 2.4511 2.8278 1994.0 -0.0052452 327.38 0.23817
183.38 55842. undefined 503.24 1095.6 1.6974 650.00 0.0015385 503.24 1095.6 1.6974 2.4551 2.8314 1995.0 -0.0052387 327.28 0.23845 650.00 0.0015385 503.24 1095.6 1.6974 2.4551 2.8314 1995.0 -0.0052387 327.28 0.23845
184.38 56001. undefined 505.69 1099.7 1.7027 650.00 0.0015385 505.69 1099.7 1.7027 2.4590 2.8350 1996.0 -0.0052322 327.19 0.23874 650.00 0.0015385 505.69 1099.7 1.7027 2.4590 2.8350 1996.0 -0.0052322 327.19 0.23874
185.38 56159. undefined 508.16 1103.9 1.7081 650.00 0.0015385 508.16 1103.9 1.7081 2.4630 2.8386 1996.9 -0.0052258 327.09 0.23902 650.00 0.0015385 508.16 1103.9 1.7081 2.4630 2.8386 1996.9 -0.0052258 327.09 0.23902
186.38 56318. undefined 510.62 1108.0 1.7135 650.00 0.0015385 510.62 1108.0 1.7135 2.4670 2.8421 1997.9 -0.0052194 327.00 0.23931 650.00 0.0015385 510.62 1108.0 1.7135 2.4670 2.8421 1997.9 -0.0052194 327.00 0.23931
187.38 56477. undefined 513.09 1112.2 1.7188 650.00 0.0015385 513.09 1112.2 1.7188 2.4709 2.8457 1998.9 -0.0052130 326.91 0.23960 650.00 0.0015385 513.09 1112.2 1.7188 2.4709 2.8457 1998.9 -0.0052130 326.91 0.23960
188.38 56635. undefined 515.56 1116.3 1.7242 650.00 0.0015385 515.56 1116.3 1.7242 2.4749 2.8493 1999.9 -0.0052066 326.81 0.23988 650.00 0.0015385 515.56 1116.3 1.7242 2.4749 2.8493 1999.9 -0.0052066 326.81 0.23988
189.38 56793. undefined 518.04 1120.5 1.7296 650.00 0.0015385 518.04 1120.5 1.7296 2.4789 2.8528 2000.8 -0.0052002 326.72 0.24017 650.00 0.0015385 518.04 1120.5 1.7296 2.4789 2.8528 2000.8 -0.0052002 326.72 0.24017
190.38 56951. undefined 520.52 1124.6 1.7349 650.00 0.0015385 520.52 1124.6 1.7349 2.4828 2.8564 2001.8 -0.0051939 326.63 0.24046 650.00 0.0015385 520.52 1124.6 1.7349 2.4828 2.8564 2001.8 -0.0051939 326.63 0.24046
191.38 57109. undefined 523.00 1128.8 1.7403 650.00 0.0015385 523.00 1128.8 1.7403 2.4868 2.8600 2002.8 -0.0051876 326.54 0.24075 650.00 0.0015385 523.00 1128.8 1.7403 2.4868 2.8600 2002.8 -0.0051876 326.54 0.24075
192.38 57267. undefined 525.49 1132.9 1.7456 650.00 0.0015385 525.49 1132.9 1.7456 2.4907 2.8635 2003.7 -0.0051813 326.45 0.24103 650.00 0.0015385 525.49 1132.9 1.7456 2.4907 2.8635 2003.7 -0.0051813 326.45 0.24103
193.38 57424. undefined 527.99 1137.1 1.7510 650.00 0.0015385 527.99 1137.1 1.7510 2.4946 2.8671 2004.7 -0.0051750 326.36 0.24132 650.00 0.0015385 527.99 1137.1 1.7510 2.4946 2.8671 2004.7 -0.0051750 326.36 0.24132
194.38 57582. undefined 530.48 1141.3 1.7563 650.00 0.0015385 530.48 1141.3 1.7563 2.4986 2.8706 2005.7 -0.0051687 326.27 0.24161 650.00 0.0015385 530.48 1141.3 1.7563 2.4986 2.8706 2005.7 -0.0051687 326.27 0.24161
195.38 57739. undefined 532.98 1145.4 1.7617 650.00 0.0015385 532.98 1145.4 1.7617 2.5025 2.8742 2006.6 -0.0051625 326.18 0.24190 650.00 0.0015385 532.98 1145.4 1.7617 2.5025 2.8742 2006.6 -0.0051625 326.18 0.24190
196.38 57896. undefined 535.49 1149.6 1.7670 650.00 0.0015385 535.49 1149.6 1.7670 2.5064 2.8777 2007.6 -0.0051563 326.10 0.24219 650.00 0.0015385 535.49 1149.6 1.7670 2.5064 2.8777 2007.6 -0.0051563 326.10 0.24219
197.38 58053. undefined 538.00 1153.8 1.7723 650.00 0.0015385 538.00 1153.8 1.7723 2.5103 2.8812 2008.5 -0.0051501 326.01 0.24248 650.00 0.0015385 538.00 1153.8 1.7723 2.5103 2.8812 2008.5 -0.0051501 326.01 0.24248
198.38 58210. undefined 540.51 1158.0 1.7777 650.00 0.0015385 540.51 1158.0 1.7777 2.5142 2.8848 2009.5 -0.0051439 325.92 0.24277 650.00 0.0015385 540.51 1158.0 1.7777 2.5142 2.8848 2009.5 -0.0051439 325.92 0.24277
199.38 58367. undefined 543.02 1162.1 1.7830 650.00 0.0015385 543.02 1162.1 1.7830 2.5181 2.8883 2010.5 -0.0051378 325.84 0.24306 650.00 0.0015385 543.02 1162.1 1.7830 2.5181 2.8883 2010.5 -0.0051378 325.84 0.24306
200.38 58523. undefined 545.54 1166.3 1.7883 650.00 0.0015385 545.54 1166.3 1.7883 2.5220 2.8918 2011.4 -0.0051317 325.75 0.24335 650.00 0.0015385 545.54 1166.3 1.7883 2.5220 2.8918 2011.4 -0.0051317 325.75 0.24335
201.38 58680. undefined 548.07 1170.5 1.7937 650.00 0.0015385 548.07 1170.5 1.7937 2.5259 2.8953 2012.4 -0.0051255 325.67 0.24364 650.00 0.0015385 548.07 1170.5 1.7937 2.5259 2.8953 2012.4 -0.0051255 325.67 0.24364
202.38 58836. undefined 550.60 1174.7 1.7990 650.00 0.0015385 550.60 1174.7 1.7990 2.5298 2.8989 2013.3 -0.0051194 325.59 0.24393 650.00 0.0015385 550.60 1174.7 1.7990 2.5298 2.8989 2013.3 -0.0051194 325.59 0.24393
203.38 58992. undefined 553.13 1178.9 1.8043 650.00 0.0015385 553.13 1178.9 1.8043 2.5337 2.9024 2014.3 -0.0051134 325.50 0.24422 650.00 0.0015385 553.13 1178.9 1.8043 2.5337 2.9024 2014.3 -0.0051134 325.50 0.24422
204.38 59148. undefined 555.66 1183.1 1.8096 650.00 0.0015385 555.66 1183.1 1.8096 2.5376 2.9059 2015.2 -0.0051073 325.42 0.24451 650.00 0.0015385 555.66 1183.1 1.8096 2.5376 2.9059 2015.2 -0.0051073 325.42 0.24451
205.38 59304. undefined 558.20 1187.3 1.8149 650.00 0.0015385 558.20 1187.3 1.8149 2.5415 2.9094 2016.2 -0.0051013 325.34 0.24480 650.00 0.0015385 558.20 1187.3 1.8149 2.5415 2.9094 2016.2 -0.0051013 325.34 0.24480
206.38 59460. undefined 560.75 1191.5 1.8202 650.00 0.0015385 560.75 1191.5 1.8202 2.5453 2.9129 2017.1 -0.0050953 325.26 0.24510 650.00 0.0015385 560.75 1191.5 1.8202 2.5453 2.9129 2017.1 -0.0050953 325.26 0.24510
207.38 59615. undefined 563.29 1195.7 1.8255 650.00 0.0015385 563.29 1195.7 1.8255 2.5492 2.9164 2018.1 -0.0050893 325.18 0.24539 650.00 0.0015385 563.29 1195.7 1.8255 2.5492 2.9164 2018.1 -0.0050893 325.18 0.24539
208.38 59771. undefined 565.84 1199.9 1.8308 650.00 0.0015385 565.84 1199.9 1.8308 2.5531 2.9199 2019.0 -0.0050833 325.10 0.24568 650.00 0.0015385 565.84 1199.9 1.8308 2.5531 2.9199 2019.0 -0.0050833 325.10 0.24568
209.38 59926. undefined 568.40 1204.1 1.8361 650.00 0.0015385 568.40 1204.1 1.8361 2.5569 2.9234 2020.0 -0.0050774 325.02 0.24597 650.00 0.0015385 568.40 1204.1 1.8361 2.5569 2.9234 2020.0 -0.0050774 325.02 0.24597
210.38 60081. undefined 570.96 1208.3 1.8414 650.00 0.0015385 570.96 1208.3 1.8414 2.5608 2.9269 2020.9 -0.0050714 324.94 0.24627 650.00 0.0015385 570.96 1208.3 1.8414 2.5608 2.9269 2020.9 -0.0050714 324.94 0.24627
211.38 60236. undefined 573.52 1212.5 1.8467 650.00 0.0015385 573.52 1212.5 1.8467 2.5646 2.9304 2021.9 -0.0050655 324.87 0.24656 650.00 0.0015385 573.52 1212.5 1.8467 2.5646 2.9304 2021.9 -0.0050655 324.87 0.24656
212.38 60391. undefined 576.09 1216.7 1.8520 650.00 0.0015385 576.09 1216.7 1.8520 2.5684 2.9338 2022.8 -0.0050596 324.79 0.24685 650.00 0.0015385 576.09 1216.7 1.8520 2.5684 2.9338 2022.8 -0.0050596 324.79 0.24685
213.38 60546. undefined 578.66 1220.9 1.8573 650.00 0.0015385 578.66 1220.9 1.8573 2.5723 2.9373 2023.7 -0.0050537 324.71 0.24715 650.00 0.0015385 578.66 1220.9 1.8573 2.5723 2.9373 2023.7 -0.0050537 324.71 0.24715
214.38 60700. undefined 581.23 1225.1 1.8626 650.00 0.0015385 581.23 1225.1 1.8626 2.5761 2.9408 2024.7 -0.0050479 324.64 0.24744 650.00 0.0015385 581.23 1225.1 1.8626 2.5761 2.9408 2024.7 -0.0050479 324.64 0.24744
215.38 60855. undefined 583.81 1229.3 1.8679 650.00 0.0015385 583.81 1229.3 1.8679 2.5799 2.9443 2025.6 -0.0050421 324.56 0.24774 650.00 0.0015385 583.81 1229.3 1.8679 2.5799 2.9443 2025.6 -0.0050421 324.56 0.24774
216.38 61009. undefined 586.39 1233.5 1.8732 650.00 0.0015385 586.39 1233.5 1.8732 2.5837 2.9477 2026.6 -0.0050362 324.49 0.24803 650.00 0.0015385 586.39 1233.5 1.8732 2.5837 2.9477 2026.6 -0.0050362 324.49 0.24803
217.38 61163. undefined 588.98 1237.8 1.8784 650.00 0.0015385 588.98 1237.8 1.8784 2.5876 2.9512 2027.5 -0.0050304 324.41 0.24833 650.00 0.0015385 588.98 1237.8 1.8784 2.5876 2.9512 2027.5 -0.0050304 324.41 0.24833
218.38 61317. undefined 591.57 1242.0 1.8837 650.00 0.0015385 591.57 1242.0 1.8837 2.5914 2.9546 2028.4 -0.0050247 324.34 0.24862 650.00 0.0015385 591.57 1242.0 1.8837 2.5914 2.9546 2028.4 -0.0050247 324.34 0.24862
219.38 61471. undefined 594.16 1246.2 1.8890 650.00 0.0015385 594.16 1246.2 1.8890 2.5952 2.9581 2029.4 -0.0050189 324.26 0.24892 650.00 0.0015385 594.16 1246.2 1.8890 2.5952 2.9581 2029.4 -0.0050189 324.26 0.24892
220.38 61625. undefined 596.76 1250.4 1.8943 650.00 0.0015385 596.76 1250.4 1.8943 2.5990 2.9615 2030.3 -0.0050132 324.19 0.24921 650.00 0.0015385 596.76 1250.4 1.8943 2.5990 2.9615 2030.3 -0.0050132 324.19 0.24921
221.38 61778. undefined 599.36 1254.7 1.8995 650.00 0.0015385 599.36 1254.7 1.8995 2.6028 2.9650 2031.2 -0.0050074 324.12 0.24951 650.00 0.0015385 599.36 1254.7 1.8995 2.6028 2.9650 2031.2 -0.0050074 324.12 0.24951
222.38 61932. undefined 601.96 1258.9 1.9048 650.00 0.0015385 601.96 1258.9 1.9048 2.6065 2.9684 2032.2 -0.0050017 324.05 0.24981 650.00 0.0015385 601.96 1258.9 1.9048 2.6065 2.9684 2032.2 -0.0050017 324.05 0.24981
223.38 62085. undefined 604.57 1263.1 1.9100 650.00 0.0015385 604.57 1263.1 1.9100 2.6103 2.9719 2033.1 -0.0049961 323.98 0.25010 650.00 0.0015385 604.57 1263.1 1.9100 2.6103 2.9719 2033.1 -0.0049961 323.98 0.25010
224.38 62238. undefined 607.18 1267.4 1.9153 650.00 0.0015385 607.18 1267.4 1.9153 2.6141 2.9753 2034.0 -0.0049904 323.90 0.25040 650.00 0.0015385 607.18 1267.4 1.9153 2.6141 2.9753 2034.0 -0.0049904 323.90 0.25040
225.38 62392. undefined 609.80 1271.6 1.9205 650.00 0.0015385 609.80 1271.6 1.9205 2.6179 2.9787 2034.9 -0.0049847 323.83 0.25070 650.00 0.0015385 609.80 1271.6 1.9205 2.6179 2.9787 2034.9 -0.0049847 323.83 0.25070
226.38 62544. undefined 612.42 1275.8 1.9258 650.00 0.0015385 612.42 1275.8 1.9258 2.6216 2.9821 2035.9 -0.0049791 323.77 0.25100 650.00 0.0015385 612.42 1275.8 1.9258 2.6216 2.9821 2035.9 -0.0049791 323.77 0.25100
227.38 62697. undefined 615.04 1280.1 1.9310 650.00 0.0015385 615.04 1280.1 1.9310 2.6254 2.9856 2036.8 -0.0049735 323.70 0.25129 650.00 0.0015385 615.04 1280.1 1.9310 2.6254 2.9856 2036.8 -0.0049735 323.70 0.25129
228.38 62850. undefined 617.67 1284.3 1.9363 650.00 0.0015385 617.67 1284.3 1.9363 2.6291 2.9890 2037.7 -0.0049679 323.63 0.25159 650.00 0.0015385 617.67 1284.3 1.9363 2.6291 2.9890 2037.7 -0.0049679 323.63 0.25159
229.38 63003. undefined 620.30 1288.6 1.9415 650.00 0.0015385 620.30 1288.6 1.9415 2.6329 2.9924 2038.6 -0.0049623 323.56 0.25189 650.00 0.0015385 620.30 1288.6 1.9415 2.6329 2.9924 2038.6 -0.0049623 323.56 0.25189
230.38 63155. undefined 622.94 1292.8 1.9468 650.00 0.0015385 622.94 1292.8 1.9468 2.6366 2.9958 2039.6 -0.0049568 323.49 0.25219 650.00 0.0015385 622.94 1292.8 1.9468 2.6366 2.9958 2039.6 -0.0049568 323.49 0.25219
231.38 63307. undefined 625.57 1297.1 1.9520 650.00 0.0015385 625.57 1297.1 1.9520 2.6404 2.9992 2040.5 -0.0049512 323.42 0.25249 650.00 0.0015385 625.57 1297.1 1.9520 2.6404 2.9992 2040.5 -0.0049512 323.42 0.25249
232.38 63459. undefined 628.22 1301.4 1.9572 650.00 0.0015385 628.22 1301.4 1.9572 2.6441 3.0026 2041.4 -0.0049457 323.36 0.25279 650.00 0.0015385 628.22 1301.4 1.9572 2.6441 3.0026 2041.4 -0.0049457 323.36 0.25279
233.38 63611. undefined 630.86 1305.6 1.9625 650.00 0.0015385 630.86 1305.6 1.9625 2.6478 3.0060 2042.3 -0.0049402 323.29 0.25309 650.00 0.0015385 630.86 1305.6 1.9625 2.6478 3.0060 2042.3 -0.0049402 323.29 0.25309
234.38 63763. undefined 633.51 1309.9 1.9677 650.00 0.0015385 633.51 1309.9 1.9677 2.6516 3.0094 2043.2 -0.0049347 323.23 0.25339 650.00 0.0015385 633.51 1309.9 1.9677 2.6516 3.0094 2043.2 -0.0049347 323.23 0.25339
235.38 63915. undefined 636.17 1314.1 1.9729 650.00 0.0015385 636.17 1314.1 1.9729 2.6553 3.0128 2044.2 -0.0049293 323.16 0.25369 650.00 0.0015385 636.17 1314.1 1.9729 2.6553 3.0128 2044.2 -0.0049293 323.16 0.25369
236.38 64067. undefined 638.82 1318.4 1.9781 650.00 0.0015385 638.82 1318.4 1.9781 2.6590 3.0162 2045.1 -0.0049238 323.10 0.25399 650.00 0.0015385 638.82 1318.4 1.9781 2.6590 3.0162 2045.1 -0.0049238 323.10 0.25399
237.38 64218. undefined 641.48 1322.7 1.9833 650.00 0.0015385 641.48 1322.7 1.9833 2.6627 3.0196 2046.0 -0.0049184 323.03 0.25429 650.00 0.0015385 641.48 1322.7 1.9833 2.6627 3.0196 2046.0 -0.0049184 323.03 0.25429
238.38 64370. undefined 644.15 1326.9 1.9886 650.00 0.0015385 644.15 1326.9 1.9886 2.6664 3.0229 2046.9 -0.0049130 322.97 0.25459 650.00 0.0015385 644.15 1326.9 1.9886 2.6664 3.0229 2046.9 -0.0049130 322.97 0.25459
239.38 64521. undefined 646.82 1331.2 1.9938 650.00 0.0015385 646.82 1331.2 1.9938 2.6701 3.0263 2047.8 -0.0049076 322.91 0.25489 650.00 0.0015385 646.82 1331.2 1.9938 2.6701 3.0263 2047.8 -0.0049076 322.91 0.25489
240.38 64672. undefined 649.49 1335.5 1.9990 650.00 0.0015385 649.49 1335.5 1.9990 2.6738 3.0297 2048.7 -0.0049022 322.84 0.25520 650.00 0.0015385 649.49 1335.5 1.9990 2.6738 3.0297 2048.7 -0.0049022 322.84 0.25520
241.38 64823. undefined 652.16 1339.8 2.0042 650.00 0.0015385 652.16 1339.8 2.0042 2.6775 3.0330 2049.6 -0.0048969 322.78 0.25550 650.00 0.0015385 652.16 1339.8 2.0042 2.6775 3.0330 2049.6 -0.0048969 322.78 0.25550
242.38 64974. undefined 654.84 1344.0 2.0094 650.00 0.0015385 654.84 1344.0 2.0094 2.6812 3.0364 2050.6 -0.0048915 322.72 0.25580 650.00 0.0015385 654.84 1344.0 2.0094 2.6812 3.0364 2050.6 -0.0048915 322.72 0.25580
243.38 65124. undefined 657.53 1348.3 2.0146 650.00 0.0015385 657.53 1348.3 2.0146 2.6848 3.0398 2051.5 -0.0048862 322.66 0.25610 650.00 0.0015385 657.53 1348.3 2.0146 2.6848 3.0398 2051.5 -0.0048862 322.66 0.25610
244.38 65275. undefined 660.21 1352.6 2.0198 650.00 0.0015385 660.21 1352.6 2.0198 2.6885 3.0431 2052.4 -0.0048809 322.60 0.25641 650.00 0.0015385 660.21 1352.6 2.0198 2.6885 3.0431 2052.4 -0.0048809 322.60 0.25641
245.38 65426. undefined 662.90 1356.9 2.0250 650.00 0.0015385 662.90 1356.9 2.0250 2.6922 3.0465 2053.3 -0.0048756 322.54 0.25671 650.00 0.0015385 662.90 1356.9 2.0250 2.6922 3.0465 2053.3 -0.0048756 322.54 0.25671
246.38 65576. undefined 665.60 1361.2 2.0302 650.00 0.0015385 665.60 1361.2 2.0302 2.6958 3.0498 2054.2 -0.0048704 322.48 0.25701 650.00 0.0015385 665.60 1361.2 2.0302 2.6958 3.0498 2054.2 -0.0048704 322.48 0.25701
247.38 65726. undefined 668.30 1365.5 2.0354 650.00 0.0015385 668.30 1365.5 2.0354 2.6995 3.0531 2055.1 -0.0048651 322.42 0.25732 650.00 0.0015385 668.30 1365.5 2.0354 2.6995 3.0531 2055.1 -0.0048651 322.42 0.25732
248.38 65876. undefined 671.00 1369.8 2.0405 650.00 0.0015385 671.00 1369.8 2.0405 2.7031 3.0565 2056.0 -0.0048599 322.36 0.25762 650.00 0.0015385 671.00 1369.8 2.0405 2.7031 3.0565 2056.0 -0.0048599 322.36 0.25762
249.38 66026. undefined 673.70 1374.1 2.0457 650.00 0.0015385 673.70 1374.1 2.0457 2.7068 3.0598 2056.9 -0.0048547 322.30 0.25793 650.00 0.0015385 673.70 1374.1 2.0457 2.7068 3.0598 2056.9 -0.0048547 322.30 0.25793
250.38 66176. undefined 676.41 1378.4 2.0509 650.00 0.0015385 676.41 1378.4 2.0509 2.7104 3.0631 2057.8 -0.0048494 322.24 0.25823 650.00 0.0015385 676.41 1378.4 2.0509 2.7104 3.0631 2057.8 -0.0048494 322.24 0.25823
251.38 66326. undefined 679.12 1382.7 2.0561 650.00 0.0015385 679.12 1382.7 2.0561 2.7141 3.0665 2058.7 -0.0048443 322.18 0.25854 650.00 0.0015385 679.12 1382.7 2.0561 2.7141 3.0665 2058.7 -0.0048443 322.18 0.25854
252.38 66475. undefined 681.84 1387.0 2.0613 650.00 0.0015385 681.84 1387.0 2.0613 2.7177 3.0698 2059.6 -0.0048391 322.12 0.25884 650.00 0.0015385 681.84 1387.0 2.0613 2.7177 3.0698 2059.6 -0.0048391 322.12 0.25884
253.38 66625. undefined 684.56 1391.3 2.0664 650.00 0.0015385 684.56 1391.3 2.0664 2.7213 3.0731 2060.5 -0.0048339 322.07 0.25915 650.00 0.0015385 684.56 1391.3 2.0664 2.7213 3.0731 2060.5 -0.0048339 322.07 0.25915
254.38 66774. undefined 687.28 1395.6 2.0716 650.00 0.0015385 687.28 1395.6 2.0716 2.7249 3.0764 2061.4 -0.0048288 322.01 0.25945 650.00 0.0015385 687.28 1395.6 2.0716 2.7249 3.0764 2061.4 -0.0048288 322.01 0.25945
255.38 66923. undefined 690.01 1399.9 2.0768 650.00 0.0015385 690.01 1399.9 2.0768 2.7285 3.0797 2062.3 -0.0048237 321.95 0.25976 650.00 0.0015385 690.01 1399.9 2.0768 2.7285 3.0797 2062.3 -0.0048237 321.95 0.25976
256.38 67073. undefined 692.74 1404.2 2.0819 650.00 0.0015385 692.74 1404.2 2.0819 2.7322 3.0830 2063.2 -0.0048186 321.90 0.26007 650.00 0.0015385 692.74 1404.2 2.0819 2.7322 3.0830 2063.2 -0.0048186 321.90 0.26007
257.38 67222. undefined 695.47 1408.5 2.0871 650.00 0.0015385 695.47 1408.5 2.0871 2.7358 3.0863 2064.1 -0.0048135 321.84 0.26037 650.00 0.0015385 695.47 1408.5 2.0871 2.7358 3.0863 2064.1 -0.0048135 321.84 0.26037
258.38 67370. undefined 698.21 1412.8 2.0922 650.00 0.0015385 698.21 1412.8 2.0922 2.7394 3.0896 2065.0 -0.0048084 321.79 0.26068 650.00 0.0015385 698.21 1412.8 2.0922 2.7394 3.0896 2065.0 -0.0048084 321.79 0.26068
259.38 67519. undefined 700.95 1417.1 2.0974 650.00 0.0015385 700.95 1417.1 2.0974 2.7430 3.0929 2065.9 -0.0048034 321.73 0.26099 650.00 0.0015385 700.95 1417.1 2.0974 2.7430 3.0929 2065.9 -0.0048034 321.73 0.26099
260.38 67668. undefined 703.70 1421.5 2.1025 650.00 0.0015385 703.70 1421.5 2.1025 2.7465 3.0962 2066.8 -0.0047984 321.68 0.26130 650.00 0.0015385 703.70 1421.5 2.1025 2.7465 3.0962 2066.8 -0.0047984 321.68 0.26130
261.38 67816. undefined 706.44 1425.8 2.1077 650.00 0.0015385 706.44 1425.8 2.1077 2.7501 3.0995 2067.6 -0.0047933 321.63 0.26160 650.00 0.0015385 706.44 1425.8 2.1077 2.7501 3.0995 2067.6 -0.0047933 321.63 0.26160
262.38 67965. undefined 709.20 1430.1 2.1128 650.00 0.0015385 709.20 1430.1 2.1128 2.7537 3.1028 2068.5 -0.0047883 321.57 0.26191 650.00 0.0015385 709.20 1430.1 2.1128 2.7537 3.1028 2068.5 -0.0047883 321.57 0.26191
263.38 68113. undefined 711.95 1434.4 2.1180 650.00 0.0015385 711.95 1434.4 2.1180 2.7573 3.1060 2069.4 -0.0047834 321.52 0.26222 650.00 0.0015385 711.95 1434.4 2.1180 2.7573 3.1060 2069.4 -0.0047834 321.52 0.26222
264.38 68261. undefined 714.71 1438.8 2.1231 650.00 0.0015385 714.71 1438.8 2.1231 2.7608 3.1093 2070.3 -0.0047784 321.47 0.26253 650.00 0.0015385 714.71 1438.8 2.1231 2.7608 3.1093 2070.3 -0.0047784 321.47 0.26253
265.38 68409. undefined 717.47 1443.1 2.1282 650.00 0.0015385 717.47 1443.1 2.1282 2.7644 3.1126 2071.2 -0.0047734 321.41 0.26284 650.00 0.0015385 717.47 1443.1 2.1282 2.7644 3.1126 2071.2 -0.0047734 321.41 0.26284
266.38 68557. undefined 720.24 1447.4 2.1334 650.00 0.0015385 720.24 1447.4 2.1334 2.7680 3.1158 2072.1 -0.0047685 321.36 0.26315 650.00 0.0015385 720.24 1447.4 2.1334 2.7680 3.1158 2072.1 -0.0047685 321.36 0.26315
267.38 68705. undefined 723.01 1451.8 2.1385 650.00 0.0015385 723.01 1451.8 2.1385 2.7715 3.1191 2073.0 -0.0047636 321.31 0.26346 650.00 0.0015385 723.01 1451.8 2.1385 2.7715 3.1191 2073.0 -0.0047636 321.31 0.26346
268.38 68852. undefined 725.78 1456.1 2.1436 650.00 0.0015385 725.78 1456.1 2.1436 2.7751 3.1223 2073.8 -0.0047587 321.26 0.26377 650.00 0.0015385 725.78 1456.1 2.1436 2.7751 3.1223 2073.8 -0.0047587 321.26 0.26377
269.38 69000. undefined 728.56 1460.5 2.1487 650.00 0.0015385 728.56 1460.5 2.1487 2.7786 3.1256 2074.7 -0.0047538 321.21 0.26408 650.00 0.0015385 728.56 1460.5 2.1487 2.7786 3.1256 2074.7 -0.0047538 321.21 0.26408
270.38 69147. undefined 731.34 1464.8 2.1539 650.00 0.0015385 731.34 1464.8 2.1539 2.7821 3.1288 2075.6 -0.0047489 321.16 0.26439 650.00 0.0015385 731.34 1464.8 2.1539 2.7821 3.1288 2075.6 -0.0047489 321.16 0.26439
271.38 69295. undefined 734.12 1469.2 2.1590 650.00 0.0015385 734.12 1469.2 2.1590 2.7857 3.1321 2076.5 -0.0047440 321.11 0.26470 650.00 0.0015385 734.12 1469.2 2.1590 2.7857 3.1321 2076.5 -0.0047440 321.11 0.26470
272.38 69442. undefined 736.91 1473.5 2.1641 650.00 0.0015385 736.91 1473.5 2.1641 2.7892 3.1353 2077.4 -0.0047392 321.06 0.26501 650.00 0.0015385 736.91 1473.5 2.1641 2.7892 3.1353 2077.4 -0.0047392 321.06 0.26501
273.38 69589. undefined 739.70 1477.9 2.1692 650.00 0.0015385 739.70 1477.9 2.1692 2.7927 3.1385 2078.2 -0.0047344 321.01 0.26532 650.00 0.0015385 739.70 1477.9 2.1692 2.7927 3.1385 2078.2 -0.0047344 321.01 0.26532
274.38 69736. undefined 742.50 1482.2 2.1743 650.00 0.0015385 742.50 1482.2 2.1743 2.7962 3.1418 2079.1 -0.0047296 320.96 0.26563 650.00 0.0015385 742.50 1482.2 2.1743 2.7962 3.1418 2079.1 -0.0047296 320.96 0.26563
275.38 69883. undefined 745.29 1486.6 2.1794 650.00 0.0015385 745.29 1486.6 2.1794 2.7997 3.1450 2080.0 -0.0047248 320.91 0.26595 650.00 0.0015385 745.29 1486.6 2.1794 2.7997 3.1450 2080.0 -0.0047248 320.91 0.26595
276.38 70030. undefined 748.10 1490.9 2.1845 650.00 0.0015385 748.10 1490.9 2.1845 2.8032 3.1482 2080.9 -0.0047200 320.86 0.26626 650.00 0.0015385 748.10 1490.9 2.1845 2.8032 3.1482 2080.9 -0.0047200 320.86 0.26626
277.38 70176. undefined 750.90 1495.3 2.1896 650.00 0.0015385 750.90 1495.3 2.1896 2.8067 3.1514 2081.8 -0.0047152 320.81 0.26657 650.00 0.0015385 750.90 1495.3 2.1896 2.8067 3.1514 2081.8 -0.0047152 320.81 0.26657
278.38 70323. undefined 753.71 1499.6 2.1947 650.00 0.0015385 753.71 1499.6 2.1947 2.8102 3.1546 2082.6 -0.0047105 320.77 0.26688 650.00 0.0015385 753.71 1499.6 2.1947 2.8102 3.1546 2082.6 -0.0047105 320.77 0.26688
279.38 70469. undefined 756.52 1504.0 2.1998 650.00 0.0015385 756.52 1504.0 2.1998 2.8137 3.1578 2083.5 -0.0047057 320.72 0.26720 650.00 0.0015385 756.52 1504.0 2.1998 2.8137 3.1578 2083.5 -0.0047057 320.72 0.26720
280.38 70615. undefined 759.34 1508.4 2.2049 650.00 0.0015385 759.34 1508.4 2.2049 2.8172 3.1610 2084.4 -0.0047010 320.67 0.26751 650.00 0.0015385 759.34 1508.4 2.2049 2.8172 3.1610 2084.4 -0.0047010 320.67 0.26751
281.38 70761. undefined 762.16 1512.7 2.2100 650.00 0.0015385 762.16 1512.7 2.2100 2.8207 3.1642 2085.2 -0.0046963 320.63 0.26782 650.00 0.0015385 762.16 1512.7 2.2100 2.8207 3.1642 2085.2 -0.0046963 320.63 0.26782
282.38 70907. undefined 764.98 1517.1 2.2151 650.00 0.0015385 764.98 1517.1 2.2151 2.8242 3.1674 2086.1 -0.0046916 320.58 0.26800 650.00 0.0015385 764.98 1517.1 2.2151 2.8242 3.1674 2086.1 -0.0046916 320.58 0.26800
283.38 71053. undefined 767.80 1521.5 2.2202 650.00 0.0015385 767.80 1521.5 2.2202 2.8276 3.1706 2087.0 -0.0046869 320.53 0.26832 650.00 0.0015385 767.80 1521.5 2.2202 2.8276 3.1706 2087.0 -0.0046869 320.53 0.26832
284.38 71199. undefined 770.63 1525.9 2.2252 650.00 0.0015385 770.63 1525.9 2.2252 2.8311 3.1738 2087.9 -0.0046823 320.49 0.26863 650.00 0.0015385 770.63 1525.9 2.2252 2.8311 3.1738 2087.9 -0.0046823 320.49 0.26863
285.38 71345. undefined 773.47 1530.2 2.2303 650.00 0.0015385 773.47 1530.2 2.2303 2.8346 3.1770 2088.7 -0.0046776 320.44 0.26895 650.00 0.0015385 773.47 1530.2 2.2303 2.8346 3.1770 2088.7 -0.0046776 320.44 0.26895
286.38 71490. undefined 776.30 1534.6 2.2354 650.00 0.0015385 776.30 1534.6 2.2354 2.8380 3.1802 2089.6 -0.0046730 320.40 0.26926 650.00 0.0015385 776.30 1534.6 2.2354 2.8380 3.1802 2089.6 -0.0046730 320.40 0.26926
287.38 71636. undefined 779.14 1539.0 2.2405 650.00 0.0015385 779.14 1539.0 2.2405 2.8415 3.1834 2090.4 -0.0046684 320.35 0.26958 650.00 0.0015385 779.14 1539.0 2.2405 2.8415 3.1834 2090.4 -0.0046684 320.35 0.26958
288.38 71781. undefined 781.99 1543.4 2.2455 650.00 0.0015385 781.99 1543.4 2.2455 2.8449 3.1865 2091.3 -0.0046638 320.31 0.26989 650.00 0.0015385 781.99 1543.4 2.2455 2.8449 3.1865 2091.3 -0.0046638 320.31 0.26989
289.38 71927. undefined 784.83 1547.8 2.2506 650.00 0.0015385 784.83 1547.8 2.2506 2.8484 3.1897 2092.2 -0.0046592 320.27 0.27021 650.00 0.0015385 784.83 1547.8 2.2506 2.8484 3.1897 2092.2 -0.0046592 320.27 0.27021
290.38 72072. undefined 787.68 1552.2 2.2557 650.00 0.0015385 787.68 1552.2 2.2557 2.8518 3.1929 2093.0 -0.0046546 320.22 0.27052 650.00 0.0015385 787.68 1552.2 2.2557 2.8518 3.1929 2093.0 -0.0046546 320.22 0.27052
291.38 72217. undefined 790.54 1556.6 2.2607 650.00 0.0015385 790.54 1556.6 2.2607 2.8552 3.1960 2093.9 -0.0046501 320.18 0.27084 650.00 0.0015385 790.54 1556.6 2.2607 2.8552 3.1960 2093.9 -0.0046501 320.18 0.27084
292.38 72362. undefined 793.39 1561.0 2.2658 650.00 0.0015385 793.39 1561.0 2.2658 2.8586 3.1992 2094.8 -0.0046455 320.14 0.27116 650.00 0.0015385 793.39 1561.0 2.2658 2.8586 3.1992 2094.8 -0.0046455 320.14 0.27116
293.38 72506. undefined 796.25 1565.4 2.2708 650.00 0.0015385 796.25 1565.4 2.2708 2.8621 3.2023 2095.6 -0.0046410 320.09 0.27147 650.00 0.0015385 796.25 1565.4 2.2708 2.8621 3.2023 2095.6 -0.0046410 320.09 0.27147
294.38 72651. undefined 799.12 1569.7 2.2759 650.00 0.0015385 799.12 1569.7 2.2759 2.8655 3.2055 2096.5 -0.0046365 320.05 0.27179 650.00 0.0015385 799.12 1569.7 2.2759 2.8655 3.2055 2096.5 -0.0046365 320.05 0.27179
295.38 72796. undefined 801.98 1574.2 2.2809 650.00 0.0015385 801.98 1574.2 2.2809 2.8689 3.2086 2097.3 -0.0046320 320.01 0.27211 650.00 0.0015385 801.98 1574.2 2.2809 2.8689 3.2086 2097.3 -0.0046320 320.01 0.27211
296.38 72940. undefined 804.85 1578.6 2.2860 650.00 0.0015385 804.85 1578.6 2.2860 2.8723 3.2117 2098.2 -0.0046275 319.97 0.27243 650.00 0.0015385 804.85 1578.6 2.2860 2.8723 3.2117 2098.2 -0.0046275 319.97 0.27243
297.38 73084. undefined 807.73 1583.0 2.2910 650.00 0.0015385 807.73 1583.0 2.2910 2.8757 3.2149 2099.1 -0.0046230 319.93 0.27274 650.00 0.0015385 807.73 1583.0 2.2910 2.8757 3.2149 2099.1 -0.0046230 319.93 0.27274
298.38 73229. undefined 810.61 1587.4 2.2960 650.00 0.0015385 810.61 1587.4 2.2960 2.8791 3.2180 2099.9 -0.0046186 319.88 0.27306 650.00 0.0015385 810.61 1587.4 2.2960 2.8791 3.2180 2099.9 -0.0046186 319.88 0.27306
299.38 73373. undefined 813.49 1591.8 2.3011 650.00 0.0015385 813.49 1591.8 2.3011 2.8825 3.2211 2100.8 -0.0046141 319.84 0.27338 650.00 0.0015385 813.49 1591.8 2.3011 2.8825 3.2211 2100.8 -0.0046141 319.84 0.27338
300.38 73517. undefined 816.37 1596.2 2.3061 650.00 0.0015385 816.37 1596.2 2.3061 2.8859 3.2242 2101.6 -0.0046097 319.80 0.27370 650.00 0.0015385 816.37 1596.2 2.3061 2.8859 3.2242 2101.6 -0.0046097 319.80 0.27370