Temperature (C) Pressure (psia) Quality (l+v) Internal Energy (l+v, kJ/kg) Enthalpy (l+v, kJ/kg) Entropy (l+v, J/g*K) Density (l, kg/m3) Volume (l, m3/kg) Internal Energy (l, kJ/kg) Enthalpy (l, kJ/kg) Entropy (l, J/g*K) Cv (l, J/g*K) Cp (l, J/g*K) Sound Spd. (l, m/s) Joule-Thomson (l, F/psia) Viscosity (l, uPa*s) Therm. Cond. (l, W/m*K) Density (v, kg/m3) Volume (v, m3/kg) Internal Energy (v, kJ/kg) Enthalpy (v, kJ/kg) Entropy (v, J/g*K) Cv (v, J/g*K) Cp (v, J/g*K) Sound Spd. (v, m/s) Joule-Thomson (v, F/psia) Viscosity (v, uPa*s) Therm. Cond. (v, W/m*K)
-187.62 2.4953e-08 1.4908e-12 -196.64 -196.64 -1.3959 733.13 0.0013640 -196.64 -196.64 -1.3959 1.3553 1.9158 2136.4 -0.0077592 10960. 0.20792 1.0669e-08 9.3732e+07 350.13 366.26 5.1858 0.69067 0.87923 143.28 6.1051 2.3259 0.0017061
-186.62 3.7339e-08 2.1743e-12 -194.73 -194.73 -1.3736 732.08 0.0013660 -194.73 -194.73 -1.3736 1.3539 1.9166 2129.6 -0.0077546 10073. 0.20765 1.5780e-08 6.3371e+07 350.82 367.14 5.1200 0.69462 0.88317 144.03 5.9178 2.3534 0.0017533
-185.62 5.5322e-08 3.1397e-12 -192.81 -192.81 -1.3516 731.04 0.0013679 -192.81 -192.81 -1.3516 1.3525 1.9174 2122.9 -0.0077498 9276.1 0.20737 2.3112e-08 4.3267e+07 351.52 368.02 5.0561 0.69857 0.88713 144.77 5.7383 2.3808 0.0018007
-184.62 8.1182e-08 4.4899e-12 -190.89 -190.89 -1.3298 730.00 0.0013699 -190.89 -190.89 -1.3298 1.3513 1.9182 2116.1 -0.0077448 8557.8 0.20708 3.3533e-08 2.9821e+07 352.22 368.91 4.9939 0.70253 0.89108 145.51 5.5662 2.4083 0.0018485
-183.62 1.1803e-07 6.3609e-12 -188.97 -188.97 -1.3083 728.96 0.0013718 -188.97 -188.97 -1.3083 1.3501 1.9191 2109.3 -0.0077395 7909.8 0.20678 4.8211e-08 2.0742e+07 352.92 369.81 4.9333 0.70648 0.89504 146.24 5.4011 2.4357 0.0018965
-182.62 1.7009e-07 8.9304e-12 -187.05 -187.05 -1.2869 727.92 0.0013738 -187.05 -187.05 -1.2869 1.3490 1.9201 2102.5 -0.0077340 7324.3 0.20647 6.8704e-08 1.4555e+07 353.63 370.70 4.8744 0.71043 0.89899 146.97 5.2426 2.4632 0.0019448
-181.62 2.4299e-07 1.2428e-11 -185.13 -185.13 -1.2658 726.88 0.0013757 -185.13 -185.13 -1.2658 1.3480 1.9210 2095.7 -0.0077283 6794.5 0.20616 9.7079e-08 1.0301e+07 354.35 371.60 4.8170 0.71438 0.90294 147.69 5.0904 2.4906 0.0019934
-180.62 3.4425e-07 1.7150e-11 -183.21 -183.21 -1.2450 725.85 0.0013777 -183.21 -183.21 -1.2450 1.3470 1.9220 2088.9 -0.0077225 6314.4 0.20584 1.3605e-07 7.3504e+06 355.06 372.51 4.7612 0.71833 0.90688 148.41 4.9442 2.5181 0.0020423
-179.62 4.8378e-07 2.3473e-11 -181.29 -181.29 -1.2243 724.81 0.0013797 -181.29 -181.29 -1.2243 1.3461 1.9231 2082.0 -0.0077164 5878.8 0.20551 1.8915e-07 5.2868e+06 355.78 373.42 4.7068 0.72227 0.91082 149.13 4.8038 2.5456 0.0020915
-178.62 6.7459e-07 3.1870e-11 -179.37 -179.37 -1.2038 723.78 0.0013816 -179.37 -179.37 -1.2038 1.3453 1.9241 2075.2 -0.0077102 5482.9 0.20517 2.6096e-07 3.8320e+06 356.51 374.33 4.6538 0.72620 0.91475 149.84 4.6688 2.5731 0.0021410
-177.62 9.3358e-07 4.2940e-11 -177.44 -177.44 -1.1836 722.75 0.0013836 -177.44 -177.44 -1.1836 1.3445 1.9252 2068.4 -0.0077039 5122.6 0.20483 3.5737e-07 2.7982e+06 357.23 375.25 4.6022 0.73012 0.91867 150.54 4.5390 2.6005 0.0021907
-176.62 1.2826e-06 5.7421e-11 -175.52 -175.52 -1.1635 721.72 0.0013856 -175.52 -175.52 -1.1635 1.3437 1.9263 2061.5 -0.0076973 4794.1 0.20447 4.8588e-07 2.0581e+06 357.97 376.17 4.5519 0.73403 0.92258 151.25 4.4142 2.6280 0.0022408
-175.62 1.7496e-06 7.6230e-11 -173.59 -173.59 -1.1437 720.69 0.0013876 -173.59 -173.59 -1.1437 1.3430 1.9274 2054.7 -0.0076907 4494.3 0.20411 6.5601e-07 1.5244e+06 358.70 377.09 4.5029 0.73792 0.92648 151.95 4.2941 2.6555 0.0022912
-174.62 2.3705e-06 1.0049e-10 -171.66 -171.66 -1.1240 719.66 0.0013895 -171.66 -171.66 -1.1240 1.3423 1.9286 2047.9 -0.0076838 4220.2 0.20375 8.7976e-07 1.1367e+06 359.44 378.02 4.4551 0.74181 0.93036 152.64 4.1784 2.6830 0.0023418
-173.62 3.1903e-06 1.3155e-10 -169.73 -169.73 -1.1045 718.64 0.0013915 -169.73 -169.73 -1.1045 1.3417 1.9298 2041.0 -0.0076769 3969.3 0.20338 1.1721e-06 8.5314e+05 360.19 378.95 4.4085 0.74568 0.93423 153.33 4.0671 2.7105 0.0023928
-172.62 4.2661e-06 1.7108e-10 -167.80 -167.80 -1.0852 717.61 0.0013935 -167.80 -167.80 -1.0852 1.3411 1.9310 2034.2 -0.0076698 3739.3 0.20300 1.5518e-06 6.4441e+05 360.93 379.89 4.3631 0.74953 0.93809 154.02 3.9599 2.7379 0.0024440
-171.62 5.6692e-06 2.2104e-10 -165.87 -165.87 -1.0661 716.58 0.0013955 -165.87 -165.87 -1.0661 1.3405 1.9322 2027.3 -0.0076625 3528.0 0.20261 2.0419e-06 4.8974e+05 361.69 380.83 4.3188 0.75337 0.94193 154.71 3.8566 2.7654 0.0024955
-170.62 7.4884e-06 2.8378e-10 -163.94 -163.94 -1.0472 715.56 0.0013975 -163.94 -163.94 -1.0472 1.3400 1.9334 2020.5 -0.0076552 3333.8 0.20222 2.6708e-06 3.7442e+05 362.44 381.77 4.2755 0.75720 0.94575 155.39 3.7570 2.7929 0.0025473
-169.62 9.8334e-06 3.6210e-10 -162.00 -162.00 -1.0284 714.54 0.0013995 -162.00 -162.00 -1.0284 1.3395 1.9347 2013.6 -0.0076477 3154.9 0.20182 3.4733e-06 2.8791e+05 363.20 382.72 4.2334 0.76100 0.94956 156.07 3.6609 2.8204 0.0025994
-168.62 1.2839e-05 4.5926e-10 -160.07 -160.07 -1.0098 713.52 0.0014015 -160.07 -160.07 -1.0098 1.3390 1.9359 2006.8 -0.0076401 2989.9 0.20141 4.4917e-06 2.2263e+05 363.96 383.67 4.1922 0.76479 0.95335 156.74 3.5683 2.8479 0.0026518
-167.62 1.6672e-05 5.7910e-10 -158.13 -158.13 -0.99134 712.49 0.0014035 -158.13 -158.13 -0.99134 1.3386 1.9372 2000.0 -0.0076323 2837.5 0.20100 5.7771e-06 1.7310e+05 364.73 384.63 4.1521 0.76856 0.95712 157.41 3.4790 2.8754 0.0027045
-166.62 2.1533e-05 7.2603e-10 -156.19 -156.19 -0.97306 711.47 0.0014055 -156.19 -156.19 -0.97306 1.3382 1.9385 1993.1 -0.0076245 2696.5 0.20058 7.3914e-06 1.3529e+05 365.50 385.59 4.1129 0.77232 0.96087 158.08 3.3927 2.9029 0.0027575
-165.62 2.7666e-05 9.0518e-10 -154.25 -154.25 -0.95494 710.45 0.0014075 -154.25 -154.25 -0.95494 1.3378 1.9398 1986.3 -0.0076165 2566.0 0.20016 9.4084e-06 1.0629e+05 366.27 386.55 4.0746 0.77605 0.96460 158.75 3.3095 2.9304 0.0028108
-164.62 3.5367e-05 1.1224e-09 -152.31 -152.31 -0.93698 709.44 0.0014096 -152.31 -152.31 -0.93698 1.3375 1.9411 1979.4 -0.0076084 2444.9 0.19973 1.1916e-05 83918. 367.05 387.52 4.0372 0.77976 0.96832 159.41 3.2291 2.9579 0.0028643
-163.62 4.4989e-05 1.3843e-09 -150.37 -150.37 -0.91917 708.42 0.0014116 -150.37 -150.37 -0.91917 1.3371 1.9424 1972.6 -0.0076002 2332.3 0.19930 1.5020e-05 66577. 367.83 388.49 4.0008 0.78346 0.97201 160.07 3.1514 2.9854 0.0029182
-162.62 5.6956e-05 1.6984e-09 -148.43 -148.43 -0.90151 707.40 0.0014136 -148.43 -148.43 -0.90151 1.3368 1.9437 1965.8 -0.0075919 2227.7 0.19886 1.8844e-05 53068. 368.62 389.46 3.9651 0.78713 0.97569 160.72 3.0764 3.0129 0.0029723
-161.62 7.1773e-05 2.0732e-09 -146.48 -146.48 -0.88400 706.38 0.0014157 -146.48 -146.48 -0.88400 1.3365 1.9451 1959.0 -0.0075834 2130.2 0.19841 2.3533e-05 42494. 369.41 390.44 3.9304 0.79079 0.97935 161.38 3.0038 3.0404 0.0030268
-160.62 9.0036e-05 2.5180e-09 -144.54 -144.54 -0.86663 705.37 0.0014177 -144.54 -144.54 -0.86663 1.3363 1.9465 1952.1 -0.0075748 2039.2 0.19796 2.9258e-05 34178. 370.20 391.42 3.8964 0.79443 0.98298 162.03 2.9337 3.0679 0.0030815
-159.62 0.00011245 3.0432e-09 -142.59 -142.59 -0.84940 704.35 0.0014197 -142.59 -142.59 -0.84940 1.3360 1.9478 1945.3 -0.0075661 1954.2 0.19751 3.6221e-05 27609. 371.00 392.40 3.8632 0.79805 0.98660 162.68 2.8658 3.0955 0.0031365
-158.62 0.00013985 3.6601e-09 -140.64 -140.64 -0.83231 703.34 0.0014218 -140.64 -140.64 -0.83231 1.3358 1.9492 1938.5 -0.0075573 1874.8 0.19705 4.4652e-05 22395. 371.80 393.39 3.8307 0.80164 0.99020 163.32 2.8002 3.1230 0.0031918
-157.62 0.00017320 4.3811e-09 -138.69 -138.69 -0.81536 702.32 0.0014238 -138.69 -138.69 -0.81536 1.3356 1.9506 1931.7 -0.0075484 1800.3 0.19658 5.4822e-05 18241. 372.60 394.38 3.7990 0.80522 0.99378 163.96 2.7367 3.1505 0.0032474
-156.62 0.00021364 5.2197e-09 -136.74 -136.74 -0.79854 701.31 0.0014259 -136.74 -136.74 -0.79854 1.3354 1.9520 1924.9 -0.0075393 1730.5 0.19611 6.7040e-05 14916. 373.41 395.38 3.7680 0.80878 0.99734 164.60 2.6752 3.1780 0.0033033
-155.62 0.00026248 6.1900e-09 -134.79 -134.79 -0.78185 700.30 0.0014280 -134.79 -134.79 -0.78185 1.3352 1.9534 1918.1 -0.0075302 1664.9 0.19564 8.1666e-05 12245. 374.22 396.38 3.7377 0.81232 1.0009 165.24 2.6157 3.2055 0.0033595
-154.62 0.00032125 7.3071e-09 -132.83 -132.83 -0.76530 699.29 0.0014300 -132.83 -132.83 -0.76530 1.3350 1.9548 1911.3 -0.0075209 1603.3 0.19516 9.9109e-05 10090. 375.03 397.38 3.7081 0.81585 1.0044 165.87 2.5580 3.2330 0.0034160
-153.62 0.00039171 8.5870e-09 -130.88 -130.88 -0.74887 698.27 0.0014321 -130.88 -130.88 -0.74887 1.3349 1.9563 1904.5 -0.0075114 1545.3 0.19468 0.00011984 8344.6 375.85 398.39 3.6792 0.81935 1.0079 166.50 2.5022 3.2606 0.0034727
-152.62 0.00047590 1.0046e-08 -128.92 -128.92 -0.73256 697.26 0.0014342 -128.92 -128.92 -0.73256 1.3348 1.9577 1897.8 -0.0075019 1490.6 0.19419 0.00014439 6925.9 376.67 399.40 3.6509 0.82284 1.0114 167.13 2.4481 3.2881 0.0035298
-151.62 0.00057613 1.1700e-08 -126.96 -126.96 -0.71638 696.25 0.0014363 -126.96 -126.96 -0.71638 1.3346 1.9592 1891.0 -0.0074922 1438.9 0.19370 0.00017336 5768.4 377.49 400.41 3.6232 0.82631 1.0149 167.76 2.3957 3.3156 0.0035872
-150.62 0.00069507 1.3567e-08 -125.00 -125.00 -0.70032 695.24 0.0014384 -125.00 -125.00 -0.70032 1.3345 1.9606 1884.2 -0.0074824 1390.2 0.19320 0.00020744 4820.7 378.32 401.42 3.5962 0.82976 1.0183 168.38 2.3448 3.3431 0.0036448
-149.62 0.00083574 1.5663e-08 -123.04 -123.04 -0.68438 694.23 0.0014404 -123.04 -123.04 -0.68438 1.3345 1.9621 1877.4 -0.0074724 1344.0 0.19270 0.00024740 4042.0 379.15 402.44 3.5697 0.83319 1.0218 169.00 2.2956 3.3706 0.0037027
-148.62 0.0010016 1.8003e-08 -121.08 -121.08 -0.66855 693.22 0.0014425 -121.08 -121.08 -0.66855 1.3344 1.9636 1870.7 -0.0074623 1300.3 0.19220 0.00029412 3400.0 379.99 403.47 3.5438 0.83661 1.0252 169.62 2.2478 3.3982 0.0037610
-147.62 0.0011965 2.0601e-08 -119.11 -119.11 -0.65284 692.21 0.0014447 -119.11 -119.11 -0.65284 1.3343 1.9651 1863.9 -0.0074521 1258.9 0.19169 0.00034856 2869.0 380.83 404.49 3.5185 0.84001 1.0286 170.24 2.2014 3.4257 0.0038195
-146.62 0.0014249 2.3471e-08 -117.15 -117.15 -0.63724 691.20 0.0014468 -117.15 -117.15 -0.63724 1.3343 1.9666 1857.2 -0.0074417 1219.6 0.19117 0.00041181 2428.3 381.67 405.52 3.4938 0.84340 1.0320 170.85 2.1565 3.4532 0.0038783
-145.62 0.0016917 2.6620e-08 -115.18 -115.18 -0.62175 690.19 0.0014489 -115.18 -115.18 -0.62175 1.3343 1.9682 1850.4 -0.0074312 1182.3 0.19066 0.00048510 2061.4 382.51 406.56 3.4695 0.84677 1.0353 171.46 2.1128 3.4807 0.0039374
-144.62 0.0020026 3.0057e-08 -113.21 -113.21 -0.60637 689.18 0.0014510 -113.21 -113.21 -0.60637 1.3343 1.9697 1843.7 -0.0074206 1146.8 0.19014 0.00056976 1755.1 383.36 407.59 3.4458 0.85012 1.0387 172.07 2.0705 3.5082 0.0039967
-143.62 0.0023637 3.3782e-08 -111.24 -111.24 -0.59110 688.17 0.0014531 -111.24 -111.24 -0.59110 1.3343 1.9713 1836.9 -0.0074098 1113.0 0.18962 0.00066731 1498.6 384.21 408.63 3.4226 0.85346 1.0420 172.68 2.0294 3.5358 0.0040564
-142.62 0.0027820 3.7791e-08 -109.27 -109.27 -0.57593 687.16 0.0014553 -109.27 -109.27 -0.57593 1.3343 1.9728 1830.2 -0.0073988 1080.8 0.18909 0.00077939 1283.1 385.07 409.68 3.3999 0.85679 1.0454 173.28 1.9896 3.5633 0.0041164
-141.62 0.0032653 4.2075e-08 -107.30 -107.30 -0.56087 686.15 0.0014574 -107.30 -107.30 -0.56087 1.3343 1.9744 1823.5 -0.0073878 1050.1 0.18856 0.00090784 1101.5 385.93 410.72 3.3777 0.86011 1.0487 173.88 1.9508 3.5908 0.0041766
-140.62 0.0038222 4.6615e-08 -105.32 -105.32 -0.54591 685.14 0.0014596 -105.32 -105.32 -0.54591 1.3344 1.9760 1816.7 -0.0073765 1020.7 0.18803 0.0010547 948.16 386.79 411.77 3.3560 0.86341 1.0520 174.48 1.9133 3.6183 0.0042372
-139.62 0.0044623 5.1382e-08 -103.34 -103.34 -0.53105 684.13 0.0014617 -103.34 -103.34 -0.53105 1.3344 1.9776 1810.0 -0.0073651 992.74 0.18749 0.0012221 818.26 387.65 412.83 3.3347 0.86670 1.0553 175.08 1.8768 3.6459 0.0042980
-138.62 0.0051963 5.6337e-08 -101.37 -101.37 -0.51629 683.12 0.0014639 -101.37 -101.37 -0.51629 1.3345 1.9792 1803.3 -0.0073536 965.97 0.18695 0.0014125 707.94 388.52 413.88 3.3139 0.86998 1.0586 175.67 1.8413 3.6734 0.0043592
-137.62 0.0060358 6.1427e-08 -99.386 -99.386 -0.50162 682.11 0.0014660 -99.386 -99.386 -0.50162 1.3346 1.9808 1796.6 -0.0073419 940.35 0.18641 0.0016287 614.00 389.39 414.94 3.2935 0.87325 1.0619 176.26 1.8069 3.7009 0.0044206
-136.62 0.0069938 6.6582e-08 -97.404 -97.404 -0.48705 681.10 0.0014682 -97.404 -97.404 -0.48705 1.3347 1.9825 1789.9 -0.0073301 915.81 0.18586 0.0018733 533.80 390.26 416.00 3.2735 0.87650 1.0651 176.85 1.7734 3.7284 0.0044823
-135.62 0.0080843 7.1717e-08 -95.421 -95.421 -0.47258 680.09 0.0014704 -95.421 -95.421 -0.47258 1.3348 1.9841 1783.2 -0.0073180 892.30 0.18531 0.0021497 465.17 391.14 417.07 3.2540 0.87975 1.0684 177.44 1.7409 3.7559 0.0045443
-134.62 0.0093230 7.6724e-08 -93.436 -93.436 -0.45820 679.08 0.0014726 -93.436 -93.436 -0.45820 1.3350 1.9858 1776.5 -0.0073059 869.75 0.18476 0.0024613 406.30 392.02 418.14 3.2348 0.88299 1.0716 178.02 1.7093 3.7834 0.0046066
-133.62 0.010727 8.1474e-08 -91.449 -91.449 -0.44391 678.07 0.0014748 -91.450 -91.449 -0.44391 1.3351 1.9875 1769.8 -0.0072935 848.11 0.18421 0.0028116 355.67 392.91 419.21 3.2161 0.88622 1.0749 178.61 1.6786 3.8109 0.0046691
-132.62 0.012315 8.5811e-08 -89.461 -89.461 -0.42971 677.06 0.0014770 -89.461 -89.461 -0.42971 1.3353 1.9892 1763.1 -0.0072810 827.32 0.18365 0.0032049 312.03 393.79 420.29 3.1977 0.88944 1.0781 179.19 1.6488 3.8385 0.0047320
-131.62 0.014106 8.9550e-08 -87.471 -87.471 -0.41560 676.04 0.0014792 -87.471 -87.471 -0.41560 1.3354 1.9909 1756.4 -0.0072684 807.34 0.18309 0.0036453 274.33 394.68 421.36 3.1798 0.89266 1.0813 179.76 1.6197 3.8660 0.0047951
-130.62 0.016124 9.2471e-08 -85.479 -85.479 -0.40157 675.03 0.0014814 -85.479 -85.479 -0.40157 1.3356 1.9926 1749.7 -0.0072555 788.12 0.18253 0.0041375 241.69 395.58 422.44 3.1622 0.89586 1.0846 180.34 1.5915 3.8935 0.0048586
-129.62 0.018392 9.4320e-08 -83.486 -83.486 -0.38763 674.02 0.0014836 -83.486 -83.486 -0.38763 1.3358 1.9944 1743.0 -0.0072425 769.63 0.18196 0.0046867 213.37 396.47 423.53 3.1450 0.89906 1.0878 180.91 1.5641 3.9210 0.0049223
-128.62 0.020935 9.4802e-08 -81.491 -81.490 -0.37378 673.01 0.0014859 -81.491 -81.490 -0.37378 1.3360 1.9961 1736.3 -0.0072294 751.83 0.18140 0.0052981 188.75 397.37 424.62 3.1281 0.90226 1.0910 181.48 1.5374 3.9485 0.0049863
-127.62 0.023783 9.3575e-08 -79.494 -79.493 -0.36001 672.00 0.0014881 -79.494 -79.493 -0.36001 1.3363 1.9979 1729.6 -0.0072160 734.67 0.18083 0.0059776 167.29 398.27 425.71 3.1116 0.90545 1.0942 182.05 1.5114 3.9760 0.0050506
-126.62 0.026966 9.0248e-08 -77.495 -77.495 -0.34632 670.98 0.0014904 -77.495 -77.495 -0.34632 1.3365 1.9997 1722.9 -0.0072025 718.14 0.18025 0.0067313 148.56 399.18 426.80 3.0954 0.90863 1.0974 182.62 1.4861 4.0035 0.0051152
-125.62 0.030515 8.4377e-08 -75.494 -75.494 -0.33272 669.97 0.0014926 -75.494 -75.494 -0.33272 1.3368 2.0015 1716.2 -0.0071888 702.18 0.17968 0.0075660 132.17 400.09 427.89 3.0795 0.91181 1.1006 183.18 1.4615 4.0310 0.0051800
-124.62 0.034467 7.5457e-08 -73.492 -73.491 -0.31919 668.95 0.0014949 -73.492 -73.492 -0.31919 1.3371 2.0033 1709.5 -0.0071749 686.79 0.17910 0.0084885 117.81 401.00 428.99 3.0640 0.91499 1.1038 183.74 1.4375 4.0584 0.0052452
-123.62 0.038859 6.2917e-08 -71.488 -71.487 -0.30574 667.94 0.0014971 -71.488 -71.487 -0.30574 1.3374 2.0051 1702.8 -0.0071609 671.93 0.17852 0.0095065 105.19 401.91 430.10 3.0488 0.91816 1.1070 184.30 1.4141 4.0859 0.0053106
-122.62 0.043731 4.6117e-08 -69.482 -69.481 -0.29237 666.92 0.0014994 -69.482 -69.481 -0.29237 1.3377 2.0070 1696.2 -0.0071466 657.57 0.17794 0.010628 94.092 402.83 431.20 3.0339 0.92134 1.1102 184.86 1.3913 4.1134 0.0053764
-121.62 0.049128 2.4336e-08 -67.474 -67.473 -0.27907 665.91 0.0015017 -67.474 -67.473 -0.27907 1.3380 2.0089 1689.5 -0.0071322 643.70 0.17736 0.011861 84.309 403.75 432.31 3.0193 0.92451 1.1134 185.41 1.3691 4.1409 0.0054424
-120.62 29.576 undefined -65.535 -65.229 -0.26632 665.00 0.0015038 -65.535 -65.229 -0.26632 1.3386 2.0105 1683.8 -0.0071197 631.31 0.17686 665.00 0.0015038 -65.535 -65.229 -0.26632 1.3386 2.0105 1683.8 -0.0071197 631.31 0.17686
-119.62 307.30 undefined -64.196 -61.009 -0.25757 665.00 0.0015038 -64.196 -61.009 -0.25757 1.3409 2.0099 1686.3 -0.0071248 627.79 0.17709 665.00 0.0015038 -64.196 -61.009 -0.25757 1.3409 2.0099 1686.3 -0.0071248 627.79 0.17709
-118.62 584.22 undefined -62.853 -56.796 -0.24885 665.00 0.0015038 -62.853 -56.796 -0.24885 1.3432 2.0094 1688.9 -0.0071296 624.33 0.17732 665.00 0.0015038 -62.853 -56.796 -0.24885 1.3432 2.0094 1688.9 -0.0071296 624.33 0.17732
-117.62 860.35 undefined -61.509 -52.589 -0.24018 665.00 0.0015038 -61.509 -52.589 -0.24018 1.3455 2.0089 1691.4 -0.0071343 620.93 0.17755 665.00 0.0015038 -61.509 -52.589 -0.24018 1.3455 2.0089 1691.4 -0.0071343 620.93 0.17755
-116.62 1135.7 undefined -60.162 -48.387 -0.23155 665.00 0.0015038 -60.162 -48.387 -0.23155 1.3478 2.0084 1693.9 -0.0071388 617.59 0.17778 665.00 0.0015038 -60.162 -48.387 -0.23155 1.3478 2.0084 1693.9 -0.0071388 617.59 0.17778
-115.62 1410.3 undefined -58.813 -44.192 -0.22296 665.00 0.0015038 -58.813 -44.192 -0.22296 1.3502 2.0080 1696.4 -0.0071432 614.30 0.17801 665.00 0.0015038 -58.813 -44.192 -0.22296 1.3502 2.0080 1696.4 -0.0071432 614.30 0.17801
-114.62 1684.1 undefined -57.462 -40.002 -0.21441 665.00 0.0015038 -57.462 -40.002 -0.21441 1.3525 2.0077 1698.9 -0.0071473 611.07 0.17824 665.00 0.0015038 -57.462 -40.002 -0.21441 1.3525 2.0077 1698.9 -0.0071473 611.07 0.17824
-113.62 1957.1 undefined -56.108 -35.817 -0.20589 665.00 0.0015038 -56.108 -35.817 -0.20589 1.3548 2.0073 1701.4 -0.0071513 607.89 0.17848 665.00 0.0015038 -56.108 -35.817 -0.20589 1.3548 2.0073 1701.4 -0.0071513 607.89 0.17848
-112.62 2229.4 undefined -54.752 -31.638 -0.19742 665.00 0.0015038 -54.752 -31.638 -0.19742 1.3572 2.0070 1703.9 -0.0071551 604.76 0.17871 665.00 0.0015038 -54.752 -31.638 -0.19742 1.3572 2.0070 1703.9 -0.0071551 604.76 0.17871
-111.62 2500.9 undefined -53.394 -27.464 -0.18898 665.00 0.0015038 -53.394 -27.464 -0.18898 1.3595 2.0068 1706.4 -0.0071587 601.68 0.17894 665.00 0.0015038 -53.394 -27.464 -0.18898 1.3595 2.0068 1706.4 -0.0071587 601.68 0.17894
-110.62 2771.7 undefined -52.033 -23.296 -0.18059 665.00 0.0015038 -52.033 -23.296 -0.18059 1.3619 2.0066 1708.8 -0.0071622 598.65 0.17917 665.00 0.0015038 -52.033 -23.296 -0.18059 1.3619 2.0066 1708.8 -0.0071622 598.65 0.17917
-109.62 3041.8 undefined -50.670 -19.133 -0.17223 665.00 0.0015038 -50.670 -19.133 -0.17223 1.3642 2.0064 1711.2 -0.0071654 595.67 0.17940 665.00 0.0015038 -50.670 -19.133 -0.17223 1.3642 2.0064 1711.2 -0.0071654 595.67 0.17940
-108.62 3311.1 undefined -49.305 -14.975 -0.16390 665.00 0.0015038 -49.305 -14.975 -0.16390 1.3666 2.0063 1713.6 -0.0071685 592.74 0.17964 665.00 0.0015038 -49.305 -14.975 -0.16390 1.3666 2.0063 1713.6 -0.0071685 592.74 0.17964
-107.62 3579.7 undefined -47.937 -10.822 -0.15561 665.00 0.0015038 -47.937 -10.822 -0.15561 1.3690 2.0062 1716.0 -0.0071715 589.86 0.17987 665.00 0.0015038 -47.937 -10.822 -0.15561 1.3690 2.0062 1716.0 -0.0071715 589.86 0.17987
-106.62 3847.6 undefined -46.567 -6.6745 -0.14736 665.00 0.0015038 -46.567 -6.6745 -0.14736 1.3714 2.0061 1718.4 -0.0071742 587.02 0.18010 665.00 0.0015038 -46.567 -6.6745 -0.14736 1.3714 2.0061 1718.4 -0.0071742 587.02 0.18010
-105.62 4114.8 undefined -45.194 -2.5317 -0.13914 665.00 0.0015038 -45.194 -2.5317 -0.13914 1.3738 2.0061 1720.8 -0.0071768 584.23 0.18034 665.00 0.0015038 -45.194 -2.5317 -0.13914 1.3738 2.0061 1720.8 -0.0071768 584.23 0.18034
-104.62 4381.3 undefined -43.819 1.6062 -0.13096 665.00 0.0015038 -43.819 1.6062 -0.13096 1.3762 2.0061 1723.2 -0.0071793 581.48 0.18057 665.00 0.0015038 -43.819 1.6062 -0.13096 1.3762 2.0061 1723.2 -0.0071793 581.48 0.18057
-103.62 4647.1 undefined -42.442 5.7393 -0.12281 665.00 0.0015038 -42.442 5.7393 -0.12281 1.3786 2.0061 1725.5 -0.0071815 578.78 0.18080 665.00 0.0015038 -42.442 5.7393 -0.12281 1.3786 2.0061 1725.5 -0.0071815 578.78 0.18080
-102.62 4912.2 undefined -41.062 9.8676 -0.11469 665.00 0.0015038 -41.062 9.8676 -0.11469 1.3810 2.0062 1727.9 -0.0071836 576.12 0.18104 665.00 0.0015038 -41.062 9.8676 -0.11469 1.3810 2.0062 1727.9 -0.0071836 576.12 0.18104
-101.62 5176.6 undefined -39.680 13.991 -0.10661 665.00 0.0015038 -39.680 13.991 -0.10661 1.3835 2.0063 1730.2 -0.0071855 573.50 0.18127 665.00 0.0015038 -39.680 13.991 -0.10661 1.3835 2.0063 1730.2 -0.0071855 573.50 0.18127
-100.62 5440.3 undefined -38.295 18.110 -0.098563 665.00 0.0015038 -38.295 18.110 -0.098563 1.3859 2.0065 1732.5 -0.0071873 570.92 0.18151 665.00 0.0015038 -38.295 18.110 -0.098563 1.3859 2.0065 1732.5 -0.0071873 570.92 0.18151
-99.625 5703.4 undefined -36.908 22.225 -0.090546 665.00 0.0015038 -36.908 22.225 -0.090546 1.3884 2.0067 1734.8 -0.0071889 568.38 0.18174 665.00 0.0015038 -36.908 22.225 -0.090546 1.3884 2.0067 1734.8 -0.0071889 568.38 0.18174
-98.625 5965.8 undefined -35.519 26.335 -0.082561 665.00 0.0015038 -35.519 26.335 -0.082561 1.3908 2.0069 1737.1 -0.0071903 565.88 0.18198 665.00 0.0015038 -35.519 26.335 -0.082561 1.3908 2.0069 1737.1 -0.0071903 565.88 0.18198
-97.625 6227.5 undefined -34.126 30.440 -0.074608 665.00 0.0015038 -34.126 30.440 -0.074608 1.3933 2.0072 1739.3 -0.0071916 563.42 0.18221 665.00 0.0015038 -34.126 30.440 -0.074608 1.3933 2.0072 1739.3 -0.0071916 563.42 0.18221
-96.625 6488.5 undefined -32.732 34.542 -0.066685 665.00 0.0015038 -32.732 34.542 -0.066685 1.3958 2.0075 1741.6 -0.0071927 561.00 0.18245 665.00 0.0015038 -32.732 34.542 -0.066685 1.3958 2.0075 1741.6 -0.0071927 561.00 0.18245
-95.625 6748.9 undefined -31.335 38.639 -0.058793 665.00 0.0015038 -31.335 38.639 -0.058793 1.3983 2.0079 1743.8 -0.0071937 558.61 0.18269 665.00 0.0015038 -31.335 38.639 -0.058793 1.3983 2.0079 1743.8 -0.0071937 558.61 0.18269
-94.625 7008.7 undefined -29.935 42.731 -0.050931 665.00 0.0015038 -29.935 42.731 -0.050931 1.4008 2.0082 1746.0 -0.0071945 556.26 0.18292 665.00 0.0015038 -29.935 42.731 -0.050931 1.4008 2.0082 1746.0 -0.0071945 556.26 0.18292
-93.625 7267.8 undefined -28.533 46.820 -0.043099 665.00 0.0015038 -28.533 46.820 -0.043099 1.4034 2.0087 1748.2 -0.0071951 553.95 0.18316 665.00 0.0015038 -28.533 46.820 -0.043099 1.4034 2.0087 1748.2 -0.0071951 553.95 0.18316
-92.625 7526.3 undefined -27.128 50.905 -0.035297 665.00 0.0015038 -27.128 50.905 -0.035297 1.4059 2.0091 1750.4 -0.0071956 551.67 0.18340 665.00 0.0015038 -27.128 50.905 -0.035297 1.4059 2.0091 1750.4 -0.0071956 551.67 0.18340
-91.625 7784.1 undefined -25.721 54.985 -0.027523 665.00 0.0015038 -25.721 54.985 -0.027523 1.4085 2.0096 1752.6 -0.0071959 549.43 0.18364 665.00 0.0015038 -25.721 54.985 -0.027523 1.4085 2.0096 1752.6 -0.0071959 549.43 0.18364
-90.625 8041.3 undefined -24.311 59.062 -0.019778 665.00 0.0015038 -24.311 59.062 -0.019778 1.4111 2.0101 1754.8 -0.0071961 547.22 0.18387 665.00 0.0015038 -24.311 59.062 -0.019778 1.4111 2.0101 1754.8 -0.0071961 547.22 0.18387
-89.625 8297.9 undefined -22.899 63.134 -0.012062 665.00 0.0015038 -22.899 63.134 -0.012062 1.4136 2.0107 1756.9 -0.0071961 545.05 0.18411 665.00 0.0015038 -22.899 63.134 -0.012062 1.4136 2.0107 1756.9 -0.0071961 545.05 0.18411
-88.625 8553.9 undefined -21.484 67.203 -0.0043726 665.00 0.0015038 -21.484 67.203 -0.0043726 1.4162 2.0113 1759.1 -0.0071960 542.90 0.18435 665.00 0.0015038 -21.484 67.203 -0.0043726 1.4162 2.0113 1759.1 -0.0071960 542.90 0.18435
-87.625 8809.3 undefined -20.067 71.268 0.0032888 665.00 0.0015038 -20.067 71.268 0.0032888 1.4189 2.0119 1761.2 -0.0071957 540.79 0.18459 665.00 0.0015038 -20.067 71.268 0.0032888 1.4189 2.0119 1761.2 -0.0071957 540.79 0.18459
-86.625 9064.0 undefined -18.646 75.330 0.010923 665.00 0.0015038 -18.646 75.330 0.010923 1.4215 2.0126 1763.3 -0.0071953 538.71 0.18483 665.00 0.0015038 -18.646 75.330 0.010923 1.4215 2.0126 1763.3 -0.0071953 538.71 0.18483
-85.625 9318.1 undefined -17.224 79.387 0.018531 665.00 0.0015038 -17.224 79.387 0.018531 1.4241 2.0133 1765.4 -0.0071947 536.66 0.18507 665.00 0.0015038 -17.224 79.387 0.018531 1.4241 2.0133 1765.4 -0.0071947 536.66 0.18507
-84.625 9571.7 undefined -15.798 83.442 0.026112 665.00 0.0015038 -15.798 83.442 0.026112 1.4268 2.0140 1767.5 -0.0071940 534.65 0.18531 665.00 0.0015038 -15.798 83.442 0.026112 1.4268 2.0140 1767.5 -0.0071940 534.65 0.18531
-83.625 9824.6 undefined -14.370 87.492 0.033667 665.00 0.0015038 -14.370 87.492 0.033667 1.4295 2.0148 1769.6 -0.0071931 532.66 0.18555 665.00 0.0015038 -14.370 87.492 0.033667 1.4295 2.0148 1769.6 -0.0071931 532.66 0.18555
-82.625 10077. undefined -12.939 91.539 0.041197 665.00 0.0015038 -12.939 91.539 0.041197 1.4321 2.0156 1771.6 -0.0071921 530.70 0.18579 665.00 0.0015038 -12.939 91.539 0.041197 1.4321 2.0156 1771.6 -0.0071921 530.70 0.18579
-81.625 10329. undefined -11.506 95.583 0.048701 665.00 0.0015038 -11.506 95.583 0.048701 1.4348 2.0164 1773.7 -0.0071910 528.77 0.18603 665.00 0.0015038 -11.506 95.583 0.048701 1.4348 2.0164 1773.7 -0.0071910 528.77 0.18603
-80.625 10580. undefined -10.070 99.623 0.056180 665.00 0.0015038 -10.070 99.623 0.056180 1.4376 2.0173 1775.7 -0.0071897 526.86 0.18627 665.00 0.0015038 -10.070 99.623 0.056180 1.4376 2.0173 1775.7 -0.0071897 526.86 0.18627
-79.625 10830. undefined -8.6306 103.66 0.063635 665.00 0.0015038 -8.6306 103.66 0.063635 1.4403 2.0182 1777.7 -0.0071882 524.99 0.18651 665.00 0.0015038 -8.6306 103.66 0.063635 1.4403 2.0182 1777.7 -0.0071882 524.99 0.18651
-78.625 11080. undefined -7.1890 107.69 0.071065 665.00 0.0015038 -7.1890 107.69 0.071065 1.4430 2.0191 1779.8 -0.0071867 523.14 0.18675 665.00 0.0015038 -7.1890 107.69 0.071065 1.4430 2.0191 1779.8 -0.0071867 523.14 0.18675
-77.625 11330. undefined -5.7445 111.72 0.078472 665.00 0.0015038 -5.7445 111.72 0.078472 1.4458 2.0200 1781.7 -0.0071849 521.32 0.18699 665.00 0.0015038 -5.7445 111.72 0.078472 1.4458 2.0200 1781.7 -0.0071849 521.32 0.18699
-76.625 11579. undefined -4.2973 115.75 0.085854 665.00 0.0015038 -4.2973 115.75 0.085854 1.4486 2.0210 1783.7 -0.0071831 519.52 0.18724 665.00 0.0015038 -4.2973 115.75 0.085854 1.4486 2.0210 1783.7 -0.0071831 519.52 0.18724
-75.625 11827. undefined -2.8474 119.78 0.093214 665.00 0.0015038 -2.8474 119.78 0.093214 1.4514 2.0221 1785.7 -0.0071811 517.75 0.18748 665.00 0.0015038 -2.8474 119.78 0.093214 1.4514 2.0221 1785.7 -0.0071811 517.75 0.18748
-74.625 12075. undefined -1.3946 123.80 0.10055 665.00 0.0015038 -1.3946 123.80 0.10055 1.4542 2.0231 1787.7 -0.0071790 516.00 0.18772 665.00 0.0015038 -1.3946 123.80 0.10055 1.4542 2.0231 1787.7 -0.0071790 516.00 0.18772
-73.625 12322. undefined 0.061016 127.82 0.10786 665.00 0.0015038 0.061016 127.82 0.10786 1.4570 2.0242 1789.6 -0.0071767 514.28 0.18796 665.00 0.0015038 0.061016 127.82 0.10786 1.4570 2.0242 1789.6 -0.0071767 514.28 0.18796
-72.625 12569. undefined 1.5194 131.83 0.11515 665.00 0.0015038 1.5194 131.83 0.11515 1.4599 2.0254 1791.5 -0.0071744 512.58 0.18821 665.00 0.0015038 1.5194 131.83 0.11515 1.4599 2.0254 1791.5 -0.0071744 512.58 0.18821
-71.625 12815. undefined 2.9807 135.84 0.12242 665.00 0.0015038 2.9807 135.84 0.12242 1.4627 2.0265 1793.4 -0.0071719 510.91 0.18845 665.00 0.0015038 2.9807 135.84 0.12242 1.4627 2.0265 1793.4 -0.0071719 510.91 0.18845
-70.625 13060. undefined 4.4449 139.85 0.12967 665.00 0.0015038 4.4449 139.85 0.12967 1.4656 2.0277 1795.3 -0.0071692 509.26 0.18869 665.00 0.0015038 4.4449 139.85 0.12967 1.4656 2.0277 1795.3 -0.0071692 509.26 0.18869
-69.625 13305. undefined 5.9119 143.86 0.13690 665.00 0.0015038 5.9119 143.86 0.13690 1.4685 2.0289 1797.2 -0.0071664 507.64 0.18894 665.00 0.0015038 5.9119 143.86 0.13690 1.4685 2.0289 1797.2 -0.0071664 507.64 0.18894
-68.625 13550. undefined 7.3818 147.87 0.14410 665.00 0.0015038 7.3818 147.87 0.14410 1.4714 2.0302 1799.1 -0.0071635 506.03 0.18918 665.00 0.0015038 7.3818 147.87 0.14410 1.4714 2.0302 1799.1 -0.0071635 506.03 0.18918
-67.625 13794. undefined 8.8547 151.87 0.15129 665.00 0.0015038 8.8547 151.87 0.15129 1.4743 2.0315 1801.0 -0.0071605 504.45 0.18943 665.00 0.0015038 8.8547 151.87 0.15129 1.4743 2.0315 1801.0 -0.0071605 504.45 0.18943
-66.625 14037. undefined 10.330 155.87 0.15845 665.00 0.0015038 10.330 155.87 0.15845 1.4773 2.0328 1802.8 -0.0071574 502.89 0.18967 665.00 0.0015038 10.330 155.87 0.15845 1.4773 2.0328 1802.8 -0.0071574 502.89 0.18967
-65.625 14280. undefined 11.809 159.86 0.16559 665.00 0.0015038 11.809 159.86 0.16559 1.4802 2.0341 1804.7 -0.0071541 501.35 0.18992 665.00 0.0015038 11.809 159.86 0.16559 1.4802 2.0341 1804.7 -0.0071541 501.35 0.18992
-64.625 14522. undefined 13.291 163.86 0.17271 665.00 0.0015038 13.291 163.86 0.17271 1.4832 2.0355 1806.5 -0.0071507 499.83 0.19016 665.00 0.0015038 13.291 163.86 0.17271 1.4832 2.0355 1806.5 -0.0071507 499.83 0.19016
-63.625 14764. undefined 14.776 167.85 0.17982 665.00 0.0015038 14.776 167.85 0.17982 1.4862 2.0369 1808.3 -0.0071472 498.33 0.19041 665.00 0.0015038 14.776 167.85 0.17982 1.4862 2.0369 1808.3 -0.0071472 498.33 0.19041
-62.625 15005. undefined 16.263 171.84 0.18690 665.00 0.0015038 16.263 171.84 0.18690 1.4892 2.0384 1810.2 -0.0071436 496.86 0.19065 665.00 0.0015038 16.263 171.84 0.18690 1.4892 2.0384 1810.2 -0.0071436 496.86 0.19065
-61.625 15246. undefined 17.754 175.83 0.19396 665.00 0.0015038 17.754 175.83 0.19396 1.4922 2.0398 1812.0 -0.0071399 495.40 0.19090 665.00 0.0015038 17.754 175.83 0.19396 1.4922 2.0398 1812.0 -0.0071399 495.40 0.19090
-60.625 15486. undefined 19.248 179.81 0.20101 665.00 0.0015038 19.248 179.81 0.20101 1.4953 2.0413 1813.7 -0.0071360 493.96 0.19115 665.00 0.0015038 19.248 179.81 0.20101 1.4953 2.0413 1813.7 -0.0071360 493.96 0.19115
-59.625 15726. undefined 20.744 183.79 0.20804 665.00 0.0015038 20.744 183.79 0.20804 1.4983 2.0428 1815.5 -0.0071320 492.54 0.19140 665.00 0.0015038 20.744 183.79 0.20804 1.4983 2.0428 1815.5 -0.0071320 492.54 0.19140
-58.625 15965. undefined 22.244 187.77 0.21504 665.00 0.0015038 22.244 187.77 0.21504 1.5014 2.0444 1817.3 -0.0071279 491.14 0.19164 665.00 0.0015038 22.244 187.77 0.21504 1.5014 2.0444 1817.3 -0.0071279 491.14 0.19164
-57.625 16204. undefined 23.747 191.75 0.22203 665.00 0.0015038 23.747 191.75 0.22203 1.5045 2.0460 1819.0 -0.0071237 489.76 0.19189 665.00 0.0015038 23.747 191.75 0.22203 1.5045 2.0460 1819.0 -0.0071237 489.76 0.19189
-56.625 16442. undefined 25.253 195.73 0.22900 665.00 0.0015038 25.253 195.73 0.22900 1.5076 2.0476 1820.8 -0.0071194 488.40 0.19214 665.00 0.0015038 25.253 195.73 0.22900 1.5076 2.0476 1820.8 -0.0071194 488.40 0.19214
-55.625 16680. undefined 26.762 199.70 0.23596 665.00 0.0015038 26.762 199.70 0.23596 1.5107 2.0493 1822.5 -0.0071150 487.06 0.19239 665.00 0.0015038 26.762 199.70 0.23596 1.5107 2.0493 1822.5 -0.0071150 487.06 0.19239
-54.625 16917. undefined 28.275 203.67 0.24290 665.00 0.0015038 28.275 203.67 0.24290 1.5139 2.0509 1824.2 -0.0071104 485.73 0.19263 665.00 0.0015038 28.275 203.67 0.24290 1.5139 2.0509 1824.2 -0.0071104 485.73 0.19263
-53.625 17154. undefined 29.790 207.64 0.24981 665.00 0.0015038 29.790 207.64 0.24981 1.5170 2.0526 1825.9 -0.0071058 484.42 0.19288 665.00 0.0015038 29.790 207.64 0.24981 1.5170 2.0526 1825.9 -0.0071058 484.42 0.19288
-52.625 17390. undefined 31.309 211.61 0.25672 665.00 0.0015038 31.309 211.61 0.25672 1.5202 2.0544 1827.6 -0.0071011 483.13 0.19313 665.00 0.0015038 31.309 211.61 0.25672 1.5202 2.0544 1827.6 -0.0071011 483.13 0.19313
-51.625 17626. undefined 32.831 215.58 0.26360 665.00 0.0015038 32.831 215.58 0.26360 1.5234 2.0561 1829.3 -0.0070962 481.85 0.19338 665.00 0.0015038 32.831 215.58 0.26360 1.5234 2.0561 1829.3 -0.0070962 481.85 0.19338
-50.625 17861. undefined 34.356 219.54 0.27047 665.00 0.0015038 34.356 219.54 0.27047 1.5266 2.0579 1831.0 -0.0070913 480.59 0.19363 665.00 0.0015038 34.356 219.54 0.27047 1.5266 2.0579 1831.0 -0.0070913 480.59 0.19363
-49.625 18096. undefined 35.884 223.50 0.27732 665.00 0.0015038 35.884 223.50 0.27732 1.5298 2.0598 1832.7 -0.0070862 479.35 0.19388 665.00 0.0015038 35.884 223.50 0.27732 1.5298 2.0598 1832.7 -0.0070862 479.35 0.19388
-48.625 18330. undefined 37.415 227.46 0.28416 665.00 0.0015038 37.415 227.46 0.28416 1.5331 2.0616 1834.3 -0.0070810 478.12 0.19413 665.00 0.0015038 37.415 227.46 0.28416 1.5331 2.0616 1834.3 -0.0070810 478.12 0.19413
-47.625 18564. undefined 38.950 231.42 0.29098 665.00 0.0015038 38.950 231.42 0.29098 1.5363 2.0635 1836.0 -0.0070758 476.91 0.19438 665.00 0.0015038 38.950 231.42 0.29098 1.5363 2.0635 1836.0 -0.0070758 476.91 0.19438
-46.625 18797. undefined 40.488 235.38 0.29778 665.00 0.0015038 40.488 235.38 0.29778 1.5396 2.0654 1837.6 -0.0070704 475.71 0.19463 665.00 0.0015038 40.488 235.38 0.29778 1.5396 2.0654 1837.6 -0.0070704 475.71 0.19463
-45.625 19030. undefined 42.029 239.34 0.30457 665.00 0.0015038 42.029 239.34 0.30457 1.5429 2.0673 1839.2 -0.0070650 474.53 0.19488 665.00 0.0015038 42.029 239.34 0.30457 1.5429 2.0673 1839.2 -0.0070650 474.53 0.19488
-44.625 19263. undefined 43.574 243.29 0.31135 665.00 0.0015038 43.574 243.29 0.31135 1.5462 2.0693 1840.9 -0.0070594 473.37 0.19513 665.00 0.0015038 43.574 243.29 0.31135 1.5462 2.0693 1840.9 -0.0070594 473.37 0.19513
-43.625 19495. undefined 45.122 247.24 0.31810 665.00 0.0015038 45.122 247.24 0.31810 1.5496 2.0712 1842.5 -0.0070538 472.21 0.19539 665.00 0.0015038 45.122 247.24 0.31810 1.5496 2.0712 1842.5 -0.0070538 472.21 0.19539
-42.625 19726. undefined 46.673 251.20 0.32485 665.00 0.0015038 46.673 251.20 0.32485 1.5529 2.0733 1844.1 -0.0070481 471.08 0.19564 665.00 0.0015038 46.673 251.20 0.32485 1.5529 2.0733 1844.1 -0.0070481 471.08 0.19564
-41.625 19957. undefined 48.227 255.15 0.33158 665.00 0.0015038 48.227 255.15 0.33158 1.5563 2.0753 1845.7 -0.0070422 469.95 0.19589 665.00 0.0015038 48.227 255.15 0.33158 1.5563 2.0753 1845.7 -0.0070422 469.95 0.19589
-40.625 20188. undefined 49.785 259.09 0.33829 665.00 0.0015038 49.785 259.09 0.33829 1.5596 2.0774 1847.3 -0.0070363 468.85 0.19614 665.00 0.0015038 49.785 259.09 0.33829 1.5596 2.0774 1847.3 -0.0070363 468.85 0.19614
-39.625 20418. undefined 51.347 263.04 0.34499 665.00 0.0015038 51.347 263.04 0.34499 1.5630 2.0795 1848.8 -0.0070303 467.75 0.19640 665.00 0.0015038 51.347 263.04 0.34499 1.5630 2.0795 1848.8 -0.0070303 467.75 0.19640
-38.625 20648. undefined 52.911 266.99 0.35168 665.00 0.0015038 52.911 266.99 0.35168 1.5664 2.0816 1850.4 -0.0070242 466.67 0.19665 665.00 0.0015038 52.911 266.99 0.35168 1.5664 2.0816 1850.4 -0.0070242 466.67 0.19665
-37.625 20877. undefined 54.480 270.93 0.35835 665.00 0.0015038 54.480 270.93 0.35835 1.5699 2.0837 1852.0 -0.0070180 465.60 0.19690 665.00 0.0015038 54.480 270.93 0.35835 1.5699 2.0837 1852.0 -0.0070180 465.60 0.19690
-36.625 21106. undefined 56.051 274.88 0.36501 665.00 0.0015038 56.051 274.88 0.36501 1.5733 2.0859 1853.5 -0.0070118 464.55 0.19716 665.00 0.0015038 56.051 274.88 0.36501 1.5733 2.0859 1853.5 -0.0070118 464.55 0.19716
-35.625 21334. undefined 57.626 278.82 0.37165 665.00 0.0015038 57.626 278.82 0.37165 1.5768 2.0881 1855.0 -0.0070054 463.50 0.19741 665.00 0.0015038 57.626 278.82 0.37165 1.5768 2.0881 1855.0 -0.0070054 463.50 0.19741
-34.625 21562. undefined 59.205 282.76 0.37829 665.00 0.0015038 59.205 282.76 0.37829 1.5802 2.0903 1856.6 -0.0069990 462.47 0.19766 665.00 0.0015038 59.205 282.76 0.37829 1.5802 2.0903 1856.6 -0.0069990 462.47 0.19766
-33.625 21789. undefined 60.787 286.70 0.38490 665.00 0.0015038 60.787 286.70 0.38490 1.5837 2.0925 1858.1 -0.0069925 461.46 0.19792 665.00 0.0015038 60.787 286.70 0.38490 1.5837 2.0925 1858.1 -0.0069925 461.46 0.19792
-32.625 22016. undefined 62.372 290.64 0.39151 665.00 0.0015038 62.372 290.64 0.39151 1.5872 2.0948 1859.6 -0.0069859 460.45 0.19817 665.00 0.0015038 62.372 290.64 0.39151 1.5872 2.0948 1859.6 -0.0069859 460.45 0.19817
-31.625 22243. undefined 63.961 294.58 0.39810 665.00 0.0015038 63.961 294.58 0.39810 1.5907 2.0971 1861.1 -0.0069792 459.46 0.19843 665.00 0.0015038 63.961 294.58 0.39810 1.5907 2.0971 1861.1 -0.0069792 459.46 0.19843
-30.625 22469. undefined 65.554 298.52 0.40468 665.00 0.0015038 65.554 298.52 0.40468 1.5943 2.0994 1862.6 -0.0069725 458.48 0.19868 665.00 0.0015038 65.554 298.52 0.40468 1.5943 2.0994 1862.6 -0.0069725 458.48 0.19868
-29.625 22695. undefined 67.150 302.45 0.41125 665.00 0.0015038 67.150 302.45 0.41125 1.5978 2.1017 1864.1 -0.0069657 457.51 0.19894 665.00 0.0015038 67.150 302.45 0.41125 1.5978 2.1017 1864.1 -0.0069657 457.51 0.19894
-28.625 22920. undefined 68.749 306.39 0.41780 665.00 0.0015038 68.749 306.39 0.41780 1.6014 2.1041 1865.6 -0.0069588 456.55 0.19920 665.00 0.0015038 68.749 306.39 0.41780 1.6014 2.1041 1865.6 -0.0069588 456.55 0.19920
-27.625 23145. undefined 70.352 310.32 0.42435 665.00 0.0015038 70.352 310.32 0.42435 1.6049 2.1065 1867.1 -0.0069518 455.61 0.19945 665.00 0.0015038 70.352 310.32 0.42435 1.6049 2.1065 1867.1 -0.0069518 455.61 0.19945
-26.625 23370. undefined 71.959 314.26 0.43088 665.00 0.0015038 71.959 314.26 0.43088 1.6085 2.1089 1868.6 -0.0069448 454.67 0.19971 665.00 0.0015038 71.959 314.26 0.43088 1.6085 2.1089 1868.6 -0.0069448 454.67 0.19971
-25.625 23594. undefined 73.569 318.19 0.43740 665.00 0.0015038 73.569 318.19 0.43740 1.6121 2.1113 1870.0 -0.0069377 453.75 0.19997 665.00 0.0015038 73.569 318.19 0.43740 1.6121 2.1113 1870.0 -0.0069377 453.75 0.19997
-24.625 23817. undefined 75.183 322.12 0.44390 665.00 0.0015038 75.183 322.12 0.44390 1.6158 2.1138 1871.5 -0.0069305 452.84 0.20022 665.00 0.0015038 75.183 322.12 0.44390 1.6158 2.1138 1871.5 -0.0069305 452.84 0.20022
-23.625 24040. undefined 76.801 326.05 0.45040 665.00 0.0015038 76.801 326.05 0.45040 1.6194 2.1163 1872.9 -0.0069233 451.94 0.20048 665.00 0.0015038 76.801 326.05 0.45040 1.6194 2.1163 1872.9 -0.0069233 451.94 0.20048
-22.625 24263. undefined 78.422 329.98 0.45688 665.00 0.0015038 78.422 329.98 0.45688 1.6230 2.1188 1874.4 -0.0069160 451.04 0.20074 665.00 0.0015038 78.422 329.98 0.45688 1.6230 2.1188 1874.4 -0.0069160 451.04 0.20074
-21.625 24486. undefined 80.047 333.91 0.46336 665.00 0.0015038 80.047 333.91 0.46336 1.6267 2.1213 1875.8 -0.0069086 450.16 0.20100 665.00 0.0015038 80.047 333.91 0.46336 1.6267 2.1213 1875.8 -0.0069086 450.16 0.20100
-20.625 24708. undefined 81.675 337.84 0.46982 665.00 0.0015038 81.675 337.84 0.46982 1.6304 2.1239 1877.3 -0.0069011 449.29 0.20126 665.00 0.0015038 81.675 337.84 0.46982 1.6304 2.1239 1877.3 -0.0069011 449.29 0.20126
-19.625 24929. undefined 83.308 341.77 0.47627 665.00 0.0015038 83.308 341.77 0.47627 1.6341 2.1264 1878.7 -0.0068936 448.43 0.20151 665.00 0.0015038 83.308 341.77 0.47627 1.6341 2.1264 1878.7 -0.0068936 448.43 0.20151
-18.625 25150. undefined 84.944 345.70 0.48271 665.00 0.0015038 84.944 345.70 0.48271 1.6378 2.1290 1880.1 -0.0068861 447.58 0.20177 665.00 0.0015038 84.944 345.70 0.48271 1.6378 2.1290 1880.1 -0.0068861 447.58 0.20177
-17.625 25371. undefined 86.583 349.63 0.48914 665.00 0.0015038 86.583 349.63 0.48914 1.6415 2.1316 1881.5 -0.0068785 446.74 0.20203 665.00 0.0015038 86.583 349.63 0.48914 1.6415 2.1316 1881.5 -0.0068785 446.74 0.20203
-16.625 25591. undefined 88.227 353.56 0.49556 665.00 0.0015038 88.227 353.56 0.49556 1.6452 2.1343 1882.9 -0.0068708 445.91 0.20229 665.00 0.0015038 88.227 353.56 0.49556 1.6452 2.1343 1882.9 -0.0068708 445.91 0.20229
-15.625 25811. undefined 89.874 357.49 0.50196 665.00 0.0015038 89.874 357.49 0.50196 1.6489 2.1369 1884.3 -0.0068631 445.09 0.20255 665.00 0.0015038 89.874 357.49 0.50196 1.6489 2.1369 1884.3 -0.0068631 445.09 0.20255
-14.625 26031. undefined 91.524 361.41 0.50836 665.00 0.0015038 91.524 361.41 0.50836 1.6527 2.1396 1885.7 -0.0068553 444.27 0.20281 665.00 0.0015038 91.524 361.41 0.50836 1.6527 2.1396 1885.7 -0.0068553 444.27 0.20281
-13.625 26250. undefined 93.179 365.34 0.51475 665.00 0.0015038 93.179 365.34 0.51475 1.6565 2.1423 1887.1 -0.0068474 443.47 0.20307 665.00 0.0015038 93.179 365.34 0.51475 1.6565 2.1423 1887.1 -0.0068474 443.47 0.20307
-12.625 26469. undefined 94.837 369.27 0.52113 665.00 0.0015038 94.837 369.27 0.52113 1.6602 2.1450 1888.5 -0.0068395 442.68 0.20333 665.00 0.0015038 94.837 369.27 0.52113 1.6602 2.1450 1888.5 -0.0068395 442.68 0.20333
-11.625 26687. undefined 96.499 373.19 0.52750 665.00 0.0015038 96.499 373.19 0.52750 1.6640 2.1477 1889.9 -0.0068316 441.89 0.20359 665.00 0.0015038 96.499 373.19 0.52750 1.6640 2.1477 1889.9 -0.0068316 441.89 0.20359
-10.625 26905. undefined 98.165 377.12 0.53385 665.00 0.0015038 98.165 377.12 0.53385 1.6678 2.1505 1891.2 -0.0068236 441.12 0.20386 665.00 0.0015038 98.165 377.12 0.53385 1.6678 2.1505 1891.2 -0.0068236 441.12 0.20386
-9.6250 27123. undefined 99.835 381.05 0.54020 665.00 0.0015038 99.835 381.05 0.54020 1.6716 2.1532 1892.6 -0.0068156 440.35 0.20412 665.00 0.0015038 99.835 381.05 0.54020 1.6716 2.1532 1892.6 -0.0068156 440.35 0.20412
-8.6250 27340. undefined 101.51 384.97 0.54654 665.00 0.0015038 101.51 384.97 0.54654 1.6755 2.1560 1894.0 -0.0068075 439.59 0.20438 665.00 0.0015038 101.51 384.97 0.54654 1.6755 2.1560 1894.0 -0.0068075 439.59 0.20438
-7.6250 27557. undefined 103.19 388.90 0.55287 665.00 0.0015038 103.19 388.90 0.55287 1.6793 2.1588 1895.3 -0.0067993 438.84 0.20464 665.00 0.0015038 103.19 388.90 0.55287 1.6793 2.1588 1895.3 -0.0067993 438.84 0.20464
-6.6250 27773. undefined 104.87 392.82 0.55919 665.00 0.0015038 104.87 392.82 0.55919 1.6831 2.1617 1896.7 -0.0067911 438.09 0.20490 665.00 0.0015038 104.87 392.82 0.55919 1.6831 2.1617 1896.7 -0.0067911 438.09 0.20490
-5.6250 27990. undefined 106.55 396.75 0.56550 665.00 0.0015038 106.55 396.75 0.56550 1.6870 2.1645 1898.0 -0.0067829 437.36 0.20517 665.00 0.0015038 106.55 396.75 0.56550 1.6870 2.1645 1898.0 -0.0067829 437.36 0.20517
-4.6250 28205. undefined 108.24 400.67 0.57180 665.00 0.0015038 108.24 400.67 0.57180 1.6909 2.1674 1899.3 -0.0067746 436.63 0.20543 665.00 0.0015038 108.24 400.67 0.57180 1.6909 2.1674 1899.3 -0.0067746 436.63 0.20543
-3.6250 28421. undefined 109.93 404.60 0.57809 665.00 0.0015038 109.93 404.60 0.57809 1.6947 2.1703 1900.7 -0.0067663 435.92 0.20569 665.00 0.0015038 109.93 404.60 0.57809 1.6947 2.1703 1900.7 -0.0067663 435.92 0.20569
-2.6250 28636. undefined 111.63 408.53 0.58438 665.00 0.0015038 111.63 408.53 0.58438 1.6986 2.1732 1902.0 -0.0067580 435.21 0.20596 665.00 0.0015038 111.63 408.53 0.58438 1.6986 2.1732 1902.0 -0.0067580 435.21 0.20596
-1.6250 28850. undefined 113.33 412.45 0.59065 665.00 0.0015038 113.33 412.45 0.59065 1.7025 2.1761 1903.3 -0.0067496 434.50 0.20622 665.00 0.0015038 113.33 412.45 0.59065 1.7025 2.1761 1903.3 -0.0067496 434.50 0.20622
-0.62500 29064. undefined 115.04 416.38 0.59692 665.00 0.0015038 115.04 416.38 0.59692 1.7064 2.1790 1904.6 -0.0067411 433.81 0.20648 665.00 0.0015038 115.04 416.38 0.59692 1.7064 2.1790 1904.6 -0.0067411 433.81 0.20648
0.37500 29278. undefined 116.74 420.30 0.60317 665.00 0.0015038 116.74 420.30 0.60317 1.7104 2.1820 1906.0 -0.0067327 433.12 0.20675 665.00 0.0015038 116.74 420.30 0.60317 1.7104 2.1820 1906.0 -0.0067327 433.12 0.20675
1.3750 29492. undefined 118.46 424.23 0.60942 665.00 0.0015038 118.46 424.23 0.60942 1.7143 2.1849 1907.3 -0.0067242 432.44 0.20701 665.00 0.0015038 118.46 424.23 0.60942 1.7143 2.1849 1907.3 -0.0067242 432.44 0.20701
2.3750 29705. undefined 120.17 428.16 0.61566 665.00 0.0015038 120.17 428.16 0.61566 1.7182 2.1879 1908.6 -0.0067156 431.77 0.20728 665.00 0.0015038 120.17 428.16 0.61566 1.7182 2.1879 1908.6 -0.0067156 431.77 0.20728
3.3750 29918. undefined 121.89 432.08 0.62190 665.00 0.0015038 121.89 432.08 0.62190 1.7222 2.1909 1909.9 -0.0067070 431.10 0.20754 665.00 0.0015038 121.89 432.08 0.62190 1.7222 2.1909 1909.9 -0.0067070 431.10 0.20754
4.3750 30130. undefined 123.62 436.01 0.62812 665.00 0.0015038 123.62 436.01 0.62812 1.7261 2.1939 1911.2 -0.0066984 430.45 0.20781 665.00 0.0015038 123.62 436.01 0.62812 1.7261 2.1939 1911.2 -0.0066984 430.45 0.20781
5.3750 30342. undefined 125.35 439.94 0.63434 665.00 0.0015038 125.35 439.94 0.63434 1.7301 2.1970 1912.5 -0.0066898 429.79 0.20808 665.00 0.0015038 125.35 439.94 0.63434 1.7301 2.1970 1912.5 -0.0066898 429.79 0.20808
6.3750 30554. undefined 127.08 443.86 0.64054 665.00 0.0015038 127.08 443.86 0.64054 1.7341 2.2000 1913.7 -0.0066811 429.15 0.20834 665.00 0.0015038 127.08 443.86 0.64054 1.7341 2.2000 1913.7 -0.0066811 429.15 0.20834
7.3750 30766. undefined 128.81 447.79 0.64674 665.00 0.0015038 128.81 447.79 0.64674 1.7381 2.2031 1915.0 -0.0066724 428.51 0.20861 665.00 0.0015038 128.81 447.79 0.64674 1.7381 2.2031 1915.0 -0.0066724 428.51 0.20861
8.3750 30977. undefined 130.55 451.72 0.65293 665.00 0.0015038 130.55 451.72 0.65293 1.7421 2.2062 1916.3 -0.0066637 427.88 0.20888 665.00 0.0015038 130.55 451.72 0.65293 1.7421 2.2062 1916.3 -0.0066637 427.88 0.20888
9.3750 31187. undefined 132.30 455.65 0.65912 665.00 0.0015038 132.30 455.65 0.65912 1.7461 2.2092 1917.6 -0.0066549 427.26 0.20914 665.00 0.0015038 132.30 455.65 0.65912 1.7461 2.2092 1917.6 -0.0066549 427.26 0.20914
10.375 31398. undefined 134.05 459.58 0.66530 665.00 0.0015038 134.05 459.58 0.66530 1.7501 2.2124 1918.9 -0.0066461 426.64 0.20941 665.00 0.0015038 134.05 459.58 0.66530 1.7501 2.2124 1918.9 -0.0066461 426.64 0.20941
11.375 31608. undefined 135.80 463.51 0.67146 665.00 0.0015038 135.80 463.51 0.67146 1.7541 2.2155 1920.1 -0.0066373 426.03 0.20968 665.00 0.0015038 135.80 463.51 0.67146 1.7541 2.2155 1920.1 -0.0066373 426.03 0.20968
12.375 31817. undefined 137.55 467.44 0.67763 665.00 0.0015038 137.55 467.44 0.67763 1.7581 2.2186 1921.4 -0.0066285 425.43 0.20995 665.00 0.0015038 137.55 467.44 0.67763 1.7581 2.2186 1921.4 -0.0066285 425.43 0.20995
13.375 32027. undefined 139.31 471.37 0.68378 665.00 0.0015038 139.31 471.37 0.68378 1.7622 2.2218 1922.6 -0.0066196 424.83 0.21021 665.00 0.0015038 139.31 471.37 0.68378 1.7622 2.2218 1922.6 -0.0066196 424.83 0.21021
14.375 32236. undefined 141.08 475.30 0.68993 665.00 0.0015038 141.08 475.30 0.68993 1.7662 2.2249 1923.9 -0.0066107 424.24 0.21048 665.00 0.0015038 141.08 475.30 0.68993 1.7662 2.2249 1923.9 -0.0066107 424.24 0.21048
15.375 32444. undefined 142.85 479.23 0.69606 665.00 0.0015038 142.85 479.23 0.69606 1.7703 2.2281 1925.2 -0.0066018 423.65 0.21075 665.00 0.0015038 142.85 479.23 0.69606 1.7703 2.2281 1925.2 -0.0066018 423.65 0.21075
16.375 32653. undefined 144.62 483.16 0.70220 665.00 0.0015038 144.62 483.16 0.70220 1.7743 2.2313 1926.4 -0.0065929 423.07 0.21102 665.00 0.0015038 144.62 483.16 0.70220 1.7743 2.2313 1926.4 -0.0065929 423.07 0.21102
17.375 32861. undefined 146.40 487.10 0.70832 665.00 0.0015038 146.40 487.10 0.70832 1.7784 2.2345 1927.6 -0.0065840 422.50 0.21129 665.00 0.0015038 146.40 487.10 0.70832 1.7784 2.2345 1927.6 -0.0065840 422.50 0.21129
18.375 33068. undefined 148.18 491.03 0.71444 665.00 0.0015038 148.18 491.03 0.71444 1.7825 2.2377 1928.9 -0.0065750 421.93 0.21156 665.00 0.0015038 148.18 491.03 0.71444 1.7825 2.2377 1928.9 -0.0065750 421.93 0.21156
19.375 33276. undefined 149.96 494.96 0.72055 665.00 0.0015038 149.96 494.96 0.72055 1.7866 2.2410 1930.1 -0.0065660 421.37 0.21183 665.00 0.0015038 149.96 494.96 0.72055 1.7866 2.2410 1930.1 -0.0065660 421.37 0.21183
20.375 33483. undefined 151.75 498.90 0.72665 665.00 0.0015038 151.75 498.90 0.72665 1.7906 2.2442 1931.4 -0.0065570 420.81 0.21210 665.00 0.0015038 151.75 498.90 0.72665 1.7906 2.2442 1931.4 -0.0065570 420.81 0.21210
21.375 33689. undefined 153.54 502.83 0.73275 665.00 0.0015038 153.54 502.83 0.73275 1.7947 2.2475 1932.6 -0.0065480 420.26 0.21237 665.00 0.0015038 153.54 502.83 0.73275 1.7947 2.2475 1932.6 -0.0065480 420.26 0.21237
22.375 33896. undefined 155.34 506.77 0.73884 665.00 0.0015038 155.34 506.77 0.73884 1.7988 2.2507 1933.8 -0.0065390 419.71 0.21264 665.00 0.0015038 155.34 506.77 0.73884 1.7988 2.2507 1933.8 -0.0065390 419.71 0.21264
23.375 34102. undefined 157.14 510.71 0.74492 665.00 0.0015038 157.14 510.71 0.74492 1.8029 2.2540 1935.0 -0.0065299 419.17 0.21291 665.00 0.0015038 157.14 510.71 0.74492 1.8029 2.2540 1935.0 -0.0065299 419.17 0.21291
24.375 34307. undefined 158.94 514.65 0.75100 665.00 0.0015038 158.94 514.65 0.75100 1.8071 2.2573 1936.2 -0.0065209 418.64 0.21319 665.00 0.0015038 158.94 514.65 0.75100 1.8071 2.2573 1936.2 -0.0065209 418.64 0.21319
25.375 34513. undefined 160.75 518.58 0.75707 665.00 0.0015038 160.75 518.58 0.75707 1.8112 2.2606 1937.5 -0.0065118 418.11 0.21346 665.00 0.0015038 160.75 518.58 0.75707 1.8112 2.2606 1937.5 -0.0065118 418.11 0.21346
26.375 34718. undefined 162.57 522.52 0.76314 665.00 0.0015038 162.57 522.52 0.76314 1.8153 2.2639 1938.7 -0.0065027 417.59 0.21373 665.00 0.0015038 162.57 522.52 0.76314 1.8153 2.2639 1938.7 -0.0065027 417.59 0.21373
27.375 34923. undefined 164.38 526.46 0.76919 665.00 0.0015038 164.38 526.46 0.76919 1.8195 2.2673 1939.9 -0.0064936 417.07 0.21400 665.00 0.0015038 164.38 526.46 0.76919 1.8195 2.2673 1939.9 -0.0064936 417.07 0.21400
28.375 35127. undefined 166.21 530.40 0.77524 665.00 0.0015038 166.21 530.40 0.77524 1.8236 2.2706 1941.1 -0.0064845 416.56 0.21427 665.00 0.0015038 166.21 530.40 0.77524 1.8236 2.2706 1941.1 -0.0064845 416.56 0.21427
29.375 35331. undefined 168.03 534.35 0.78129 665.00 0.0015038 168.03 534.35 0.78129 1.8277 2.2740 1942.3 -0.0064754 416.05 0.21455 665.00 0.0015038 168.03 534.35 0.78129 1.8277 2.2740 1942.3 -0.0064754 416.05 0.21455
30.375 35535. undefined 169.86 538.29 0.78733 665.00 0.0015038 169.86 538.29 0.78733 1.8319 2.2773 1943.5 -0.0064663 415.55 0.21482 665.00 0.0015038 169.86 538.29 0.78733 1.8319 2.2773 1943.5 -0.0064663 415.55 0.21482
31.375 35739. undefined 171.69 542.23 0.79336 665.00 0.0015038 171.69 542.23 0.79336 1.8360 2.2807 1944.7 -0.0064571 415.05 0.21509 665.00 0.0015038 171.69 542.23 0.79336 1.8360 2.2807 1944.7 -0.0064571 415.05 0.21509
32.375 35942. undefined 173.53 546.18 0.79939 665.00 0.0015038 173.53 546.18 0.79939 1.8402 2.2841 1945.9 -0.0064480 414.55 0.21537 665.00 0.0015038 173.53 546.18 0.79939 1.8402 2.2841 1945.9 -0.0064480 414.55 0.21537
33.375 36145. undefined 175.38 550.12 0.80541 665.00 0.0015038 175.38 550.12 0.80541 1.8444 2.2875 1947.1 -0.0064388 414.07 0.21564 665.00 0.0015038 175.38 550.12 0.80541 1.8444 2.2875 1947.1 -0.0064388 414.07 0.21564
34.375 36347. undefined 177.22 554.07 0.81142 665.00 0.0015038 177.22 554.07 0.81142 1.8485 2.2909 1948.3 -0.0064297 413.58 0.21592 665.00 0.0015038 177.22 554.07 0.81142 1.8485 2.2909 1948.3 -0.0064297 413.58 0.21592
35.375 36550. undefined 179.07 558.02 0.81743 665.00 0.0015038 179.07 558.02 0.81743 1.8527 2.2943 1949.4 -0.0064205 413.10 0.21619 665.00 0.0015038 179.07 558.02 0.81743 1.8527 2.2943 1949.4 -0.0064205 413.10 0.21619
36.375 36752. undefined 180.93 561.97 0.82343 665.00 0.0015038 180.93 561.97 0.82343 1.8569 2.2977 1950.6 -0.0064113 412.63 0.21647 665.00 0.0015038 180.93 561.97 0.82343 1.8569 2.2977 1950.6 -0.0064113 412.63 0.21647
37.375 36953. undefined 182.79 565.92 0.82943 665.00 0.0015038 182.79 565.92 0.82943 1.8611 2.3011 1951.8 -0.0064022 412.16 0.21674 665.00 0.0015038 182.79 565.92 0.82943 1.8611 2.3011 1951.8 -0.0064022 412.16 0.21674
38.375 37155. undefined 184.65 569.87 0.83542 665.00 0.0015038 184.65 569.87 0.83542 1.8653 2.3046 1953.0 -0.0063930 411.70 0.21702 665.00 0.0015038 184.65 569.87 0.83542 1.8653 2.3046 1953.0 -0.0063930 411.70 0.21702
39.375 37356. undefined 186.52 573.82 0.84140 665.00 0.0015038 186.52 573.82 0.84140 1.8695 2.3080 1954.2 -0.0063838 411.24 0.21729 665.00 0.0015038 186.52 573.82 0.84140 1.8695 2.3080 1954.2 -0.0063838 411.24 0.21729
40.375 37556. undefined 188.39 577.78 0.84738 665.00 0.0015038 188.39 577.78 0.84738 1.8737 2.3115 1955.3 -0.0063746 410.78 0.21757 665.00 0.0015038 188.39 577.78 0.84738 1.8737 2.3115 1955.3 -0.0063746 410.78 0.21757
41.375 37757. undefined 190.26 581.73 0.85335 665.00 0.0015038 190.26 581.73 0.85335 1.8779 2.3150 1956.5 -0.0063655 410.33 0.21785 665.00 0.0015038 190.26 581.73 0.85335 1.8779 2.3150 1956.5 -0.0063655 410.33 0.21785
42.375 37957. undefined 192.14 585.69 0.85932 665.00 0.0015038 192.14 585.69 0.85932 1.8821 2.3184 1957.7 -0.0063563 409.88 0.21812 665.00 0.0015038 192.14 585.69 0.85932 1.8821 2.3184 1957.7 -0.0063563 409.88 0.21812
43.375 38157. undefined 194.03 589.64 0.86528 665.00 0.0015038 194.03 589.64 0.86528 1.8863 2.3219 1958.8 -0.0063471 409.44 0.21840 665.00 0.0015038 194.03 589.64 0.86528 1.8863 2.3219 1958.8 -0.0063471 409.44 0.21840
44.375 38357. undefined 195.92 593.60 0.87124 665.00 0.0015038 195.92 593.60 0.87124 1.8905 2.3254 1960.0 -0.0063379 409.00 0.21868 665.00 0.0015038 195.92 593.60 0.87124 1.8905 2.3254 1960.0 -0.0063379 409.00 0.21868
45.375 38556. undefined 197.81 597.56 0.87719 665.00 0.0015038 197.81 597.56 0.87719 1.8947 2.3289 1961.1 -0.0063287 408.57 0.21896 665.00 0.0015038 197.81 597.56 0.87719 1.8947 2.3289 1961.1 -0.0063287 408.57 0.21896
46.375 38755. undefined 199.71 601.52 0.88314 665.00 0.0015038 199.71 601.52 0.88314 1.8990 2.3324 1962.3 -0.0063196 408.14 0.21923 665.00 0.0015038 199.71 601.52 0.88314 1.8990 2.3324 1962.3 -0.0063196 408.14 0.21923
47.375 38954. undefined 201.61 605.48 0.88908 665.00 0.0015038 201.61 605.48 0.88908 1.9032 2.3359 1963.4 -0.0063104 407.71 0.21951 665.00 0.0015038 201.61 605.48 0.88908 1.9032 2.3359 1963.4 -0.0063104 407.71 0.21951
48.375 39152. undefined 203.51 609.45 0.89501 665.00 0.0015038 203.51 609.45 0.89501 1.9074 2.3395 1964.6 -0.0063012 407.29 0.21979 665.00 0.0015038 203.51 609.45 0.89501 1.9074 2.3395 1964.6 -0.0063012 407.29 0.21979
49.375 39351. undefined 205.42 613.41 0.90094 665.00 0.0015038 205.42 613.41 0.90094 1.9116 2.3430 1965.7 -0.0062920 406.87 0.22007 665.00 0.0015038 205.42 613.41 0.90094 1.9116 2.3430 1965.7 -0.0062920 406.87 0.22007
50.375 39548. undefined 207.34 617.38 0.90687 665.00 0.0015038 207.34 617.38 0.90687 1.9159 2.3465 1966.9 -0.0062829 406.46 0.22035 665.00 0.0015038 207.34 617.38 0.90687 1.9159 2.3465 1966.9 -0.0062829 406.46 0.22035
51.375 39746. undefined 209.25 621.34 0.91279 665.00 0.0015038 209.25 621.34 0.91279 1.9201 2.3501 1968.0 -0.0062737 406.05 0.22063 665.00 0.0015038 209.25 621.34 0.91279 1.9201 2.3501 1968.0 -0.0062737 406.05 0.22063
52.375 39943. undefined 211.18 625.31 0.91870 665.00 0.0015038 211.18 625.31 0.91870 1.9244 2.3536 1969.2 -0.0062646 405.64 0.22091 665.00 0.0015038 211.18 625.31 0.91870 1.9244 2.3536 1969.2 -0.0062646 405.64 0.22091
53.375 40141. undefined 213.10 629.28 0.92461 665.00 0.0015038 213.10 629.28 0.92461 1.9286 2.3572 1970.3 -0.0062554 405.24 0.22119 665.00 0.0015038 213.10 629.28 0.92461 1.9286 2.3572 1970.3 -0.0062554 405.24 0.22119
54.375 40337. undefined 215.03 633.25 0.93051 665.00 0.0015038 215.03 633.25 0.93051 1.9329 2.3608 1971.4 -0.0062463 404.84 0.22147 665.00 0.0015038 215.03 633.25 0.93051 1.9329 2.3608 1971.4 -0.0062463 404.84 0.22147
55.375 40534. undefined 216.97 637.22 0.93641 665.00 0.0015038 216.97 637.22 0.93641 1.9371 2.3643 1972.6 -0.0062371 404.44 0.22175 665.00 0.0015038 216.97 637.22 0.93641 1.9371 2.3643 1972.6 -0.0062371 404.44 0.22175
56.375 40730. undefined 218.91 641.20 0.94231 665.00 0.0015038 218.91 641.20 0.94231 1.9414 2.3679 1973.7 -0.0062280 404.05 0.22203 665.00 0.0015038 218.91 641.20 0.94231 1.9414 2.3679 1973.7 -0.0062280 404.05 0.22203
57.375 40926. undefined 220.85 645.17 0.94820 665.00 0.0015038 220.85 645.17 0.94820 1.9456 2.3715 1974.8 -0.0062189 403.66 0.22231 665.00 0.0015038 220.85 645.17 0.94820 1.9456 2.3715 1974.8 -0.0062189 403.66 0.22231
58.375 41122. undefined 222.80 649.15 0.95408 665.00 0.0015038 222.80 649.15 0.95408 1.9499 2.3751 1976.0 -0.0062097 403.28 0.22259 665.00 0.0015038 222.80 649.15 0.95408 1.9499 2.3751 1976.0 -0.0062097 403.28 0.22259
59.375 41317. undefined 224.75 653.13 0.95996 665.00 0.0015038 224.75 653.13 0.95996 1.9541 2.3787 1977.1 -0.0062006 402.90 0.22287 665.00 0.0015038 224.75 653.13 0.95996 1.9541 2.3787 1977.1 -0.0062006 402.90 0.22287
60.375 41512. undefined 226.71 657.11 0.96583 665.00 0.0015038 226.71 657.11 0.96583 1.9584 2.3823 1978.2 -0.0061915 402.52 0.22316 665.00 0.0015038 226.71 657.11 0.96583 1.9584 2.3823 1978.2 -0.0061915 402.52 0.22316
61.375 41707. undefined 228.67 661.09 0.97170 665.00 0.0015038 228.67 661.09 0.97170 1.9626 2.3859 1979.3 -0.0061824 402.15 0.22344 665.00 0.0015038 228.67 661.09 0.97170 1.9626 2.3859 1979.3 -0.0061824 402.15 0.22344
62.375 41902. undefined 230.63 665.07 0.97757 665.00 0.0015038 230.63 665.07 0.97757 1.9669 2.3895 1980.4 -0.0061734 401.78 0.22372 665.00 0.0015038 230.63 665.07 0.97757 1.9669 2.3895 1980.4 -0.0061734 401.78 0.22372
63.375 42096. undefined 232.60 669.06 0.98343 665.00 0.0015038 232.60 669.06 0.98343 1.9712 2.3931 1981.6 -0.0061643 401.41 0.22400 665.00 0.0015038 232.60 669.06 0.98343 1.9712 2.3931 1981.6 -0.0061643 401.41 0.22400
64.375 42290. undefined 234.57 673.04 0.98928 665.00 0.0015038 234.57 673.04 0.98928 1.9754 2.3968 1982.7 -0.0061552 401.05 0.22429 665.00 0.0015038 234.57 673.04 0.98928 1.9754 2.3968 1982.7 -0.0061552 401.05 0.22429
65.375 42484. undefined 236.55 677.03 0.99513 665.00 0.0015038 236.55 677.03 0.99513 1.9797 2.4004 1983.8 -0.0061462 400.69 0.22457 665.00 0.0015038 236.55 677.03 0.99513 1.9797 2.4004 1983.8 -0.0061462 400.69 0.22457
66.375 42678. undefined 238.53 681.02 1.0010 665.00 0.0015038 238.53 681.02 1.0010 1.9840 2.4040 1984.9 -0.0061371 400.33 0.22485 665.00 0.0015038 238.53 681.02 1.0010 1.9840 2.4040 1984.9 -0.0061371 400.33 0.22485
67.375 42871. undefined 240.52 685.01 1.0068 665.00 0.0015038 240.52 685.01 1.0068 1.9882 2.4077 1986.0 -0.0061281 399.97 0.22514 665.00 0.0015038 240.52 685.01 1.0068 1.9882 2.4077 1986.0 -0.0061281 399.97 0.22514
68.375 43064. undefined 242.51 689.00 1.0127 665.00 0.0015038 242.51 689.00 1.0127 1.9925 2.4113 1987.1 -0.0061191 399.62 0.22542 665.00 0.0015038 242.51 689.00 1.0127 1.9925 2.4113 1987.1 -0.0061191 399.62 0.22542
69.375 43257. undefined 244.50 692.99 1.0185 665.00 0.0015038 244.50 692.99 1.0185 1.9968 2.4150 1988.2 -0.0061101 399.28 0.22571 665.00 0.0015038 244.50 692.99 1.0185 1.9968 2.4150 1988.2 -0.0061101 399.28 0.22571
70.375 43449. undefined 246.50 696.99 1.0243 665.00 0.0015038 246.50 696.99 1.0243 2.0011 2.4186 1989.3 -0.0061011 398.93 0.22599 665.00 0.0015038 246.50 696.99 1.0243 2.0011 2.4186 1989.3 -0.0061011 398.93 0.22599
71.375 43642. undefined 248.51 700.99 1.0301 665.00 0.0015038 248.51 700.99 1.0301 2.0053 2.4223 1990.4 -0.0060921 398.59 0.22628 665.00 0.0015038 248.51 700.99 1.0301 2.0053 2.4223 1990.4 -0.0060921 398.59 0.22628
72.375 43834. undefined 250.51 704.99 1.0360 665.00 0.0015038 250.51 704.99 1.0360 2.0096 2.4259 1991.5 -0.0060832 398.25 0.22656 665.00 0.0015038 250.51 704.99 1.0360 2.0096 2.4259 1991.5 -0.0060832 398.25 0.22656
73.375 44025. undefined 252.53 708.99 1.0418 665.00 0.0015038 252.53 708.99 1.0418 2.0139 2.4296 1992.6 -0.0060742 397.92 0.22685 665.00 0.0015038 252.53 708.99 1.0418 2.0139 2.4296 1992.6 -0.0060742 397.92 0.22685
74.375 44217. undefined 254.54 712.99 1.0476 665.00 0.0015038 254.54 712.99 1.0476 2.0182 2.4333 1993.7 -0.0060653 397.59 0.22713 665.00 0.0015038 254.54 712.99 1.0476 2.0182 2.4333 1993.7 -0.0060653 397.59 0.22713
75.375 44408. undefined 256.56 716.99 1.0534 665.00 0.0015038 256.56 716.99 1.0534 2.0224 2.4370 1994.8 -0.0060563 397.26 0.22742 665.00 0.0015038 256.56 716.99 1.0534 2.0224 2.4370 1994.8 -0.0060563 397.26 0.22742
76.375 44599. undefined 258.59 721.00 1.0592 665.00 0.0015038 258.59 721.00 1.0592 2.0267 2.4406 1995.8 -0.0060474 396.93 0.22771 665.00 0.0015038 258.59 721.00 1.0592 2.0267 2.4406 1995.8 -0.0060474 396.93 0.22771
77.375 44790. undefined 260.62 725.00 1.0650 665.00 0.0015038 260.62 725.00 1.0650 2.0310 2.4443 1996.9 -0.0060385 396.61 0.22800 665.00 0.0015038 260.62 725.00 1.0650 2.0310 2.4443 1996.9 -0.0060385 396.61 0.22800
78.375 44981. undefined 262.65 729.01 1.0708 665.00 0.0015038 262.65 729.01 1.0708 2.0353 2.4480 1998.0 -0.0060297 396.29 0.22828 665.00 0.0015038 262.65 729.01 1.0708 2.0353 2.4480 1998.0 -0.0060297 396.29 0.22828
79.375 45171. undefined 264.69 733.02 1.0766 665.00 0.0015038 264.69 733.02 1.0766 2.0396 2.4517 1999.1 -0.0060208 395.97 0.22857 665.00 0.0015038 264.69 733.02 1.0766 2.0396 2.4517 1999.1 -0.0060208 395.97 0.22857
80.375 45361. undefined 266.73 737.03 1.0823 665.00 0.0015038 266.73 737.03 1.0823 2.0438 2.4554 2000.2 -0.0060120 395.65 0.22886 665.00 0.0015038 266.73 737.03 1.0823 2.0438 2.4554 2000.2 -0.0060120 395.65 0.22886
81.375 45551. undefined 268.77 741.05 1.0881 665.00 0.0015038 268.77 741.05 1.0881 2.0481 2.4591 2001.3 -0.0060031 395.34 0.22915 665.00 0.0015038 268.77 741.05 1.0881 2.0481 2.4591 2001.3 -0.0060031 395.34 0.22915
82.375 45740. undefined 270.82 745.06 1.0939 665.00 0.0015038 270.82 745.06 1.0939 2.0524 2.4628 2002.3 -0.0059943 395.03 0.22943 665.00 0.0015038 270.82 745.06 1.0939 2.0524 2.4628 2002.3 -0.0059943 395.03 0.22943
83.375 45930. undefined 272.88 749.08 1.0997 665.00 0.0015038 272.88 749.08 1.0997 2.0567 2.4665 2003.4 -0.0059855 394.72 0.22972 665.00 0.0015038 272.88 749.08 1.0997 2.0567 2.4665 2003.4 -0.0059855 394.72 0.22972
84.375 46119. undefined 274.94 753.10 1.1054 665.00 0.0015038 274.94 753.10 1.1054 2.0609 2.4702 2004.5 -0.0059767 394.42 0.23001 665.00 0.0015038 274.94 753.10 1.1054 2.0609 2.4702 2004.5 -0.0059767 394.42 0.23001
85.375 46307. undefined 277.00 757.12 1.1112 665.00 0.0015038 277.00 757.12 1.1112 2.0652 2.4739 2005.5 -0.0059680 394.12 0.23030 665.00 0.0015038 277.00 757.12 1.1112 2.0652 2.4739 2005.5 -0.0059680 394.12 0.23030
86.375 46496. undefined 279.07 761.14 1.1170 665.00 0.0015038 279.07 761.14 1.1170 2.0695 2.4776 2006.6 -0.0059592 393.82 0.23059 665.00 0.0015038 279.07 761.14 1.1170 2.0695 2.4776 2006.6 -0.0059592 393.82 0.23059
87.375 46684. undefined 281.14 765.17 1.1227 665.00 0.0015038 281.14 765.17 1.1227 2.0738 2.4813 2007.7 -0.0059505 393.52 0.23088 665.00 0.0015038 281.14 765.17 1.1227 2.0738 2.4813 2007.7 -0.0059505 393.52 0.23088
88.375 46872. undefined 283.22 769.19 1.1285 665.00 0.0015038 283.22 769.19 1.1285 2.0781 2.4850 2008.8 -0.0059418 393.23 0.23117 665.00 0.0015038 283.22 769.19 1.1285 2.0781 2.4850 2008.8 -0.0059418 393.23 0.23117
89.375 47060. undefined 285.30 773.22 1.1342 665.00 0.0015038 285.30 773.22 1.1342 2.0823 2.4887 2009.8 -0.0059331 392.94 0.23146 665.00 0.0015038 285.30 773.22 1.1342 2.0823 2.4887 2009.8 -0.0059331 392.94 0.23146
90.375 47248. undefined 287.38 777.25 1.1399 665.00 0.0015038 287.38 777.25 1.1399 2.0866 2.4925 2010.9 -0.0059244 392.65 0.23175 665.00 0.0015038 287.38 777.25 1.1399 2.0866 2.4925 2010.9 -0.0059244 392.65 0.23175
91.375 47435. undefined 289.47 781.28 1.1457 665.00 0.0015038 289.47 781.28 1.1457 2.0909 2.4962 2011.9 -0.0059158 392.36 0.23204 665.00 0.0015038 289.47 781.28 1.1457 2.0909 2.4962 2011.9 -0.0059158 392.36 0.23204
92.375 47622. undefined 291.56 785.31 1.1514 665.00 0.0015038 291.56 785.31 1.1514 2.0951 2.4999 2013.0 -0.0059071 392.08 0.23234 665.00 0.0015038 291.56 785.31 1.1514 2.0951 2.4999 2013.0 -0.0059071 392.08 0.23234
93.375 47809. undefined 293.66 789.35 1.1572 665.00 0.0015038 293.66 789.35 1.1572 2.0994 2.5036 2014.1 -0.0058985 391.80 0.23263 665.00 0.0015038 293.66 789.35 1.1572 2.0994 2.5036 2014.1 -0.0058985 391.80 0.23263
94.375 47996. undefined 295.76 793.39 1.1629 665.00 0.0015038 295.76 793.39 1.1629 2.1037 2.5074 2015.1 -0.0058899 391.52 0.23292 665.00 0.0015038 295.76 793.39 1.1629 2.1037 2.5074 2015.1 -0.0058899 391.52 0.23292
95.375 48182. undefined 297.87 797.43 1.1686 665.00 0.0015038 297.87 797.43 1.1686 2.1080 2.5111 2016.2 -0.0058813 391.24 0.23321 665.00 0.0015038 297.87 797.43 1.1686 2.1080 2.5111 2016.2 -0.0058813 391.24 0.23321
96.375 48369. undefined 299.98 801.47 1.1743 665.00 0.0015038 299.98 801.47 1.1743 2.1122 2.5148 2017.2 -0.0058728 390.97 0.23350 665.00 0.0015038 299.98 801.47 1.1743 2.1122 2.5148 2017.2 -0.0058728 390.97 0.23350
97.375 48555. undefined 302.09 805.51 1.1800 665.00 0.0015038 302.09 805.51 1.1800 2.1165 2.5185 2018.3 -0.0058642 390.70 0.23380 665.00 0.0015038 302.09 805.51 1.1800 2.1165 2.5185 2018.3 -0.0058642 390.70 0.23380
98.375 48740. undefined 304.21 809.55 1.1857 665.00 0.0015038 304.21 809.55 1.1857 2.1208 2.5223 2019.3 -0.0058557 390.43 0.23409 665.00 0.0015038 304.21 809.55 1.1857 2.1208 2.5223 2019.3 -0.0058557 390.43 0.23409
99.375 48926. undefined 306.33 813.60 1.1914 665.00 0.0015038 306.33 813.60 1.1914 2.1250 2.5260 2020.4 -0.0058472 390.16 0.23438 665.00 0.0015038 306.33 813.60 1.1914 2.1250 2.5260 2020.4 -0.0058472 390.16 0.23438
100.38 49111. undefined 308.46 817.65 1.1971 665.00 0.0015038 308.46 817.65 1.1971 2.1293 2.5297 2021.4 -0.0058387 389.89 0.23468 665.00 0.0015038 308.46 817.65 1.1971 2.1293 2.5297 2021.4 -0.0058387 389.89 0.23468
101.38 49296. undefined 310.59 821.70 1.2028 665.00 0.0015038 310.59 821.70 1.2028 2.1335 2.5335 2022.4 -0.0058303 389.63 0.23497 665.00 0.0015038 310.59 821.70 1.2028 2.1335 2.5335 2022.4 -0.0058303 389.63 0.23497
102.38 49481. undefined 312.73 825.75 1.2085 665.00 0.0015038 312.73 825.75 1.2085 2.1378 2.5372 2023.5 -0.0058218 389.37 0.23527 665.00 0.0015038 312.73 825.75 1.2085 2.1378 2.5372 2023.5 -0.0058218 389.37 0.23527
103.38 49666. undefined 314.87 829.81 1.2142 665.00 0.0015038 314.87 829.81 1.2142 2.1421 2.5410 2024.5 -0.0058134 389.11 0.23556 665.00 0.0015038 314.87 829.81 1.2142 2.1421 2.5410 2024.5 -0.0058134 389.11 0.23556
104.38 49850. undefined 317.01 833.86 1.2199 665.00 0.0015038 317.01 833.86 1.2199 2.1463 2.5447 2025.6 -0.0058050 388.85 0.23586 665.00 0.0015038 317.01 833.86 1.2199 2.1463 2.5447 2025.6 -0.0058050 388.85 0.23586
105.38 50035. undefined 319.16 837.92 1.2256 665.00 0.0015038 319.16 837.92 1.2256 2.1506 2.5484 2026.6 -0.0057966 388.60 0.23615 665.00 0.0015038 319.16 837.92 1.2256 2.1506 2.5484 2026.6 -0.0057966 388.60 0.23615
106.38 50219. undefined 321.31 841.98 1.2313 665.00 0.0015038 321.31 841.98 1.2313 2.1548 2.5522 2027.6 -0.0057883 388.35 0.23645 665.00 0.0015038 321.31 841.98 1.2313 2.1548 2.5522 2027.6 -0.0057883 388.35 0.23645
107.38 50402. undefined 323.47 846.04 1.2370 665.00 0.0015038 323.47 846.04 1.2370 2.1591 2.5559 2028.7 -0.0057799 388.10 0.23674 665.00 0.0015038 323.47 846.04 1.2370 2.1591 2.5559 2028.7 -0.0057799 388.10 0.23674
108.38 50586. undefined 325.63 850.11 1.2426 665.00 0.0015038 325.63 850.11 1.2426 2.1633 2.5596 2029.7 -0.0057716 387.85 0.23704 665.00 0.0015038 325.63 850.11 1.2426 2.1633 2.5596 2029.7 -0.0057716 387.85 0.23704
109.38 50769. undefined 327.80 854.17 1.2483 665.00 0.0015038 327.80 854.17 1.2483 2.1676 2.5634 2030.7 -0.0057633 387.60 0.23733 665.00 0.0015038 327.80 854.17 1.2483 2.1676 2.5634 2030.7 -0.0057633 387.60 0.23733
110.38 50952. undefined 329.97 858.24 1.2540 665.00 0.0015038 329.97 858.24 1.2540 2.1718 2.5671 2031.8 -0.0057550 387.36 0.23763 665.00 0.0015038 329.97 858.24 1.2540 2.1718 2.5671 2031.8 -0.0057550 387.36 0.23763
111.38 51135. undefined 332.14 862.31 1.2596 665.00 0.0015038 332.14 862.31 1.2596 2.1760 2.5709 2032.8 -0.0057468 387.12 0.23793 665.00 0.0015038 332.14 862.31 1.2596 2.1760 2.5709 2032.8 -0.0057468 387.12 0.23793
112.38 51318. undefined 334.32 866.38 1.2653 665.00 0.0015038 334.32 866.38 1.2653 2.1803 2.5746 2033.8 -0.0057386 386.88 0.23822 665.00 0.0015038 334.32 866.38 1.2653 2.1803 2.5746 2033.8 -0.0057386 386.88 0.23822
113.38 51500. undefined 336.50 870.46 1.2709 665.00 0.0015038 336.50 870.46 1.2709 2.1845 2.5784 2034.8 -0.0057304 386.64 0.23852 665.00 0.0015038 336.50 870.46 1.2709 2.1845 2.5784 2034.8 -0.0057304 386.64 0.23852
114.38 51683. undefined 338.69 874.53 1.2766 665.00 0.0015038 338.69 874.53 1.2766 2.1888 2.5821 2035.9 -0.0057222 386.40 0.23882 665.00 0.0015038 338.69 874.53 1.2766 2.1888 2.5821 2035.9 -0.0057222 386.40 0.23882
115.38 51865. undefined 340.88 878.61 1.2822 665.00 0.0015038 340.88 878.61 1.2822 2.1930 2.5858 2036.9 -0.0057140 386.17 0.23912 665.00 0.0015038 340.88 878.61 1.2822 2.1930 2.5858 2036.9 -0.0057140 386.17 0.23912
116.38 52046. undefined 343.07 882.69 1.2879 665.00 0.0015038 343.07 882.69 1.2879 2.1972 2.5896 2037.9 -0.0057059 385.94 0.23942 665.00 0.0015038 343.07 882.69 1.2879 2.1972 2.5896 2037.9 -0.0057059 385.94 0.23942
117.38 52228. undefined 345.27 886.77 1.2935 665.00 0.0015038 345.27 886.77 1.2935 2.2014 2.5933 2038.9 -0.0056978 385.71 0.23972 665.00 0.0015038 345.27 886.77 1.2935 2.2014 2.5933 2038.9 -0.0056978 385.71 0.23972
118.38 52409. undefined 347.48 890.86 1.2991 665.00 0.0015038 347.48 890.86 1.2991 2.2057 2.5971 2039.9 -0.0056897 385.48 0.24001 665.00 0.0015038 347.48 890.86 1.2991 2.2057 2.5971 2039.9 -0.0056897 385.48 0.24001
119.38 52591. undefined 349.68 894.95 1.3048 665.00 0.0015038 349.68 894.95 1.3048 2.2099 2.6008 2041.0 -0.0056816 385.25 0.24031 665.00 0.0015038 349.68 894.95 1.3048 2.2099 2.6008 2041.0 -0.0056816 385.25 0.24031
120.38 52772. undefined 351.90 899.03 1.3104 665.00 0.0015038 351.90 899.03 1.3104 2.2141 2.6045 2042.0 -0.0056735 385.03 0.24061 665.00 0.0015038 351.90 899.03 1.3104 2.2141 2.6045 2042.0 -0.0056735 385.03 0.24061
121.38 52952. undefined 354.11 903.12 1.3160 665.00 0.0015038 354.11 903.12 1.3160 2.2183 2.6083 2043.0 -0.0056655 384.80 0.24091 665.00 0.0015038 354.11 903.12 1.3160 2.2183 2.6083 2043.0 -0.0056655 384.80 0.24091
122.38 53133. undefined 356.33 907.22 1.3217 665.00 0.0015038 356.33 907.22 1.3217 2.2225 2.6120 2044.0 -0.0056575 384.58 0.24121 665.00 0.0015038 356.33 907.22 1.3217 2.2225 2.6120 2044.0 -0.0056575 384.58 0.24121
123.38 53313. undefined 358.56 911.31 1.3273 665.00 0.0015038 358.56 911.31 1.3273 2.2267 2.6158 2045.0 -0.0056495 384.36 0.24151 665.00 0.0015038 358.56 911.31 1.3273 2.2267 2.6158 2045.0 -0.0056495 384.36 0.24151
124.38 53493. undefined 360.79 915.41 1.3329 665.00 0.0015038 360.79 915.41 1.3329 2.2309 2.6195 2046.0 -0.0056416 384.15 0.24181 665.00 0.0015038 360.79 915.41 1.3329 2.2309 2.6195 2046.0 -0.0056416 384.15 0.24181
125.38 53673. undefined 363.02 919.51 1.3385 665.00 0.0015038 363.02 919.51 1.3385 2.2351 2.6232 2047.0 -0.0056336 383.93 0.24212 665.00 0.0015038 363.02 919.51 1.3385 2.2351 2.6232 2047.0 -0.0056336 383.93 0.24212
126.38 53853. undefined 365.26 923.61 1.3441 665.00 0.0015038 365.26 923.61 1.3441 2.2393 2.6270 2048.0 -0.0056257 383.72 0.24242 665.00 0.0015038 365.26 923.61 1.3441 2.2393 2.6270 2048.0 -0.0056257 383.72 0.24242
127.38 54033. undefined 367.50 927.71 1.3497 665.00 0.0015038 367.50 927.71 1.3497 2.2435 2.6307 2049.0 -0.0056178 383.50 0.24272 665.00 0.0015038 367.50 927.71 1.3497 2.2435 2.6307 2049.0 -0.0056178 383.50 0.24272
128.38 54212. undefined 369.74 931.82 1.3553 665.00 0.0015038 369.74 931.82 1.3553 2.2477 2.6344 2050.0 -0.0056099 383.29 0.24302 665.00 0.0015038 369.74 931.82 1.3553 2.2477 2.6344 2050.0 -0.0056099 383.29 0.24302
129.38 54391. undefined 371.99 935.92 1.3609 665.00 0.0015038 371.99 935.92 1.3609 2.2519 2.6382 2051.0 -0.0056021 383.08 0.24332 665.00 0.0015038 371.99 935.92 1.3609 2.2519 2.6382 2051.0 -0.0056021 383.08 0.24332
130.38 54570. undefined 374.25 940.03 1.3665 665.00 0.0015038 374.25 940.03 1.3665 2.2561 2.6419 2052.0 -0.0055943 382.88 0.24363 665.00 0.0015038 374.25 940.03 1.3665 2.2561 2.6419 2052.0 -0.0055943 382.88 0.24363
131.38 54749. undefined 376.51 944.14 1.3721 665.00 0.0015038 376.51 944.14 1.3721 2.2603 2.6456 2053.0 -0.0055865 382.67 0.24393 665.00 0.0015038 376.51 944.14 1.3721 2.2603 2.6456 2053.0 -0.0055865 382.67 0.24393
132.38 54927. undefined 378.77 948.26 1.3777 665.00 0.0015038 378.77 948.26 1.3777 2.2645 2.6494 2054.0 -0.0055787 382.47 0.24423 665.00 0.0015038 378.77 948.26 1.3777 2.2645 2.6494 2054.0 -0.0055787 382.47 0.24423
133.38 55106. undefined 381.03 952.37 1.3833 665.00 0.0015038 381.03 952.37 1.3833 2.2687 2.6531 2055.0 -0.0055709 382.26 0.24453 665.00 0.0015038 381.03 952.37 1.3833 2.2687 2.6531 2055.0 -0.0055709 382.26 0.24453
134.38 55284. undefined 383.30 956.49 1.3888 665.00 0.0015038 383.30 956.49 1.3888 2.2728 2.6568 2056.0 -0.0055632 382.06 0.24484 665.00 0.0015038 383.30 956.49 1.3888 2.2728 2.6568 2056.0 -0.0055632 382.06 0.24484
135.38 55462. undefined 385.58 960.61 1.3944 665.00 0.0015038 385.58 960.61 1.3944 2.2770 2.6605 2057.0 -0.0055555 381.86 0.24514 665.00 0.0015038 385.58 960.61 1.3944 2.2770 2.6605 2057.0 -0.0055555 381.86 0.24514
136.38 55639. undefined 387.86 964.73 1.4000 665.00 0.0015038 387.86 964.73 1.4000 2.2812 2.6643 2058.0 -0.0055478 381.67 0.24545 665.00 0.0015038 387.86 964.73 1.4000 2.2812 2.6643 2058.0 -0.0055478 381.67 0.24545
137.38 55817. undefined 390.14 968.86 1.4055 665.00 0.0015038 390.14 968.86 1.4055 2.2853 2.6680 2059.0 -0.0055402 381.47 0.24575 665.00 0.0015038 390.14 968.86 1.4055 2.2853 2.6680 2059.0 -0.0055402 381.47 0.24575
138.38 55994. undefined 392.43 972.98 1.4111 665.00 0.0015038 392.43 972.98 1.4111 2.2895 2.6717 2060.0 -0.0055325 381.27 0.24606 665.00 0.0015038 392.43 972.98 1.4111 2.2895 2.6717 2060.0 -0.0055325 381.27 0.24606
139.38 56171. undefined 394.72 977.11 1.4167 665.00 0.0015038 394.72 977.11 1.4167 2.2937 2.6754 2061.0 -0.0055249 381.08 0.24636 665.00 0.0015038 394.72 977.11 1.4167 2.2937 2.6754 2061.0 -0.0055249 381.08 0.24636
140.38 56348. undefined 397.02 981.24 1.4222 665.00 0.0015038 397.02 981.24 1.4222 2.2978 2.6791 2062.0 -0.0055173 380.89 0.24667 665.00 0.0015038 397.02 981.24 1.4222 2.2978 2.6791 2062.0 -0.0055173 380.89 0.24667
141.38 56525. undefined 399.32 985.37 1.4278 665.00 0.0015038 399.32 985.37 1.4278 2.3020 2.6828 2063.0 -0.0055098 380.70 0.24697 665.00 0.0015038 399.32 985.37 1.4278 2.3020 2.6828 2063.0 -0.0055098 380.70 0.24697
142.38 56702. undefined 401.62 989.51 1.4333 665.00 0.0015038 401.62 989.51 1.4333 2.3061 2.6866 2063.9 -0.0055022 380.51 0.24728 665.00 0.0015038 401.62 989.51 1.4333 2.3061 2.6866 2063.9 -0.0055022 380.51 0.24728
143.38 56878. undefined 403.93 993.64 1.4389 665.00 0.0015038 403.93 993.64 1.4389 2.3102 2.6903 2064.9 -0.0054947 380.32 0.24758 665.00 0.0015038 403.93 993.64 1.4389 2.3102 2.6903 2064.9 -0.0054947 380.32 0.24758
144.38 57054. undefined 406.24 997.78 1.4444 665.00 0.0015038 406.24 997.78 1.4444 2.3144 2.6940 2065.9 -0.0054872 380.14 0.24789 665.00 0.0015038 406.24 997.78 1.4444 2.3144 2.6940 2065.9 -0.0054872 380.14 0.24789
145.38 57230. undefined 408.56 1001.9 1.4500 665.00 0.0015038 408.56 1001.9 1.4500 2.3185 2.6977 2066.9 -0.0054797 379.95 0.24820 665.00 0.0015038 408.56 1001.9 1.4500 2.3185 2.6977 2066.9 -0.0054797 379.95 0.24820
146.38 57406. undefined 410.88 1006.1 1.4555 665.00 0.0015038 410.88 1006.1 1.4555 2.3226 2.7014 2067.9 -0.0054723 379.77 0.24851 665.00 0.0015038 410.88 1006.1 1.4555 2.3226 2.7014 2067.9 -0.0054723 379.77 0.24851
147.38 57582. undefined 413.20 1010.2 1.4610 665.00 0.0015038 413.20 1010.2 1.4610 2.3268 2.7051 2068.8 -0.0054648 379.59 0.24881 665.00 0.0015038 413.20 1010.2 1.4610 2.3268 2.7051 2068.8 -0.0054648 379.59 0.24881
148.38 57757. undefined 415.53 1014.4 1.4666 665.00 0.0015038 415.53 1014.4 1.4666 2.3309 2.7088 2069.8 -0.0054574 379.41 0.24912 665.00 0.0015038 415.53 1014.4 1.4666 2.3309 2.7088 2069.8 -0.0054574 379.41 0.24912
149.38 57932. undefined 417.86 1018.5 1.4721 665.00 0.0015038 417.86 1018.5 1.4721 2.3350 2.7125 2070.8 -0.0054500 379.23 0.24943 665.00 0.0015038 417.86 1018.5 1.4721 2.3350 2.7125 2070.8 -0.0054500 379.23 0.24943
150.38 58108. undefined 420.20 1022.7 1.4776 665.00 0.0015038 420.20 1022.7 1.4776 2.3391 2.7162 2071.8 -0.0054427 379.05 0.24974 665.00 0.0015038 420.20 1022.7 1.4776 2.3391 2.7162 2071.8 -0.0054427 379.05 0.24974
151.38 58282. undefined 422.54 1026.8 1.4832 665.00 0.0015038 422.54 1026.8 1.4832 2.3432 2.7199 2072.7 -0.0054354 378.88 0.25005 665.00 0.0015038 422.54 1026.8 1.4832 2.3432 2.7199 2072.7 -0.0054354 378.88 0.25005
152.38 58457. undefined 424.89 1031.0 1.4887 665.00 0.0015038 424.89 1031.0 1.4887 2.3473 2.7236 2073.7 -0.0054280 378.70 0.25035 665.00 0.0015038 424.89 1031.0 1.4887 2.3473 2.7236 2073.7 -0.0054280 378.70 0.25035
153.38 58632. undefined 427.24 1035.1 1.4942 665.00 0.0015038 427.24 1035.1 1.4942 2.3514 2.7273 2074.7 -0.0054208 378.53 0.25066 665.00 0.0015038 427.24 1035.1 1.4942 2.3514 2.7273 2074.7 -0.0054208 378.53 0.25066
154.38 58806. undefined 429.59 1039.3 1.4997 665.00 0.0015038 429.59 1039.3 1.4997 2.3555 2.7310 2075.6 -0.0054135 378.36 0.25097 665.00 0.0015038 429.59 1039.3 1.4997 2.3555 2.7310 2075.6 -0.0054135 378.36 0.25097
155.38 58980. undefined 431.95 1043.5 1.5052 665.00 0.0015038 431.95 1043.5 1.5052 2.3596 2.7346 2076.6 -0.0054062 378.19 0.25128 665.00 0.0015038 431.95 1043.5 1.5052 2.3596 2.7346 2076.6 -0.0054062 378.19 0.25128
156.38 59154. undefined 434.31 1047.6 1.5107 665.00 0.0015038 434.31 1047.6 1.5107 2.3637 2.7383 2077.6 -0.0053990 378.02 0.25159 665.00 0.0015038 434.31 1047.6 1.5107 2.3637 2.7383 2077.6 -0.0053990 378.02 0.25159
157.38 59328. undefined 436.68 1051.8 1.5162 665.00 0.0015038 436.68 1051.8 1.5162 2.3678 2.7420 2078.5 -0.0053918 377.85 0.25190 665.00 0.0015038 436.68 1051.8 1.5162 2.3678 2.7420 2078.5 -0.0053918 377.85 0.25190
158.38 59501. undefined 439.05 1056.0 1.5217 665.00 0.0015038 439.05 1056.0 1.5217 2.3719 2.7457 2079.5 -0.0053847 377.68 0.25221 665.00 0.0015038 439.05 1056.0 1.5217 2.3719 2.7457 2079.5 -0.0053847 377.68 0.25221
159.38 59675. undefined 441.42 1060.1 1.5272 665.00 0.0015038 441.42 1060.1 1.5272 2.3760 2.7494 2080.5 -0.0053775 377.52 0.25252 665.00 0.0015038 441.42 1060.1 1.5272 2.3760 2.7494 2080.5 -0.0053775 377.52 0.25252
160.38 59848. undefined 443.80 1064.3 1.5327 665.00 0.0015038 443.80 1064.3 1.5327 2.3800 2.7530 2081.4 -0.0053704 377.35 0.25284 665.00 0.0015038 443.80 1064.3 1.5327 2.3800 2.7530 2081.4 -0.0053704 377.35 0.25284
161.38 60021. undefined 446.18 1068.5 1.5382 665.00 0.0015038 446.18 1068.5 1.5382 2.3841 2.7567 2082.4 -0.0053633 377.19 0.25315 665.00 0.0015038 446.18 1068.5 1.5382 2.3841 2.7567 2082.4 -0.0053633 377.19 0.25315
162.38 60194. undefined 448.57 1072.7 1.5437 665.00 0.0015038 448.57 1072.7 1.5437 2.3882 2.7604 2083.4 -0.0053562 377.03 0.25346 665.00 0.0015038 448.57 1072.7 1.5437 2.3882 2.7604 2083.4 -0.0053562 377.03 0.25346
163.38 60367. undefined 450.96 1076.8 1.5491 665.00 0.0015038 450.96 1076.8 1.5491 2.3922 2.7640 2084.3 -0.0053491 376.87 0.25377 665.00 0.0015038 450.96 1076.8 1.5491 2.3922 2.7640 2084.3 -0.0053491 376.87 0.25377
164.38 60539. undefined 453.35 1081.0 1.5546 665.00 0.0015038 453.35 1081.0 1.5546 2.3963 2.7677 2085.3 -0.0053421 376.71 0.25408 665.00 0.0015038 453.35 1081.0 1.5546 2.3963 2.7677 2085.3 -0.0053421 376.71 0.25408
165.38 60711. undefined 455.75 1085.2 1.5601 665.00 0.0015038 455.75 1085.2 1.5601 2.4003 2.7713 2086.2 -0.0053351 376.55 0.25440 665.00 0.0015038 455.75 1085.2 1.5601 2.4003 2.7713 2086.2 -0.0053351 376.55 0.25440
166.38 60884. undefined 458.15 1089.4 1.5656 665.00 0.0015038 458.15 1089.4 1.5656 2.4044 2.7750 2087.2 -0.0053281 376.39 0.25471 665.00 0.0015038 458.15 1089.4 1.5656 2.4044 2.7750 2087.2 -0.0053281 376.39 0.25471
167.38 61056. undefined 460.56 1093.6 1.5710 665.00 0.0015038 460.56 1093.6 1.5710 2.4084 2.7787 2088.1 -0.0053211 376.24 0.25502 665.00 0.0015038 460.56 1093.6 1.5710 2.4084 2.7787 2088.1 -0.0053211 376.24 0.25502
168.38 61227. undefined 462.97 1097.8 1.5765 665.00 0.0015038 462.97 1097.8 1.5765 2.4125 2.7823 2089.1 -0.0053142 376.08 0.25534 665.00 0.0015038 462.97 1097.8 1.5765 2.4125 2.7823 2089.1 -0.0053142 376.08 0.25534
169.38 61399. undefined 465.38 1102.0 1.5820 665.00 0.0015038 465.38 1102.0 1.5820 2.4165 2.7860 2090.0 -0.0053073 375.93 0.25565 665.00 0.0015038 465.38 1102.0 1.5820 2.4165 2.7860 2090.0 -0.0053073 375.93 0.25565
170.38 61571. undefined 467.80 1106.2 1.5874 665.00 0.0015038 467.80 1106.2 1.5874 2.4205 2.7896 2091.0 -0.0053004 375.78 0.25596 665.00 0.0015038 467.80 1106.2 1.5874 2.4205 2.7896 2091.0 -0.0053004 375.78 0.25596
171.38 61742. undefined 470.22 1110.4 1.5929 665.00 0.0015038 470.22 1110.4 1.5929 2.4245 2.7932 2091.9 -0.0052935 375.62 0.25628 665.00 0.0015038 470.22 1110.4 1.5929 2.4245 2.7932 2091.9 -0.0052935 375.62 0.25628
172.38 61913. undefined 472.65 1114.6 1.5983 665.00 0.0015038 472.65 1114.6 1.5983 2.4286 2.7969 2092.9 -0.0052867 375.47 0.25659 665.00 0.0015038 472.65 1114.6 1.5983 2.4286 2.7969 2092.9 -0.0052867 375.47 0.25659
173.38 62084. undefined 475.08 1118.8 1.6038 665.00 0.0015038 475.08 1118.8 1.6038 2.4326 2.8005 2093.8 -0.0052798 375.32 0.25691 665.00 0.0015038 475.08 1118.8 1.6038 2.4326 2.8005 2093.8 -0.0052798 375.32 0.25691
174.38 62255. undefined 477.52 1123.0 1.6092 665.00 0.0015038 477.52 1123.0 1.6092 2.4366 2.8041 2094.8 -0.0052730 375.18 0.25722 665.00 0.0015038 477.52 1123.0 1.6092 2.4366 2.8041 2094.8 -0.0052730 375.18 0.25722
175.38 62425. undefined 479.95 1127.2 1.6147 665.00 0.0015038 479.95 1127.2 1.6147 2.4406 2.8078 2095.7 -0.0052662 375.03 0.25754 665.00 0.0015038 479.95 1127.2 1.6147 2.4406 2.8078 2095.7 -0.0052662 375.03 0.25754
176.38 62596. undefined 482.40 1131.4 1.6201 665.00 0.0015038 482.40 1131.4 1.6201 2.4446 2.8114 2096.7 -0.0052595 374.88 0.25786 665.00 0.0015038 482.40 1131.4 1.6201 2.4446 2.8114 2096.7 -0.0052595 374.88 0.25786
177.38 62766. undefined 484.84 1135.6 1.6256 665.00 0.0015038 484.84 1135.6 1.6256 2.4486 2.8150 2097.6 -0.0052527 374.74 0.25817 665.00 0.0015038 484.84 1135.6 1.6256 2.4486 2.8150 2097.6 -0.0052527 374.74 0.25817
178.38 62936. undefined 487.29 1139.8 1.6310 665.00 0.0015038 487.29 1139.8 1.6310 2.4526 2.8186 2098.6 -0.0052460 374.60 0.25849 665.00 0.0015038 487.29 1139.8 1.6310 2.4526 2.8186 2098.6 -0.0052460 374.60 0.25849
179.38 63106. undefined 489.75 1144.0 1.6364 665.00 0.0015038 489.75 1144.0 1.6364 2.4566 2.8222 2099.5 -0.0052393 374.45 0.25881 665.00 0.0015038 489.75 1144.0 1.6364 2.4566 2.8222 2099.5 -0.0052393 374.45 0.25881
180.38 63276. undefined 492.21 1148.3 1.6418 665.00 0.0015038 492.21 1148.3 1.6418 2.4605 2.8259 2100.4 -0.0052327 374.31 0.25912 665.00 0.0015038 492.21 1148.3 1.6418 2.4605 2.8259 2100.4 -0.0052327 374.31 0.25912
181.38 63445. undefined 494.67 1152.5 1.6473 665.00 0.0015038 494.67 1152.5 1.6473 2.4645 2.8295 2101.4 -0.0052260 374.17 0.25944 665.00 0.0015038 494.67 1152.5 1.6473 2.4645 2.8295 2101.4 -0.0052260 374.17 0.25944
182.38 63615. undefined 497.14 1156.7 1.6527 665.00 0.0015038 497.14 1156.7 1.6527 2.4685 2.8331 2102.3 -0.0052194 374.03 0.25976 665.00 0.0015038 497.14 1156.7 1.6527 2.4685 2.8331 2102.3 -0.0052194 374.03 0.25976
183.38 63784. undefined 499.61 1160.9 1.6581 665.00 0.0015038 499.61 1160.9 1.6581 2.4725 2.8367 2103.2 -0.0052128 373.89 0.26008 665.00 0.0015038 499.61 1160.9 1.6581 2.4725 2.8367 2103.2 -0.0052128 373.89 0.26008
184.38 63953. undefined 502.08 1165.1 1.6635 665.00 0.0015038 502.08 1165.1 1.6635 2.4764 2.8403 2104.2 -0.0052062 373.76 0.26039 665.00 0.0015038 502.08 1165.1 1.6635 2.4764 2.8403 2104.2 -0.0052062 373.76 0.26039
185.38 64122. undefined 504.56 1169.4 1.6689 665.00 0.0015038 504.56 1169.4 1.6689 2.4804 2.8439 2105.1 -0.0051996 373.62 0.26071 665.00 0.0015038 504.56 1169.4 1.6689 2.4804 2.8439 2105.1 -0.0051996 373.62 0.26071
186.38 64291. undefined 507.04 1173.6 1.6743 665.00 0.0015038 507.04 1173.6 1.6743 2.4843 2.8475 2106.0 -0.0051931 373.48 0.26103 665.00 0.0015038 507.04 1173.6 1.6743 2.4843 2.8475 2106.0 -0.0051931 373.48 0.26103
187.38 64459. undefined 509.53 1177.8 1.6797 665.00 0.0015038 509.53 1177.8 1.6797 2.4883 2.8510 2107.0 -0.0051866 373.35 0.26135 665.00 0.0015038 509.53 1177.8 1.6797 2.4883 2.8510 2107.0 -0.0051866 373.35 0.26135
188.38 64628. undefined 512.02 1182.1 1.6851 665.00 0.0015038 512.02 1182.1 1.6851 2.4922 2.8546 2107.9 -0.0051801 373.22 0.26167 665.00 0.0015038 512.02 1182.1 1.6851 2.4922 2.8546 2107.9 -0.0051801 373.22 0.26167
189.38 64796. undefined 514.51 1186.3 1.6905 665.00 0.0015038 514.51 1186.3 1.6905 2.4961 2.8582 2108.8 -0.0051736 373.08 0.26199 665.00 0.0015038 514.51 1186.3 1.6905 2.4961 2.8582 2108.8 -0.0051736 373.08 0.26199
190.38 64964. undefined 517.01 1190.6 1.6959 665.00 0.0015038 517.01 1190.6 1.6959 2.5001 2.8618 2109.8 -0.0051672 372.95 0.26231 665.00 0.0015038 517.01 1190.6 1.6959 2.5001 2.8618 2109.8 -0.0051672 372.95 0.26231
191.38 65132. undefined 519.51 1194.8 1.7013 665.00 0.0015038 519.51 1194.8 1.7013 2.5040 2.8654 2110.7 -0.0051607 372.82 0.26263 665.00 0.0015038 519.51 1194.8 1.7013 2.5040 2.8654 2110.7 -0.0051607 372.82 0.26263
192.38 65300. undefined 522.02 1199.0 1.7067 665.00 0.0015038 522.02 1199.0 1.7067 2.5079 2.8689 2111.6 -0.0051543 372.69 0.26295 665.00 0.0015038 522.02 1199.0 1.7067 2.5079 2.8689 2111.6 -0.0051543 372.69 0.26295
193.38 65467. undefined 524.53 1203.3 1.7121 665.00 0.0015038 524.53 1203.3 1.7121 2.5118 2.8725 2112.5 -0.0051479 372.56 0.26327 665.00 0.0015038 524.53 1203.3 1.7121 2.5118 2.8725 2112.5 -0.0051479 372.56 0.26327
194.38 65635. undefined 527.04 1207.5 1.7175 665.00 0.0015038 527.04 1207.5 1.7175 2.5158 2.8761 2113.5 -0.0051416 372.43 0.26359 665.00 0.0015038 527.04 1207.5 1.7175 2.5158 2.8761 2113.5 -0.0051416 372.43 0.26359
195.38 65802. undefined 529.56 1211.8 1.7229 665.00 0.0015038 529.56 1211.8 1.7229 2.5197 2.8796 2114.4 -0.0051352 372.31 0.26391 665.00 0.0015038 529.56 1211.8 1.7229 2.5197 2.8796 2114.4 -0.0051352 372.31 0.26391
196.38 65969. undefined 532.08 1216.1 1.7282 665.00 0.0015038 532.08 1216.1 1.7282 2.5236 2.8832 2115.3 -0.0051289 372.18 0.26424 665.00 0.0015038 532.08 1216.1 1.7282 2.5236 2.8832 2115.3 -0.0051289 372.18 0.26424
197.38 66136. undefined 534.61 1220.3 1.7336 665.00 0.0015038 534.61 1220.3 1.7336 2.5275 2.8867 2116.2 -0.0051226 372.06 0.26456 665.00 0.0015038 534.61 1220.3 1.7336 2.5275 2.8867 2116.2 -0.0051226 372.06 0.26456
198.38 66303. undefined 537.14 1224.6 1.7390 665.00 0.0015038 537.14 1224.6 1.7390 2.5314 2.8903 2117.2 -0.0051163 371.93 0.26488 665.00 0.0015038 537.14 1224.6 1.7390 2.5314 2.8903 2117.2 -0.0051163 371.93 0.26488
199.38 66470. undefined 539.67 1228.8 1.7444 665.00 0.0015038 539.67 1228.8 1.7444 2.5352 2.8938 2118.1 -0.0051101 371.81 0.26520 665.00 0.0015038 539.67 1228.8 1.7444 2.5352 2.8938 2118.1 -0.0051101 371.81 0.26520
200.38 66636. undefined 542.21 1233.1 1.7497 665.00 0.0015038 542.21 1233.1 1.7497 2.5391 2.8974 2119.0 -0.0051038 371.69 0.26553 665.00 0.0015038 542.21 1233.1 1.7497 2.5391 2.8974 2119.0 -0.0051038 371.69 0.26553
201.38 66802. undefined 544.75 1237.4 1.7551 665.00 0.0015038 544.75 1237.4 1.7551 2.5430 2.9009 2119.9 -0.0050976 371.57 0.26585 665.00 0.0015038 544.75 1237.4 1.7551 2.5430 2.9009 2119.9 -0.0050976 371.57 0.26585
202.38 66969. undefined 547.29 1241.6 1.7604 665.00 0.0015038 547.29 1241.6 1.7604 2.5469 2.9044 2120.8 -0.0050914 371.44 0.26617 665.00 0.0015038 547.29 1241.6 1.7604 2.5469 2.9044 2120.8 -0.0050914 371.44 0.26617
203.38 67135. undefined 549.84 1245.9 1.7658 665.00 0.0015038 549.84 1245.9 1.7658 2.5507 2.9080 2121.7 -0.0050853 371.32 0.26650 665.00 0.0015038 549.84 1245.9 1.7658 2.5507 2.9080 2121.7 -0.0050853 371.32 0.26650
204.38 67300. undefined 552.39 1250.2 1.7711 665.00 0.0015038 552.39 1250.2 1.7711 2.5546 2.9115 2122.7 -0.0050791 371.21 0.26682 665.00 0.0015038 552.39 1250.2 1.7711 2.5546 2.9115 2122.7 -0.0050791 371.21 0.26682
205.38 67466. undefined 554.95 1254.4 1.7765 665.00 0.0015038 554.95 1254.4 1.7765 2.5585 2.9150 2123.6 -0.0050730 371.09 0.26715 665.00 0.0015038 554.95 1254.4 1.7765 2.5585 2.9150 2123.6 -0.0050730 371.09 0.26715
206.38 67632. undefined 557.51 1258.7 1.7818 665.00 0.0015038 557.51 1258.7 1.7818 2.5623 2.9185 2124.5 -0.0050669 370.97 0.26747 665.00 0.0015038 557.51 1258.7 1.7818 2.5623 2.9185 2124.5 -0.0050669 370.97 0.26747
207.38 67797. undefined 560.08 1263.0 1.7872 665.00 0.0015038 560.08 1263.0 1.7872 2.5662 2.9220 2125.4 -0.0050608 370.85 0.26779 665.00 0.0015038 560.08 1263.0 1.7872 2.5662 2.9220 2125.4 -0.0050608 370.85 0.26779
208.38 67962. undefined 562.64 1267.3 1.7925 665.00 0.0015038 562.64 1267.3 1.7925 2.5700 2.9255 2126.3 -0.0050547 370.74 0.26812 665.00 0.0015038 562.64 1267.3 1.7925 2.5700 2.9255 2126.3 -0.0050547 370.74 0.26812
209.38 68127. undefined 565.22 1271.6 1.7979 665.00 0.0015038 565.22 1271.6 1.7979 2.5738 2.9291 2127.2 -0.0050486 370.62 0.26845 665.00 0.0015038 565.22 1271.6 1.7979 2.5738 2.9291 2127.2 -0.0050486 370.62 0.26845
210.38 68292. undefined 567.79 1275.9 1.8032 665.00 0.0015038 567.79 1275.9 1.8032 2.5777 2.9326 2128.1 -0.0050426 370.51 0.26877 665.00 0.0015038 567.79 1275.9 1.8032 2.5777 2.9326 2128.1 -0.0050426 370.51 0.26877
211.38 68457. undefined 570.37 1280.1 1.8085 665.00 0.0015038 570.37 1280.1 1.8085 2.5815 2.9361 2129.0 -0.0050366 370.40 0.26910 665.00 0.0015038 570.37 1280.1 1.8085 2.5815 2.9361 2129.0 -0.0050366 370.40 0.26910
212.38 68622. undefined 572.95 1284.4 1.8138 665.00 0.0015038 572.95 1284.4 1.8138 2.5853 2.9396 2129.9 -0.0050306 370.28 0.26942 665.00 0.0015038 572.95 1284.4 1.8138 2.5853 2.9396 2129.9 -0.0050306 370.28 0.26942
213.38 68786. undefined 575.54 1288.7 1.8192 665.00 0.0015038 575.54 1288.7 1.8192 2.5891 2.9430 2130.8 -0.0050247 370.17 0.26975 665.00 0.0015038 575.54 1288.7 1.8192 2.5891 2.9430 2130.8 -0.0050247 370.17 0.26975
214.38 68951. undefined 578.13 1293.0 1.8245 665.00 0.0015038 578.13 1293.0 1.8245 2.5929 2.9465 2131.7 -0.0050187 370.06 0.27008 665.00 0.0015038 578.13 1293.0 1.8245 2.5929 2.9465 2131.7 -0.0050187 370.06 0.27008
215.38 69115. undefined 580.73 1297.3 1.8298 665.00 0.0015038 580.73 1297.3 1.8298 2.5967 2.9500 2132.6 -0.0050128 369.95 0.27041 665.00 0.0015038 580.73 1297.3 1.8298 2.5967 2.9500 2132.6 -0.0050128 369.95 0.27041
216.38 69279. undefined 583.33 1301.6 1.8351 665.00 0.0015038 583.33 1301.6 1.8351 2.6005 2.9535 2133.5 -0.0050069 369.84 0.27073 665.00 0.0015038 583.33 1301.6 1.8351 2.6005 2.9535 2133.5 -0.0050069 369.84 0.27073
217.38 69443. undefined 585.93 1305.9 1.8404 665.00 0.0015038 585.93 1305.9 1.8404 2.6043 2.9570 2134.4 -0.0050010 369.73 0.27106 665.00 0.0015038 585.93 1305.9 1.8404 2.6043 2.9570 2134.4 -0.0050010 369.73 0.27106
218.38 69606. undefined 588.53 1310.2 1.8457 665.00 0.0015038 588.53 1310.2 1.8457 2.6081 2.9604 2135.3 -0.0049951 369.63 0.27139 665.00 0.0015038 588.53 1310.2 1.8457 2.6081 2.9604 2135.3 -0.0049951 369.63 0.27139
219.38 69770. undefined 591.14 1314.5 1.8510 665.00 0.0015038 591.14 1314.5 1.8510 2.6119 2.9639 2136.2 -0.0049893 369.52 0.27172 665.00 0.0015038 591.14 1314.5 1.8510 2.6119 2.9639 2136.2 -0.0049893 369.52 0.27172
220.38 69933. undefined 593.76 1318.8 1.8563 665.00 0.0015038 593.76 1318.8 1.8563 2.6157 2.9674 2137.1 -0.0049834 369.41 0.27205 665.00 0.0015038 593.76 1318.8 1.8563 2.6157 2.9674 2137.1 -0.0049834 369.41 0.27205
221.38 70097. undefined 596.38 1323.1 1.8616 665.00 0.0015038 596.38 1323.1 1.8616 2.6195 2.9708 2138.0 -0.0049776 369.31 0.27238 665.00 0.0015038 596.38 1323.1 1.8616 2.6195 2.9708 2138.0 -0.0049776 369.31 0.27238
222.38 70260. undefined 599.00 1327.5 1.8669 665.00 0.0015038 599.00 1327.5 1.8669 2.6232 2.9743 2138.9 -0.0049718 369.20 0.27270 665.00 0.0015038 599.00 1327.5 1.8669 2.6232 2.9743 2138.9 -0.0049718 369.20 0.27270
223.38 70423. undefined 601.62 1331.8 1.8722 665.00 0.0015038 601.62 1331.8 1.8722 2.6270 2.9777 2139.8 -0.0049661 369.10 0.27303 665.00 0.0015038 601.62 1331.8 1.8722 2.6270 2.9777 2139.8 -0.0049661 369.10 0.27303
224.38 70586. undefined 604.25 1336.1 1.8775 665.00 0.0015038 604.25 1336.1 1.8775 2.6308 2.9812 2140.7 -0.0049603 368.99 0.27336 665.00 0.0015038 604.25 1336.1 1.8775 2.6308 2.9812 2140.7 -0.0049603 368.99 0.27336
225.38 70748. undefined 606.88 1340.4 1.8828 665.00 0.0015038 606.88 1340.4 1.8828 2.6345 2.9846 2141.6 -0.0049546 368.89 0.27369 665.00 0.0015038 606.88 1340.4 1.8828 2.6345 2.9846 2141.6 -0.0049546 368.89 0.27369
226.38 70911. undefined 609.52 1344.7 1.8881 665.00 0.0015038 609.52 1344.7 1.8881 2.6383 2.9881 2142.5 -0.0049489 368.79 0.27402 665.00 0.0015038 609.52 1344.7 1.8881 2.6383 2.9881 2142.5 -0.0049489 368.79 0.27402
227.38 71073. undefined 612.16 1349.1 1.8934 665.00 0.0015038 612.16 1349.1 1.8934 2.6420 2.9915 2143.4 -0.0049432 368.69 0.27436 665.00 0.0015038 612.16 1349.1 1.8934 2.6420 2.9915 2143.4 -0.0049432 368.69 0.27436
228.38 71236. undefined 614.80 1353.4 1.8986 665.00 0.0015038 614.80 1353.4 1.8986 2.6457 2.9949 2144.3 -0.0049375 368.59 0.27469 665.00 0.0015038 614.80 1353.4 1.8986 2.6457 2.9949 2144.3 -0.0049375 368.59 0.27469
229.38 71398. undefined 617.45 1357.7 1.9039 665.00 0.0015038 617.45 1357.7 1.9039 2.6495 2.9983 2145.2 -0.0049319 368.49 0.27502 665.00 0.0015038 617.45 1357.7 1.9039 2.6495 2.9983 2145.2 -0.0049319 368.49 0.27502
230.38 71560. undefined 620.10 1362.0 1.9092 665.00 0.0015038 620.10 1362.0 1.9092 2.6532 3.0018 2146.0 -0.0049262 368.39 0.27535 665.00 0.0015038 620.10 1362.0 1.9092 2.6532 3.0018 2146.0 -0.0049262 368.39 0.27535
231.38 71722. undefined 622.76 1366.4 1.9145 665.00 0.0015038 622.76 1366.4 1.9145 2.6569 3.0052 2146.9 -0.0049206 368.29 0.27568 665.00 0.0015038 622.76 1366.4 1.9145 2.6569 3.0052 2146.9 -0.0049206 368.29 0.27568
232.38 71883. undefined 625.42 1370.7 1.9197 665.00 0.0015038 625.42 1370.7 1.9197 2.6607 3.0086 2147.8 -0.0049150 368.19 0.27601 665.00 0.0015038 625.42 1370.7 1.9197 2.6607 3.0086 2147.8 -0.0049150 368.19 0.27601
233.38 72045. undefined 628.08 1375.0 1.9250 665.00 0.0015038 628.08 1375.0 1.9250 2.6644 3.0120 2148.7 -0.0049095 368.10 0.27635 665.00 0.0015038 628.08 1375.0 1.9250 2.6644 3.0120 2148.7 -0.0049095 368.10 0.27635
234.38 72206. undefined 630.75 1379.4 1.9302 665.00 0.0015038 630.75 1379.4 1.9302 2.6681 3.0154 2149.6 -0.0049039 368.00 0.27668 665.00 0.0015038 630.75 1379.4 1.9302 2.6681 3.0154 2149.6 -0.0049039 368.00 0.27668
235.38 72367. undefined 633.42 1383.7 1.9355 665.00 0.0015038 633.42 1383.7 1.9355 2.6718 3.0188 2150.5 -0.0048984 367.90 0.27701 665.00 0.0015038 633.42 1383.7 1.9355 2.6718 3.0188 2150.5 -0.0048984 367.90 0.27701
236.38 72529. undefined 636.09 1388.1 1.9407 665.00 0.0015038 636.09 1388.1 1.9407 2.6755 3.0222 2151.4 -0.0048928 367.81 0.27735 665.00 0.0015038 636.09 1388.1 1.9407 2.6755 3.0222 2151.4 -0.0048928 367.81 0.27735
237.38 72690. undefined 638.77 1392.4 1.9460 665.00 0.0015038 638.77 1392.4 1.9460 2.6792 3.0256 2152.2 -0.0048873 367.71 0.27768 665.00 0.0015038 638.77 1392.4 1.9460 2.6792 3.0256 2152.2 -0.0048873 367.71 0.27768
238.38 72850. undefined 641.45 1396.8 1.9512 665.00 0.0015038 641.45 1396.8 1.9512 2.6828 3.0290 2153.1 -0.0048818 367.62 0.27801 665.00 0.0015038 641.45 1396.8 1.9512 2.6828 3.0290 2153.1 -0.0048818 367.62 0.27801
239.38 73011. undefined 644.13 1401.1 1.9565 665.00 0.0015038 644.13 1401.1 1.9565 2.6865 3.0324 2154.0 -0.0048764 367.53 0.27835 665.00 0.0015038 644.13 1401.1 1.9565 2.6865 3.0324 2154.0 -0.0048764 367.53 0.27835
240.38 73172. undefined 646.82 1405.5 1.9617 665.00 0.0015038 646.82 1405.5 1.9617 2.6902 3.0358 2154.9 -0.0048709 367.43 0.27868 665.00 0.0015038 646.82 1405.5 1.9617 2.6902 3.0358 2154.9 -0.0048709 367.43 0.27868
241.38 73332. undefined 649.51 1409.8 1.9670 665.00 0.0015038 649.51 1409.8 1.9670 2.6939 3.0391 2155.7 -0.0048655 367.34 0.27902 665.00 0.0015038 649.51 1409.8 1.9670 2.6939 3.0391 2155.7 -0.0048655 367.34 0.27902
242.38 73492. undefined 652.21 1414.2 1.9722 665.00 0.0015038 652.21 1414.2 1.9722 2.6975 3.0425 2156.6 -0.0048601 367.25 0.27935 665.00 0.0015038 652.21 1414.2 1.9722 2.6975 3.0425 2156.6 -0.0048601 367.25 0.27935
243.38 73653. undefined 654.91 1418.5 1.9774 665.00 0.0015038 654.91 1418.5 1.9774 2.7012 3.0459 2157.5 -0.0048547 367.16 0.27969 665.00 0.0015038 654.91 1418.5 1.9774 2.7012 3.0459 2157.5 -0.0048547 367.16 0.27969
244.38 73813. undefined 657.61 1422.9 1.9827 665.00 0.0015038 657.61 1422.9 1.9827 2.7049 3.0492 2158.4 -0.0048493 367.07 0.28002 665.00 0.0015038 657.61 1422.9 1.9827 2.7049 3.0492 2158.4 -0.0048493 367.07 0.28002
245.38 73972. undefined 660.32 1427.3 1.9879 665.00 0.0015038 660.32 1427.3 1.9879 2.7085 3.0526 2159.2 -0.0048440 366.98 0.28036 665.00 0.0015038 660.32 1427.3 1.9879 2.7085 3.0526 2159.2 -0.0048440 366.98 0.28036
246.38 74132. undefined 663.03 1431.6 1.9931 665.00 0.0015038 663.03 1431.6 1.9931 2.7121 3.0560 2160.1 -0.0048386 366.89 0.28070 665.00 0.0015038 663.03 1431.6 1.9931 2.7121 3.0560 2160.1 -0.0048386 366.89 0.28070
247.38 74292. undefined 665.74 1436.0 1.9983 665.00 0.0015038 665.74 1436.0 1.9983 2.7158 3.0593 2161.0 -0.0048333 366.80 0.28103 665.00 0.0015038 665.74 1436.0 1.9983 2.7158 3.0593 2161.0 -0.0048333 366.80 0.28103
248.38 74451. undefined 668.46 1440.4 2.0035 665.00 0.0015038 668.46 1440.4 2.0035 2.7194 3.0627 2161.9 -0.0048280 366.72 0.28137 665.00 0.0015038 668.46 1440.4 2.0035 2.7194 3.0627 2161.9 -0.0048280 366.72 0.28137
249.38 74611. undefined 671.18 1444.7 2.0088 665.00 0.0015038 671.18 1444.7 2.0088 2.7230 3.0660 2162.7 -0.0048227 366.63 0.28171 665.00 0.0015038 671.18 1444.7 2.0088 2.7230 3.0660 2162.7 -0.0048227 366.63 0.28171
250.38 74770. undefined 673.91 1449.1 2.0140 665.00 0.0015038 673.91 1449.1 2.0140 2.7267 3.0693 2163.6 -0.0048175 366.54 0.28205 665.00 0.0015038 673.91 1449.1 2.0140 2.7267 3.0693 2163.6 -0.0048175 366.54 0.28205
251.38 74929. undefined 676.63 1453.5 2.0192 665.00 0.0015038 676.63 1453.5 2.0192 2.7303 3.0727 2164.5 -0.0048122 366.46 0.28238 665.00 0.0015038 676.63 1453.5 2.0192 2.7303 3.0727 2164.5 -0.0048122 366.46 0.28238
252.38 75088. undefined 679.37 1457.9 2.0244 665.00 0.0015038 679.37 1457.9 2.0244 2.7339 3.0760 2165.3 -0.0048070 366.37 0.28272 665.00 0.0015038 679.37 1457.9 2.0244 2.7339 3.0760 2165.3 -0.0048070 366.37 0.28272
253.38 75247. undefined 682.10 1462.3 2.0296 665.00 0.0015038 682.10 1462.3 2.0296 2.7375 3.0793 2166.2 -0.0048018 366.29 0.28306 665.00 0.0015038 682.10 1462.3 2.0296 2.7375 3.0793 2166.2 -0.0048018 366.29 0.28306
254.38 75405. undefined 684.84 1466.6 2.0348 665.00 0.0015038 684.84 1466.6 2.0348 2.7411 3.0826 2167.1 -0.0047966 366.20 0.28340 665.00 0.0015038 684.84 1466.6 2.0348 2.7411 3.0826 2167.1 -0.0047966 366.20 0.28340
255.38 75564. undefined 687.58 1471.0 2.0400 665.00 0.0015038 687.58 1471.0 2.0400 2.7447 3.0860 2167.9 -0.0047914 366.12 0.28374 665.00 0.0015038 687.58 1471.0 2.0400 2.7447 3.0860 2167.9 -0.0047914 366.12 0.28374
256.38 75722. undefined 690.33 1475.4 2.0452 665.00 0.0015038 690.33 1475.4 2.0452 2.7483 3.0893 2168.8 -0.0047862 366.04 0.28408 665.00 0.0015038 690.33 1475.4 2.0452 2.7483 3.0893 2168.8 -0.0047862 366.04 0.28408
257.38 75880. undefined 693.08 1479.8 2.0503 665.00 0.0015038 693.08 1479.8 2.0503 2.7519 3.0926 2169.7 -0.0047811 365.95 0.28442 665.00 0.0015038 693.08 1479.8 2.0503 2.7519 3.0926 2169.7 -0.0047811 365.95 0.28442
258.38 76038. undefined 695.83 1484.2 2.0555 665.00 0.0015038 695.83 1484.2 2.0555 2.7555 3.0959 2170.5 -0.0047759 365.87 0.28476 665.00 0.0015038 695.83 1484.2 2.0555 2.7555 3.0959 2170.5 -0.0047759 365.87 0.28476
259.38 76196. undefined 698.59 1488.6 2.0607 665.00 0.0015038 698.59 1488.6 2.0607 2.7591 3.0992 2171.4 -0.0047708 365.79 0.28510 665.00 0.0015038 698.59 1488.6 2.0607 2.7591 3.0992 2171.4 -0.0047708 365.79 0.28510
260.38 76354. undefined 701.35 1493.0 2.0659 665.00 0.0015038 701.35 1493.0 2.0659 2.7626 3.1025 2172.2 -0.0047657 365.71 0.28544 665.00 0.0015038 701.35 1493.0 2.0659 2.7626 3.1025 2172.2 -0.0047657 365.71 0.28544
261.38 76512. undefined 704.12 1497.4 2.0711 665.00 0.0015038 704.12 1497.4 2.0711 2.7662 3.1058 2173.1 -0.0047607 365.63 0.28578 665.00 0.0015038 704.12 1497.4 2.0711 2.7662 3.1058 2173.1 -0.0047607 365.63 0.28578
262.38 76670. undefined 706.89 1501.8 2.0762 665.00 0.0015038 706.89 1501.8 2.0762 2.7698 3.1091 2174.0 -0.0047556 365.55 0.28612 665.00 0.0015038 706.89 1501.8 2.0762 2.7698 3.1091 2174.0 -0.0047556 365.55 0.28612
263.38 76827. undefined 709.66 1506.2 2.0814 665.00 0.0015038 709.66 1506.2 2.0814 2.7733 3.1123 2174.8 -0.0047506 365.47 0.28646 665.00 0.0015038 709.66 1506.2 2.0814 2.7733 3.1123 2174.8 -0.0047506 365.47 0.28646
264.38 76984. undefined 712.43 1510.6 2.0866 665.00 0.0015038 712.43 1510.6 2.0866 2.7769 3.1156 2175.7 -0.0047455 365.39 0.28680 665.00 0.0015038 712.43 1510.6 2.0866 2.7769 3.1156 2175.7 -0.0047455 365.39 0.28680
265.38 77142. undefined 715.21 1515.0 2.0917 665.00 0.0015038 715.21 1515.0 2.0917 2.7804 3.1189 2176.5 -0.0047405 365.31 0.28714 665.00 0.0015038 715.21 1515.0 2.0917 2.7804 3.1189 2176.5 -0.0047405 365.31 0.28714
266.38 77299. undefined 717.99 1519.4 2.0969 665.00 0.0015038 717.99 1519.4 2.0969 2.7840 3.1222 2177.4 -0.0047355 365.24 0.28749 665.00 0.0015038 717.99 1519.4 2.0969 2.7840 3.1222 2177.4 -0.0047355 365.24 0.28749
267.38 77456. undefined 720.78 1523.8 2.1021 665.00 0.0015038 720.78 1523.8 2.1021 2.7875 3.1254 2178.2 -0.0047305 365.16 0.28783 665.00 0.0015038 720.78 1523.8 2.1021 2.7875 3.1254 2178.2 -0.0047305 365.16 0.28783
268.38 77613. undefined 723.57 1528.3 2.1072 665.00 0.0015038 723.57 1528.3 2.1072 2.7910 3.1287 2179.1 -0.0047256 365.08 0.28817 665.00 0.0015038 723.57 1528.3 2.1072 2.7910 3.1287 2179.1 -0.0047256 365.08 0.28817
269.38 77769. undefined 726.36 1532.7 2.1124 665.00 0.0015038 726.36 1532.7 2.1124 2.7945 3.1320 2179.9 -0.0047206 365.01 0.28851 665.00 0.0015038 726.36 1532.7 2.1124 2.7945 3.1320 2179.9 -0.0047206 365.01 0.28851
270.38 77926. undefined 729.16 1537.1 2.1175 665.00 0.0015038 729.16 1537.1 2.1175 2.7981 3.1352 2180.8 -0.0047157 364.93 0.28886 665.00 0.0015038 729.16 1537.1 2.1175 2.7981 3.1352 2180.8 -0.0047157 364.93 0.28886
271.38 78082. undefined 731.96 1541.5 2.1227 665.00 0.0015038 731.96 1541.5 2.1227 2.8016 3.1385 2181.6 -0.0047108 364.86 0.28920 665.00 0.0015038 731.96 1541.5 2.1227 2.8016 3.1385 2181.6 -0.0047108 364.86 0.28920
272.38 78239. undefined 734.76 1545.9 2.1278 665.00 0.0015038 734.76 1545.9 2.1278 2.8051 3.1417 2182.5 -0.0047059 364.78 0.28954 665.00 0.0015038 734.76 1545.9 2.1278 2.8051 3.1417 2182.5 -0.0047059 364.78 0.28954
273.38 78395. undefined 737.57 1550.4 2.1330 665.00 0.0015038 737.57 1550.4 2.1330 2.8086 3.1450 2183.3 -0.0047010 364.71 0.28989 665.00 0.0015038 737.57 1550.4 2.1330 2.8086 3.1450 2183.3 -0.0047010 364.71 0.28989
274.38 78551. undefined 740.38 1554.8 2.1381 665.00 0.0015038 740.38 1554.8 2.1381 2.8121 3.1482 2184.2 -0.0046961 364.63 0.29023 665.00 0.0015038 740.38 1554.8 2.1381 2.8121 3.1482 2184.2 -0.0046961 364.63 0.29023
275.38 78707. undefined 743.19 1559.2 2.1432 665.00 0.0015038 743.19 1559.2 2.1432 2.8156 3.1514 2185.0 -0.0046913 364.56 0.29058 665.00 0.0015038 743.19 1559.2 2.1432 2.8156 3.1514 2185.0 -0.0046913 364.56 0.29058
276.38 78862. undefined 746.01 1563.7 2.1484 665.00 0.0015038 746.01 1563.7 2.1484 2.8191 3.1547 2185.9 -0.0046865 364.49 0.29092 665.00 0.0015038 746.01 1563.7 2.1484 2.8191 3.1547 2185.9 -0.0046865 364.49 0.29092
277.38 79018. undefined 748.83 1568.1 2.1535 665.00 0.0015038 748.83 1568.1 2.1535 2.8226 3.1579 2186.7 -0.0046816 364.42 0.29127 665.00 0.0015038 748.83 1568.1 2.1535 2.8226 3.1579 2186.7 -0.0046816 364.42 0.29127
278.38 79174. undefined 751.65 1572.5 2.1586 665.00 0.0015038 751.65 1572.5 2.1586 2.8261 3.1611 2187.6 -0.0046768 364.35 0.29161 665.00 0.0015038 751.65 1572.5 2.1586 2.8261 3.1611 2187.6 -0.0046768 364.35 0.29161
279.38 79329. undefined 754.48 1577.0 2.1637 665.00 0.0015038 754.48 1577.0 2.1637 2.8295 3.1643 2188.4 -0.0046721 364.27 0.29196 665.00 0.0015038 754.48 1577.0 2.1637 2.8295 3.1643 2188.4 -0.0046721 364.27 0.29196
280.38 79484. undefined 757.31 1581.4 2.1689 665.00 0.0015038 757.31 1581.4 2.1689 2.8330 3.1675 2189.3 -0.0046673 364.20 0.29231 665.00 0.0015038 757.31 1581.4 2.1689 2.8330 3.1675 2189.3 -0.0046673 364.20 0.29231
281.38 79640. undefined 760.15 1585.9 2.1740 665.00 0.0015038 760.15 1585.9 2.1740 2.8365 3.1707 2190.1 -0.0046625 364.13 0.29265 665.00 0.0015038 760.15 1585.9 2.1740 2.8365 3.1707 2190.1 -0.0046625 364.13 0.29265
282.38 79795. undefined 762.99 1590.3 2.1791 665.00 0.0015038 762.99 1590.3 2.1791 2.8399 3.1739 2190.9 -0.0046578 364.06 0.29288 665.00 0.0015038 762.99 1590.3 2.1791 2.8399 3.1739 2190.9 -0.0046578 364.06 0.29288
283.38 79950. undefined 765.83 1594.7 2.1842 665.00 0.0015038 765.83 1594.7 2.1842 2.8434 3.1771 2191.8 -0.0046531 363.99 0.29322 665.00 0.0015038 765.83 1594.7 2.1842 2.8434 3.1771 2191.8 -0.0046531 363.99 0.29322
284.38 80104. undefined 768.67 1599.2 2.1893 665.00 0.0015038 768.67 1599.2 2.1893 2.8468 3.1803 2192.6 -0.0046484 363.93 0.29357 665.00 0.0015038 768.67 1599.2 2.1893 2.8468 3.1803 2192.6 -0.0046484 363.93 0.29357
285.38 80259. undefined 771.52 1603.7 2.1944 665.00 0.0015038 771.52 1603.7 2.1944 2.8503 3.1835 2193.5 -0.0046437 363.86 0.29392 665.00 0.0015038 771.52 1603.7 2.1944 2.8503 3.1835 2193.5 -0.0046437 363.86 0.29392
286.38 80414. undefined 774.37 1608.1 2.1995 665.00 0.0015038 774.37 1608.1 2.1995 2.8537 3.1867 2194.3 -0.0046390 363.79 0.29427 665.00 0.0015038 774.37 1608.1 2.1995 2.8537 3.1867 2194.3 -0.0046390 363.79 0.29427
287.38 80568. undefined 777.23 1612.6 2.2046 665.00 0.0015038 777.23 1612.6 2.2046 2.8572 3.1899 2195.1 -0.0046343 363.72 0.29461 665.00 0.0015038 777.23 1612.6 2.2046 2.8572 3.1899 2195.1 -0.0046343 363.72 0.29461
288.38 80722. undefined 780.09 1617.0 2.2097 665.00 0.0015038 780.09 1617.0 2.2097 2.8606 3.1931 2196.0 -0.0046297 363.65 0.29496 665.00 0.0015038 780.09 1617.0 2.2097 2.8606 3.1931 2196.0 -0.0046297 363.65 0.29496
289.38 80877. undefined 782.95 1621.5 2.2148 665.00 0.0015038 782.95 1621.5 2.2148 2.8640 3.1962 2196.8 -0.0046250 363.59 0.29531 665.00 0.0015038 782.95 1621.5 2.2148 2.8640 3.1962 2196.8 -0.0046250 363.59 0.29531
290.38 81031. undefined 785.81 1625.9 2.2199 665.00 0.0015038 785.81 1625.9 2.2199 2.8674 3.1994 2197.6 -0.0046204 363.52 0.29566 665.00 0.0015038 785.81 1625.9 2.2199 2.8674 3.1994 2197.6 -0.0046204 363.52 0.29566
291.38 81185. undefined 788.68 1630.4 2.2250 665.00 0.0015038 788.68 1630.4 2.2250 2.8708 3.2026 2198.5 -0.0046158 363.46 0.29601 665.00 0.0015038 788.68 1630.4 2.2250 2.8708 3.2026 2198.5 -0.0046158 363.46 0.29601
292.38 81339. undefined 791.56 1634.9 2.2301 665.00 0.0015038 791.56 1634.9 2.2301 2.8743 3.2057 2199.3 -0.0046112 363.39 0.29636 665.00 0.0015038 791.56 1634.9 2.2301 2.8743 3.2057 2199.3 -0.0046112 363.39 0.29636
293.38 81492. undefined 794.43 1639.3 2.2351 665.00 0.0015038 794.43 1639.3 2.2351 2.8777 3.2089 2200.1 -0.0046066 363.33 0.29671 665.00 0.0015038 794.43 1639.3 2.2351 2.8777 3.2089 2200.1 -0.0046066 363.33 0.29671
294.38 81646. undefined 797.31 1643.8 2.2402 665.00 0.0015038 797.31 1643.8 2.2402 2.8811 3.2121 2201.0 -0.0046021 363.26 0.29706 665.00 0.0015038 797.31 1643.8 2.2402 2.8811 3.2121 2201.0 -0.0046021 363.26 0.29706
295.38 81799. undefined 800.19 1648.3 2.2453 665.00 0.0015038 800.19 1648.3 2.2453 2.8845 3.2152 2201.8 -0.0045975 363.20 0.29741 665.00 0.0015038 800.19 1648.3 2.2453 2.8845 3.2152 2201.8 -0.0045975 363.20 0.29741
296.38 81953. undefined 803.08 1652.8 2.2504 665.00 0.0015038 803.08 1652.8 2.2504 2.8878 3.2183 2202.6 -0.0045930 363.13 0.29776 665.00 0.0015038 803.08 1652.8 2.2504 2.8878 3.2183 2202.6 -0.0045930 363.13 0.29776
297.38 82106. undefined 805.97 1657.2 2.2554 665.00 0.0015038 805.97 1657.2 2.2554 2.8912 3.2215 2203.4 -0.0045885 363.07 0.29811 665.00 0.0015038 805.97 1657.2 2.2554 2.8912 3.2215 2203.4 -0.0045885 363.07 0.29811
298.38 82259. undefined 808.86 1661.7 2.2605 665.00 0.0015038 808.86 1661.7 2.2605 2.8946 3.2246 2204.3 -0.0045840 363.01 0.29846 665.00 0.0015038 808.86 1661.7 2.2605 2.8946 3.2246 2204.3 -0.0045840 363.01 0.29846
299.38 82412. undefined 811.76 1666.2 2.2656 665.00 0.0015038 811.76 1666.2 2.2656 2.8980 3.2278 2205.1 -0.0045795 362.94 0.29881 665.00 0.0015038 811.76 1666.2 2.2656 2.8980 3.2278 2205.1 -0.0045795 362.94 0.29881
300.38 82565. undefined 814.66 1670.7 2.2706 665.00 0.0015038 814.66 1670.7 2.2706 2.9014 3.2309 2205.9 -0.0045750 362.88 0.29916 665.00 0.0015038 814.66 1670.7 2.2706 2.9014 3.2309 2205.9 -0.0045750 362.88 0.29916