Temperature (C) Pressure (psia) Quality (l+v) Internal Energy (l+v, kJ/kg) Enthalpy (l+v, kJ/kg) Entropy (l+v, J/g*K) Density (l, kg/m3) Volume (l, m3/kg) Internal Energy (l, kJ/kg) Enthalpy (l, kJ/kg) Entropy (l, J/g*K) Cv (l, J/g*K) Cp (l, J/g*K) Sound Spd. (l, m/s) Joule-Thomson (l, F/psia) Viscosity (l, uPa*s) Therm. Cond. (l, W/m*K) Density (v, kg/m3) Volume (v, m3/kg) Internal Energy (v, kJ/kg) Enthalpy (v, kJ/kg) Entropy (v, J/g*K) Cv (v, J/g*K) Cp (v, J/g*K) Sound Spd. (v, m/s) Joule-Thomson (v, F/psia) Viscosity (v, uPa*s) Therm. Cond. (v, W/m*K)
-187.62 2.4953e-08 1.2531e-12 -196.64 -196.64 -1.3959 733.13 0.0013640 -196.64 -196.64 -1.3959 1.3553 1.9158 2136.4 -0.0077592 10960. 0.20792 1.0669e-08 9.3732e+07 350.13 366.26 5.1858 0.69067 0.87923 143.28 6.1051 2.3259 0.0017061
-186.62 3.7339e-08 1.8228e-12 -194.73 -194.73 -1.3736 732.08 0.0013660 -194.73 -194.73 -1.3736 1.3539 1.9166 2129.6 -0.0077546 10073. 0.20765 1.5780e-08 6.3371e+07 350.82 367.14 5.1200 0.69462 0.88317 144.03 5.9178 2.3534 0.0017533
-185.62 5.5322e-08 2.6248e-12 -192.81 -192.81 -1.3516 731.04 0.0013679 -192.81 -192.81 -1.3516 1.3525 1.9174 2122.9 -0.0077498 9276.1 0.20737 2.3112e-08 4.3267e+07 351.52 368.02 5.0561 0.69857 0.88713 144.77 5.7383 2.3808 0.0018007
-184.62 8.1182e-08 3.7428e-12 -190.89 -190.89 -1.3298 730.00 0.0013699 -190.89 -190.89 -1.3298 1.3513 1.9182 2116.1 -0.0077448 8557.8 0.20708 3.3533e-08 2.9821e+07 352.22 368.91 4.9939 0.70253 0.89108 145.51 5.5662 2.4083 0.0018485
-183.62 1.1803e-07 5.2869e-12 -188.97 -188.97 -1.3083 728.96 0.0013718 -188.97 -188.97 -1.3083 1.3501 1.9191 2109.3 -0.0077395 7909.8 0.20678 4.8211e-08 2.0742e+07 352.92 369.81 4.9333 0.70648 0.89504 146.24 5.4011 2.4357 0.0018965
-182.62 1.7009e-07 7.3998e-12 -187.05 -187.05 -1.2869 727.92 0.0013738 -187.05 -187.05 -1.2869 1.3490 1.9201 2102.5 -0.0077340 7324.3 0.20647 6.8704e-08 1.4555e+07 353.63 370.70 4.8744 0.71043 0.89899 146.97 5.2426 2.4632 0.0019448
-181.62 2.4299e-07 1.0266e-11 -185.13 -185.13 -1.2658 726.88 0.0013757 -185.13 -185.13 -1.2658 1.3480 1.9210 2095.7 -0.0077283 6794.5 0.20616 9.7079e-08 1.0301e+07 354.35 371.60 4.8170 0.71438 0.90294 147.69 5.0904 2.4906 0.0019934
-180.62 3.4425e-07 1.4120e-11 -183.21 -183.21 -1.2450 725.85 0.0013777 -183.21 -183.21 -1.2450 1.3470 1.9220 2088.9 -0.0077225 6314.4 0.20584 1.3605e-07 7.3504e+06 355.06 372.51 4.7612 0.71833 0.90688 148.41 4.9442 2.5181 0.0020423
-179.62 4.8378e-07 1.9259e-11 -181.29 -181.29 -1.2243 724.81 0.0013797 -181.29 -181.29 -1.2243 1.3461 1.9231 2082.0 -0.0077164 5878.8 0.20551 1.8915e-07 5.2868e+06 355.78 373.42 4.7068 0.72227 0.91082 149.13 4.8038 2.5456 0.0020915
-178.62 6.7459e-07 2.6057e-11 -179.37 -179.37 -1.2038 723.78 0.0013816 -179.37 -179.37 -1.2038 1.3453 1.9241 2075.2 -0.0077102 5482.9 0.20517 2.6096e-07 3.8320e+06 356.51 374.33 4.6538 0.72620 0.91475 149.84 4.6688 2.5731 0.0021410
-177.62 9.3358e-07 3.4978e-11 -177.44 -177.44 -1.1836 722.75 0.0013836 -177.44 -177.44 -1.1836 1.3445 1.9252 2068.4 -0.0077039 5122.6 0.20483 3.5737e-07 2.7982e+06 357.23 375.25 4.6022 0.73012 0.91867 150.54 4.5390 2.6005 0.0021907
-176.62 1.2826e-06 4.6597e-11 -175.52 -175.52 -1.1635 721.72 0.0013856 -175.52 -175.52 -1.1635 1.3437 1.9263 2061.5 -0.0076973 4794.1 0.20447 4.8588e-07 2.0581e+06 357.97 376.17 4.5519 0.73403 0.92258 151.25 4.4142 2.6280 0.0022408
-175.62 1.7496e-06 6.1615e-11 -173.59 -173.59 -1.1437 720.69 0.0013876 -173.59 -173.59 -1.1437 1.3430 1.9274 2054.7 -0.0076907 4494.3 0.20411 6.5601e-07 1.5244e+06 358.70 377.09 4.5029 0.73792 0.92648 151.95 4.2941 2.6555 0.0022912
-174.62 2.3705e-06 8.0886e-11 -171.66 -171.66 -1.1240 719.66 0.0013895 -171.66 -171.66 -1.1240 1.3423 1.9286 2047.9 -0.0076838 4220.2 0.20375 8.7976e-07 1.1367e+06 359.44 378.02 4.4551 0.74181 0.93036 152.64 4.1784 2.6830 0.0023418
-173.62 3.1903e-06 1.0544e-10 -169.73 -169.73 -1.1045 718.64 0.0013915 -169.73 -169.73 -1.1045 1.3417 1.9298 2041.0 -0.0076769 3969.3 0.20338 1.1721e-06 8.5314e+05 360.19 378.95 4.4085 0.74568 0.93423 153.33 4.0671 2.7105 0.0023928
-172.62 4.2661e-06 1.3651e-10 -167.80 -167.80 -1.0852 717.61 0.0013935 -167.80 -167.80 -1.0852 1.3411 1.9310 2034.2 -0.0076698 3739.3 0.20300 1.5518e-06 6.4441e+05 360.93 379.89 4.3631 0.74953 0.93809 154.02 3.9599 2.7379 0.0024440
-171.62 5.6692e-06 1.7555e-10 -165.87 -165.87 -1.0661 716.58 0.0013955 -165.87 -165.87 -1.0661 1.3405 1.9322 2027.3 -0.0076625 3528.0 0.20261 2.0419e-06 4.8974e+05 361.69 380.83 4.3188 0.75337 0.94193 154.71 3.8566 2.7654 0.0024955
-170.62 7.4884e-06 2.2428e-10 -163.94 -163.94 -1.0472 715.56 0.0013975 -163.94 -163.94 -1.0472 1.3400 1.9334 2020.5 -0.0076552 3333.8 0.20222 2.6708e-06 3.7442e+05 362.44 381.77 4.2755 0.75720 0.94575 155.39 3.7570 2.7929 0.0025473
-169.62 9.8334e-06 2.8472e-10 -162.00 -162.00 -1.0284 714.54 0.0013995 -162.00 -162.00 -1.0284 1.3395 1.9347 2013.6 -0.0076477 3154.9 0.20182 3.4733e-06 2.8791e+05 363.20 382.72 4.2334 0.76100 0.94956 156.07 3.6609 2.8204 0.0025994
-168.62 1.2839e-05 3.5920e-10 -160.07 -160.07 -1.0098 713.52 0.0014015 -160.07 -160.07 -1.0098 1.3390 1.9359 2006.8 -0.0076401 2989.9 0.20141 4.4917e-06 2.2263e+05 363.96 383.67 4.1922 0.76479 0.95335 156.74 3.5683 2.8479 0.0026518
-167.62 1.6672e-05 4.5040e-10 -158.13 -158.13 -0.99134 712.49 0.0014035 -158.13 -158.13 -0.99134 1.3386 1.9372 2000.0 -0.0076323 2837.5 0.20100 5.7771e-06 1.7310e+05 364.73 384.63 4.1521 0.76856 0.95712 157.41 3.4790 2.8754 0.0027045
-166.62 2.1533e-05 5.6137e-10 -156.19 -156.19 -0.97306 711.47 0.0014055 -156.19 -156.19 -0.97306 1.3382 1.9385 1993.1 -0.0076245 2696.5 0.20058 7.3914e-06 1.3529e+05 365.50 385.59 4.1129 0.77232 0.96087 158.08 3.3927 2.9029 0.0027575
-165.62 2.7666e-05 6.9558e-10 -154.25 -154.25 -0.95494 710.45 0.0014075 -154.25 -154.25 -0.95494 1.3378 1.9398 1986.3 -0.0076165 2566.0 0.20016 9.4084e-06 1.0629e+05 366.27 386.55 4.0746 0.77605 0.96460 158.75 3.3095 2.9304 0.0028108
-164.62 3.5367e-05 8.5692e-10 -152.31 -152.31 -0.93698 709.44 0.0014096 -152.31 -152.31 -0.93698 1.3375 1.9411 1979.4 -0.0076084 2444.9 0.19973 1.1916e-05 83918. 367.05 387.52 4.0372 0.77976 0.96832 159.41 3.2291 2.9579 0.0028643
-163.62 4.4989e-05 1.0497e-09 -150.37 -150.37 -0.91917 708.42 0.0014116 -150.37 -150.37 -0.91917 1.3371 1.9424 1972.6 -0.0076002 2332.3 0.19930 1.5020e-05 66577. 367.83 388.49 4.0008 0.78346 0.97201 160.07 3.1514 2.9854 0.0029182
-162.62 5.6956e-05 1.2786e-09 -148.43 -148.43 -0.90151 707.40 0.0014136 -148.43 -148.43 -0.90151 1.3368 1.9437 1965.8 -0.0075919 2227.7 0.19886 1.8844e-05 53068. 368.62 389.46 3.9651 0.78713 0.97569 160.72 3.0764 3.0129 0.0029723
-161.62 7.1773e-05 1.5490e-09 -146.48 -146.48 -0.88400 706.38 0.0014157 -146.48 -146.48 -0.88400 1.3365 1.9451 1959.0 -0.0075834 2130.2 0.19841 2.3533e-05 42494. 369.41 390.44 3.9304 0.79079 0.97935 161.38 3.0038 3.0404 0.0030268
-160.62 9.0036e-05 1.8662e-09 -144.54 -144.54 -0.86663 705.37 0.0014177 -144.54 -144.54 -0.86663 1.3363 1.9465 1952.1 -0.0075748 2039.2 0.19796 2.9258e-05 34178. 370.20 391.42 3.8964 0.79443 0.98298 162.03 2.9337 3.0679 0.0030815
-159.62 0.00011245 2.2362e-09 -142.59 -142.59 -0.84940 704.35 0.0014197 -142.59 -142.59 -0.84940 1.3360 1.9478 1945.3 -0.0075661 1954.2 0.19751 3.6221e-05 27609. 371.00 392.40 3.8632 0.79805 0.98660 162.68 2.8658 3.0955 0.0031365
-158.62 0.00013985 2.6653e-09 -140.64 -140.64 -0.83231 703.34 0.0014218 -140.64 -140.64 -0.83231 1.3358 1.9492 1938.5 -0.0075573 1874.8 0.19705 4.4652e-05 22395. 371.80 393.39 3.8307 0.80164 0.99020 163.32 2.8002 3.1230 0.0031918
-157.62 0.00017320 3.1598e-09 -138.69 -138.69 -0.81536 702.32 0.0014238 -138.69 -138.69 -0.81536 1.3356 1.9506 1931.7 -0.0075484 1800.3 0.19658 5.4822e-05 18241. 372.60 394.38 3.7990 0.80522 0.99378 163.96 2.7367 3.1505 0.0032474
-156.62 0.00021364 3.7262e-09 -136.74 -136.74 -0.79854 701.31 0.0014259 -136.74 -136.74 -0.79854 1.3354 1.9520 1924.9 -0.0075393 1730.5 0.19611 6.7040e-05 14916. 373.41 395.38 3.7680 0.80878 0.99734 164.60 2.6752 3.1780 0.0033033
-155.62 0.00026248 4.3706e-09 -134.79 -134.79 -0.78185 700.30 0.0014280 -134.79 -134.79 -0.78185 1.3352 1.9534 1918.1 -0.0075302 1664.9 0.19564 8.1666e-05 12245. 374.22 396.38 3.7377 0.81232 1.0009 165.24 2.6157 3.2055 0.0033595
-154.62 0.00032125 5.0992e-09 -132.83 -132.83 -0.76530 699.29 0.0014300 -132.83 -132.83 -0.76530 1.3350 1.9548 1911.3 -0.0075209 1603.3 0.19516 9.9109e-05 10090. 375.03 397.38 3.7081 0.81585 1.0044 165.87 2.5580 3.2330 0.0034160
-153.62 0.00039171 5.9173e-09 -130.88 -130.88 -0.74887 698.27 0.0014321 -130.88 -130.88 -0.74887 1.3349 1.9563 1904.5 -0.0075114 1545.3 0.19468 0.00011984 8344.6 375.85 398.39 3.6792 0.81935 1.0079 166.50 2.5022 3.2606 0.0034727
-152.62 0.00047590 6.8293e-09 -128.92 -128.92 -0.73256 697.26 0.0014342 -128.92 -128.92 -0.73256 1.3348 1.9577 1897.8 -0.0075019 1490.6 0.19419 0.00014439 6925.9 376.67 399.40 3.6509 0.82284 1.0114 167.13 2.4481 3.2881 0.0035298
-151.62 0.00057613 7.8384e-09 -126.96 -126.96 -0.71638 696.25 0.0014363 -126.96 -126.96 -0.71638 1.3346 1.9592 1891.0 -0.0074922 1438.9 0.19370 0.00017336 5768.4 377.49 400.41 3.6232 0.82631 1.0149 167.76 2.3957 3.3156 0.0035872
-150.62 0.00069507 8.9461e-09 -125.00 -125.00 -0.70032 695.24 0.0014384 -125.00 -125.00 -0.70032 1.3345 1.9606 1884.2 -0.0074824 1390.2 0.19320 0.00020744 4820.7 378.32 401.42 3.5962 0.82976 1.0183 168.38 2.3448 3.3431 0.0036448
-149.62 0.00083574 1.0151e-08 -123.04 -123.04 -0.68438 694.23 0.0014404 -123.04 -123.04 -0.68438 1.3345 1.9621 1877.4 -0.0074724 1344.0 0.19270 0.00024740 4042.0 379.15 402.44 3.5697 0.83319 1.0218 169.00 2.2956 3.3706 0.0037027
-148.62 0.0010016 1.1451e-08 -121.08 -121.08 -0.66855 693.22 0.0014425 -121.08 -121.08 -0.66855 1.3344 1.9636 1870.7 -0.0074623 1300.3 0.19220 0.00029412 3400.0 379.99 403.47 3.5438 0.83661 1.0252 169.62 2.2478 3.3982 0.0037610
-147.62 0.0011965 1.2836e-08 -119.11 -119.11 -0.65284 692.21 0.0014447 -119.11 -119.11 -0.65284 1.3343 1.9651 1863.9 -0.0074521 1258.9 0.19169 0.00034856 2869.0 380.83 404.49 3.5185 0.84001 1.0286 170.24 2.2014 3.4257 0.0038195
-146.62 0.0014249 1.4296e-08 -117.15 -117.15 -0.63724 691.20 0.0014468 -117.15 -117.15 -0.63724 1.3343 1.9666 1857.2 -0.0074417 1219.6 0.19117 0.00041181 2428.3 381.67 405.52 3.4938 0.84340 1.0320 170.85 2.1565 3.4532 0.0038783
-145.62 0.0016917 1.5813e-08 -115.18 -115.18 -0.62175 690.19 0.0014489 -115.18 -115.18 -0.62175 1.3343 1.9682 1850.4 -0.0074312 1182.3 0.19066 0.00048510 2061.4 382.51 406.56 3.4695 0.84677 1.0353 171.46 2.1128 3.4807 0.0039374
-144.62 0.0020026 1.7363e-08 -113.21 -113.21 -0.60637 689.18 0.0014510 -113.21 -113.21 -0.60637 1.3343 1.9697 1843.7 -0.0074206 1146.8 0.19014 0.00056976 1755.1 383.36 407.59 3.4458 0.85012 1.0387 172.07 2.0705 3.5082 0.0039967
-143.62 0.0023637 1.8915e-08 -111.24 -111.24 -0.59110 688.17 0.0014531 -111.24 -111.24 -0.59110 1.3343 1.9713 1836.9 -0.0074098 1113.0 0.18962 0.00066731 1498.6 384.21 408.63 3.4226 0.85346 1.0420 172.68 2.0294 3.5358 0.0040564
-142.62 0.0027820 2.0428e-08 -109.27 -109.27 -0.57593 687.16 0.0014553 -109.27 -109.27 -0.57593 1.3343 1.9728 1830.2 -0.0073988 1080.8 0.18909 0.00077939 1283.1 385.07 409.68 3.3999 0.85679 1.0454 173.28 1.9896 3.5633 0.0041164
-141.62 0.0032653 2.1851e-08 -107.30 -107.30 -0.56087 686.15 0.0014574 -107.30 -107.30 -0.56087 1.3343 1.9744 1823.5 -0.0073878 1050.1 0.18856 0.00090784 1101.5 385.93 410.72 3.3777 0.86011 1.0487 173.88 1.9508 3.5908 0.0041766
-140.62 0.0038222 2.3119e-08 -105.32 -105.32 -0.54591 685.14 0.0014596 -105.32 -105.32 -0.54591 1.3344 1.9760 1816.7 -0.0073765 1020.7 0.18803 0.0010547 948.16 386.79 411.77 3.3560 0.86341 1.0520 174.48 1.9133 3.6183 0.0042372
-139.62 0.0044623 2.4156e-08 -103.34 -103.34 -0.53105 684.13 0.0014617 -103.34 -103.34 -0.53105 1.3344 1.9776 1810.0 -0.0073651 992.74 0.18749 0.0012221 818.26 387.65 412.83 3.3347 0.86670 1.0553 175.08 1.8768 3.6459 0.0042980
-138.62 0.0051963 2.4869e-08 -101.37 -101.37 -0.51629 683.12 0.0014639 -101.37 -101.37 -0.51629 1.3345 1.9792 1803.3 -0.0073536 965.97 0.18695 0.0014125 707.94 388.52 413.88 3.3139 0.86998 1.0586 175.67 1.8413 3.6734 0.0043592
-137.62 0.0060358 2.5143e-08 -99.386 -99.386 -0.50162 682.11 0.0014660 -99.386 -99.386 -0.50162 1.3346 1.9808 1796.6 -0.0073419 940.35 0.18641 0.0016287 614.00 389.39 414.94 3.2935 0.87325 1.0619 176.26 1.8069 3.7009 0.0044206
-136.62 0.0069938 2.4847e-08 -97.404 -97.404 -0.48705 681.10 0.0014682 -97.404 -97.404 -0.48705 1.3347 1.9825 1789.9 -0.0073301 915.81 0.18586 0.0018733 533.80 390.26 416.00 3.2735 0.87650 1.0651 176.85 1.7734 3.7284 0.0044823
-135.62 0.0080843 2.3825e-08 -95.421 -95.421 -0.47258 680.09 0.0014704 -95.421 -95.421 -0.47258 1.3348 1.9841 1783.2 -0.0073180 892.30 0.18531 0.0021497 465.17 391.14 417.07 3.2540 0.87975 1.0684 177.44 1.7409 3.7559 0.0045443
-134.62 0.0093230 2.1892e-08 -93.436 -93.436 -0.45820 679.08 0.0014726 -93.436 -93.436 -0.45820 1.3350 1.9858 1776.5 -0.0073059 869.75 0.18476 0.0024613 406.30 392.02 418.14 3.2348 0.88299 1.0716 178.02 1.7093 3.7834 0.0046066
-133.62 0.010727 1.8837e-08 -91.450 -91.449 -0.44391 678.07 0.0014748 -91.450 -91.449 -0.44391 1.3351 1.9875 1769.8 -0.0072935 848.11 0.18421 0.0028116 355.67 392.91 419.21 3.2161 0.88622 1.0749 178.61 1.6786 3.8109 0.0046691
-132.62 0.012315 1.4414e-08 -89.461 -89.461 -0.42971 677.06 0.0014770 -89.461 -89.461 -0.42971 1.3353 1.9892 1763.1 -0.0072810 827.32 0.18365 0.0032049 312.03 393.79 420.29 3.1977 0.88944 1.0781 179.19 1.6488 3.8385 0.0047320
-131.62 0.014106 8.3405e-09 -87.471 -87.471 -0.41560 676.04 0.0014792 -87.471 -87.471 -0.41560 1.3354 1.9909 1756.4 -0.0072684 807.34 0.18309 0.0036453 274.33 394.68 421.36 3.1798 0.89266 1.0813 179.76 1.6197 3.8660 0.0047951
-130.62 0.016124 2.9504e-10 -85.479 -85.479 -0.40157 675.03 0.0014814 -85.479 -85.479 -0.40157 1.3356 1.9926 1749.7 -0.0072555 788.12 0.18253 0.0041375 241.69 395.58 422.44 3.1622 0.89586 1.0846 180.34 1.5915 3.8935 0.0048586
-129.62 290.94 undefined -84.122 -81.150 -0.39208 675.00 0.0014815 -84.122 -81.150 -0.39208 1.3378 1.9923 1752.0 -0.0072586 782.07 0.18275 675.00 0.0014815 -84.122 -81.150 -0.39208 1.3378 1.9923 1752.0 -0.0072586 782.07 0.18275
-128.62 590.61 undefined -82.783 -76.750 -0.38278 675.00 0.0014815 -82.783 -76.750 -0.38278 1.3400 1.9918 1754.6 -0.0072621 776.55 0.18300 675.00 0.0014815 -82.783 -76.750 -0.38278 1.3400 1.9918 1754.6 -0.0072621 776.55 0.18300
-127.62 889.35 undefined -81.442 -72.357 -0.37353 675.00 0.0014815 -81.442 -72.357 -0.37353 1.3423 1.9914 1757.1 -0.0072654 771.14 0.18326 675.00 0.0014815 -81.442 -72.357 -0.37353 1.3423 1.9914 1757.1 -0.0072654 771.14 0.18326
-126.62 1187.2 undefined -80.098 -67.972 -0.36433 675.00 0.0014815 -80.098 -67.972 -0.36433 1.3445 1.9911 1759.7 -0.0072686 765.83 0.18351 675.00 0.0014815 -80.098 -67.972 -0.36433 1.3445 1.9911 1759.7 -0.0072686 765.83 0.18351
-125.62 1484.1 undefined -78.752 -63.593 -0.35518 675.00 0.0014815 -78.752 -63.593 -0.35518 1.3468 1.9908 1762.3 -0.0072717 760.63 0.18376 675.00 0.0014815 -78.752 -63.593 -0.35518 1.3468 1.9908 1762.3 -0.0072717 760.63 0.18376
-124.62 1780.2 undefined -77.405 -59.221 -0.34608 675.00 0.0014815 -77.405 -59.221 -0.34608 1.3490 1.9905 1764.8 -0.0072746 755.52 0.18402 675.00 0.0014815 -77.405 -59.221 -0.34608 1.3490 1.9905 1764.8 -0.0072746 755.52 0.18402
-123.62 2075.3 undefined -76.054 -54.856 -0.33702 675.00 0.0014815 -76.054 -54.856 -0.33702 1.3513 1.9902 1767.3 -0.0072773 750.51 0.18427 675.00 0.0014815 -76.054 -54.856 -0.33702 1.3513 1.9902 1767.3 -0.0072773 750.51 0.18427
-122.62 2369.6 undefined -74.702 -50.498 -0.32800 675.00 0.0014815 -74.702 -50.498 -0.32800 1.3535 1.9900 1769.9 -0.0072800 745.60 0.18452 675.00 0.0014815 -74.702 -50.498 -0.32800 1.3535 1.9900 1769.9 -0.0072800 745.60 0.18452
-121.62 2663.0 undefined -73.347 -46.146 -0.31903 675.00 0.0014815 -73.347 -46.146 -0.31903 1.3557 1.9898 1772.4 -0.0072825 740.77 0.18478 675.00 0.0014815 -73.347 -46.146 -0.31903 1.3557 1.9898 1772.4 -0.0072825 740.77 0.18478
-120.62 2955.6 undefined -71.991 -41.801 -0.31011 675.00 0.0014815 -71.991 -41.801 -0.31011 1.3580 1.9896 1774.9 -0.0072848 736.04 0.18503 675.00 0.0014815 -71.991 -41.801 -0.31011 1.3580 1.9896 1774.9 -0.0072848 736.04 0.18503
-119.62 3247.3 undefined -70.631 -37.462 -0.30123 675.00 0.0014815 -70.631 -37.462 -0.30123 1.3602 1.9895 1777.4 -0.0072871 731.39 0.18528 675.00 0.0014815 -70.631 -37.462 -0.30123 1.3602 1.9895 1777.4 -0.0072871 731.39 0.18528
-118.62 3538.1 undefined -69.270 -33.130 -0.29239 675.00 0.0014815 -69.270 -33.130 -0.29239 1.3625 1.9894 1779.8 -0.0072891 726.83 0.18554 675.00 0.0014815 -69.270 -33.130 -0.29239 1.3625 1.9894 1779.8 -0.0072891 726.83 0.18554
-117.62 3828.2 undefined -67.906 -28.804 -0.28359 675.00 0.0014815 -67.906 -28.804 -0.28359 1.3648 1.9893 1782.3 -0.0072911 722.35 0.18579 675.00 0.0014815 -67.906 -28.804 -0.28359 1.3648 1.9893 1782.3 -0.0072911 722.35 0.18579
-116.62 4117.4 undefined -66.541 -24.484 -0.27484 675.00 0.0014815 -66.541 -24.484 -0.27484 1.3670 1.9893 1784.7 -0.0072929 717.95 0.18605 675.00 0.0014815 -66.541 -24.484 -0.27484 1.3670 1.9893 1784.7 -0.0072929 717.95 0.18605
-115.62 4405.8 undefined -65.172 -20.170 -0.26612 675.00 0.0014815 -65.172 -20.170 -0.26612 1.3693 1.9893 1787.1 -0.0072946 713.64 0.18631 675.00 0.0014815 -65.172 -20.170 -0.26612 1.3693 1.9893 1787.1 -0.0072946 713.64 0.18631
-114.62 4693.3 undefined -63.802 -15.862 -0.25745 675.00 0.0014815 -63.802 -15.862 -0.25745 1.3716 1.9893 1789.6 -0.0072961 709.40 0.18656 675.00 0.0014815 -63.802 -15.862 -0.25745 1.3716 1.9893 1789.6 -0.0072961 709.40 0.18656
-113.62 4980.1 undefined -62.429 -11.560 -0.24882 675.00 0.0014815 -62.429 -11.560 -0.24882 1.3738 1.9893 1792.0 -0.0072975 705.23 0.18682 675.00 0.0014815 -62.429 -11.560 -0.24882 1.3738 1.9893 1792.0 -0.0072975 705.23 0.18682
-112.62 5266.1 undefined -61.054 -7.2643 -0.24023 675.00 0.0014815 -61.054 -7.2643 -0.24023 1.3761 1.9894 1794.3 -0.0072988 701.14 0.18707 675.00 0.0014815 -61.054 -7.2643 -0.24023 1.3761 1.9894 1794.3 -0.0072988 701.14 0.18707
-111.62 5551.3 undefined -59.677 -2.9740 -0.23167 675.00 0.0014815 -59.677 -2.9740 -0.23167 1.3784 1.9895 1796.7 -0.0072999 697.12 0.18733 675.00 0.0014815 -59.677 -2.9740 -0.23167 1.3784 1.9895 1796.7 -0.0072999 697.12 0.18733
-110.62 5835.6 undefined -58.297 1.3105 -0.22316 675.00 0.0014815 -58.297 1.3105 -0.22316 1.3807 1.9897 1799.1 -0.0073009 693.18 0.18759 675.00 0.0014815 -58.297 1.3105 -0.22316 1.3807 1.9897 1799.1 -0.0073009 693.18 0.18759
-109.62 6119.3 undefined -56.916 5.5893 -0.21468 675.00 0.0014815 -56.916 5.5893 -0.21468 1.3831 1.9899 1801.4 -0.0073018 689.30 0.18785 675.00 0.0014815 -56.916 5.5893 -0.21468 1.3831 1.9899 1801.4 -0.0073018 689.30 0.18785
-108.62 6402.1 undefined -55.531 9.8626 -0.20624 675.00 0.0014815 -55.531 9.8626 -0.20624 1.3854 1.9901 1803.7 -0.0073025 685.49 0.18810 675.00 0.0014815 -55.531 9.8626 -0.20624 1.3854 1.9901 1803.7 -0.0073025 685.49 0.18810
-107.62 6684.2 undefined -54.145 14.130 -0.19784 675.00 0.0014815 -54.145 14.130 -0.19784 1.3877 1.9903 1806.0 -0.0073031 681.74 0.18836 675.00 0.0014815 -54.145 14.130 -0.19784 1.3877 1.9903 1806.0 -0.0073031 681.74 0.18836
-106.62 6965.5 undefined -52.756 18.393 -0.18948 675.00 0.0014815 -52.756 18.393 -0.18948 1.3901 1.9906 1808.3 -0.0073036 678.06 0.18862 675.00 0.0014815 -52.756 18.393 -0.18948 1.3901 1.9906 1808.3 -0.0073036 678.06 0.18862
-105.62 7246.1 undefined -51.365 22.650 -0.18115 675.00 0.0014815 -51.365 22.650 -0.18115 1.3924 1.9909 1810.6 -0.0073040 674.44 0.18888 675.00 0.0014815 -51.365 22.650 -0.18115 1.3924 1.9909 1810.6 -0.0073040 674.44 0.18888
-104.62 7525.9 undefined -49.971 26.902 -0.17285 675.00 0.0014815 -49.971 26.902 -0.17285 1.3948 1.9912 1812.9 -0.0073042 670.89 0.18914 675.00 0.0014815 -49.971 26.902 -0.17285 1.3948 1.9912 1812.9 -0.0073042 670.89 0.18914
-103.62 7804.9 undefined -48.575 31.148 -0.16459 675.00 0.0014815 -48.575 31.148 -0.16459 1.3972 1.9916 1815.1 -0.0073042 667.39 0.18940 675.00 0.0014815 -48.575 31.148 -0.16459 1.3972 1.9916 1815.1 -0.0073042 667.39 0.18940
-102.62 8083.3 undefined -47.177 35.390 -0.15637 675.00 0.0014815 -47.177 35.390 -0.15637 1.3996 1.9920 1817.4 -0.0073042 663.95 0.18966 675.00 0.0014815 -47.177 35.390 -0.15637 1.3996 1.9920 1817.4 -0.0073042 663.95 0.18966
-101.62 8360.9 undefined -45.776 39.626 -0.14818 675.00 0.0014815 -45.776 39.626 -0.14818 1.4020 1.9924 1819.6 -0.0073040 660.58 0.18992 675.00 0.0014815 -45.776 39.626 -0.14818 1.4020 1.9924 1819.6 -0.0073040 660.58 0.18992
-100.62 8637.8 undefined -44.373 43.857 -0.14002 675.00 0.0014815 -44.373 43.857 -0.14002 1.4044 1.9929 1821.8 -0.0073037 657.25 0.19018 675.00 0.0014815 -44.373 43.857 -0.14002 1.4044 1.9929 1821.8 -0.0073037 657.25 0.19018
-99.625 8913.9 undefined -42.967 48.084 -0.13190 675.00 0.0014815 -42.967 48.084 -0.13190 1.4068 1.9934 1824.0 -0.0073032 653.98 0.19044 675.00 0.0014815 -42.967 48.084 -0.13190 1.4068 1.9934 1824.0 -0.0073032 653.98 0.19044
-98.625 9189.4 undefined -41.559 52.305 -0.12381 675.00 0.0014815 -41.559 52.305 -0.12381 1.4092 1.9939 1826.2 -0.0073027 650.77 0.19070 675.00 0.0014815 -41.559 52.305 -0.12381 1.4092 1.9939 1826.2 -0.0073027 650.77 0.19070
-97.625 9464.1 undefined -40.149 56.522 -0.11575 675.00 0.0014815 -40.149 56.522 -0.11575 1.4117 1.9944 1828.3 -0.0073019 647.61 0.19096 675.00 0.0014815 -40.149 56.522 -0.11575 1.4117 1.9944 1828.3 -0.0073019 647.61 0.19096
-96.625 9738.2 undefined -38.736 60.734 -0.10772 675.00 0.0014815 -38.736 60.734 -0.10772 1.4141 1.9950 1830.5 -0.0073011 644.50 0.19122 675.00 0.0014815 -38.736 60.734 -0.10772 1.4141 1.9950 1830.5 -0.0073011 644.50 0.19122
-95.625 10011. undefined -37.320 64.941 -0.099726 675.00 0.0014815 -37.320 64.941 -0.099726 1.4166 1.9956 1832.6 -0.0073002 641.44 0.19148 675.00 0.0014815 -37.320 64.941 -0.099726 1.4166 1.9956 1832.6 -0.0073002 641.44 0.19148
-94.625 10284. undefined -35.903 69.144 -0.091762 675.00 0.0014815 -35.903 69.144 -0.091762 1.4191 1.9963 1834.7 -0.0072991 638.43 0.19174 675.00 0.0014815 -35.903 69.144 -0.091762 1.4191 1.9963 1834.7 -0.0072991 638.43 0.19174
-93.625 10556. undefined -34.482 73.343 -0.083828 675.00 0.0014815 -34.482 73.343 -0.083828 1.4216 1.9969 1836.8 -0.0072978 635.47 0.19200 675.00 0.0014815 -34.482 73.343 -0.083828 1.4216 1.9969 1836.8 -0.0072978 635.47 0.19200
-92.625 10827. undefined -33.059 77.536 -0.075925 675.00 0.0014815 -33.059 77.536 -0.075925 1.4241 1.9976 1838.9 -0.0072965 632.55 0.19227 675.00 0.0014815 -33.059 77.536 -0.075925 1.4241 1.9976 1838.9 -0.0072965 632.55 0.19227
-91.625 11098. undefined -31.634 81.726 -0.068051 675.00 0.0014815 -31.634 81.726 -0.068051 1.4266 1.9984 1841.0 -0.0072950 629.68 0.19253 675.00 0.0014815 -31.634 81.726 -0.068051 1.4266 1.9984 1841.0 -0.0072950 629.68 0.19253
-90.625 11368. undefined -30.206 85.911 -0.060206 675.00 0.0014815 -30.206 85.911 -0.060206 1.4292 1.9991 1843.1 -0.0072934 626.86 0.19279 675.00 0.0014815 -30.206 85.911 -0.060206 1.4292 1.9991 1843.1 -0.0072934 626.86 0.19279
-89.625 11637. undefined -28.776 90.092 -0.052391 675.00 0.0014815 -28.776 90.092 -0.052391 1.4317 1.9999 1845.1 -0.0072917 624.08 0.19306 675.00 0.0014815 -28.776 90.092 -0.052391 1.4317 1.9999 1845.1 -0.0072917 624.08 0.19306
-88.625 11906. undefined -27.343 94.268 -0.044604 675.00 0.0014815 -27.343 94.268 -0.044604 1.4343 2.0007 1847.2 -0.0072899 621.35 0.19332 675.00 0.0014815 -27.343 94.268 -0.044604 1.4343 2.0007 1847.2 -0.0072899 621.35 0.19332
-87.625 12174. undefined -25.907 98.441 -0.036845 675.00 0.0014815 -25.907 98.441 -0.036845 1.4369 2.0016 1849.2 -0.0072879 618.66 0.19358 675.00 0.0014815 -25.907 98.441 -0.036845 1.4369 2.0016 1849.2 -0.0072879 618.66 0.19358
-86.625 12441. undefined -24.469 102.61 -0.029114 675.00 0.0014815 -24.469 102.61 -0.029114 1.4395 2.0025 1851.2 -0.0072858 616.01 0.19385 675.00 0.0014815 -24.469 102.61 -0.029114 1.4395 2.0025 1851.2 -0.0072858 616.01 0.19385
-85.625 12708. undefined -23.028 106.77 -0.021410 675.00 0.0014815 -23.028 106.77 -0.021410 1.4421 2.0034 1853.2 -0.0072836 613.40 0.19411 675.00 0.0014815 -23.028 106.77 -0.021410 1.4421 2.0034 1853.2 -0.0072836 613.40 0.19411
-84.625 12974. undefined -21.585 110.93 -0.013734 675.00 0.0014815 -21.585 110.93 -0.013734 1.4447 2.0043 1855.2 -0.0072813 610.83 0.19438 675.00 0.0014815 -21.585 110.93 -0.013734 1.4447 2.0043 1855.2 -0.0072813 610.83 0.19438
-83.625 13239. undefined -20.139 115.09 -0.0060838 675.00 0.0014815 -20.139 115.09 -0.0060838 1.4473 2.0053 1857.1 -0.0072789 608.30 0.19464 675.00 0.0014815 -20.139 115.09 -0.0060838 1.4473 2.0053 1857.1 -0.0072789 608.30 0.19464
-82.625 13504. undefined -18.690 119.24 0.0015398 675.00 0.0014815 -18.690 119.24 0.0015398 1.4500 2.0063 1859.1 -0.0072763 605.81 0.19491 675.00 0.0014815 -18.690 119.24 0.0015398 1.4500 2.0063 1859.1 -0.0072763 605.81 0.19491
-81.625 13768. undefined -17.239 123.39 0.0091375 675.00 0.0014815 -17.239 123.39 0.0091375 1.4527 2.0074 1861.0 -0.0072736 603.35 0.19517 675.00 0.0014815 -17.239 123.39 0.0091375 1.4527 2.0074 1861.0 -0.0072736 603.35 0.19517
-80.625 14031. undefined -15.785 127.54 0.016709 675.00 0.0014815 -15.785 127.54 0.016709 1.4554 2.0084 1863.0 -0.0072708 600.94 0.19544 675.00 0.0014815 -15.785 127.54 0.016709 1.4554 2.0084 1863.0 -0.0072708 600.94 0.19544
-79.625 14294. undefined -14.328 131.68 0.024256 675.00 0.0014815 -14.328 131.68 0.024256 1.4581 2.0095 1864.9 -0.0072679 598.56 0.19570 675.00 0.0014815 -14.328 131.68 0.024256 1.4581 2.0095 1864.9 -0.0072679 598.56 0.19570
-78.625 14556. undefined -12.869 135.82 0.031778 675.00 0.0014815 -12.869 135.82 0.031778 1.4608 2.0106 1866.8 -0.0072649 596.21 0.19597 675.00 0.0014815 -12.869 135.82 0.031778 1.4608 2.0106 1866.8 -0.0072649 596.21 0.19597
-77.625 14818. undefined -11.407 139.95 0.039275 675.00 0.0014815 -11.407 139.95 0.039275 1.4635 2.0118 1868.7 -0.0072617 593.90 0.19624 675.00 0.0014815 -11.407 139.95 0.039275 1.4635 2.0118 1868.7 -0.0072617 593.90 0.19624
-76.625 15079. undefined -9.9416 144.08 0.046748 675.00 0.0014815 -9.9416 144.08 0.046748 1.4663 2.0130 1870.6 -0.0072584 591.62 0.19650 675.00 0.0014815 -9.9416 144.08 0.046748 1.4663 2.0130 1870.6 -0.0072584 591.62 0.19650
-75.625 15339. undefined -8.4740 148.21 0.054197 675.00 0.0014815 -8.4740 148.21 0.054197 1.4690 2.0142 1872.4 -0.0072551 589.38 0.19677 675.00 0.0014815 -8.4740 148.21 0.054197 1.4690 2.0142 1872.4 -0.0072551 589.38 0.19677
-74.625 15599. undefined -7.0035 152.33 0.061623 675.00 0.0014815 -7.0035 152.33 0.061623 1.4718 2.0154 1874.3 -0.0072516 587.17 0.19704 675.00 0.0014815 -7.0035 152.33 0.061623 1.4718 2.0154 1874.3 -0.0072516 587.17 0.19704
-73.625 15858. undefined -5.5303 156.45 0.069025 675.00 0.0014815 -5.5303 156.45 0.069025 1.4746 2.0167 1876.1 -0.0072480 584.99 0.19731 675.00 0.0014815 -5.5303 156.45 0.069025 1.4746 2.0167 1876.1 -0.0072480 584.99 0.19731
-72.625 16117. undefined -4.0543 160.57 0.076404 675.00 0.0014815 -4.0543 160.57 0.076404 1.4774 2.0180 1878.0 -0.0072443 582.85 0.19758 675.00 0.0014815 -4.0543 160.57 0.076404 1.4774 2.0180 1878.0 -0.0072443 582.85 0.19758
-71.625 16375. undefined -2.5755 164.68 0.083761 675.00 0.0014815 -2.5755 164.68 0.083761 1.4803 2.0193 1879.8 -0.0072404 580.73 0.19784 675.00 0.0014815 -2.5755 164.68 0.083761 1.4803 2.0193 1879.8 -0.0072404 580.73 0.19784
-70.625 16632. undefined -1.0938 168.79 0.091095 675.00 0.0014815 -1.0938 168.79 0.091095 1.4831 2.0207 1881.6 -0.0072365 578.65 0.19811 675.00 0.0014815 -1.0938 168.79 0.091095 1.4831 2.0207 1881.6 -0.0072365 578.65 0.19811
-69.625 16889. undefined 0.39079 172.90 0.098407 675.00 0.0014815 0.39079 172.90 0.098407 1.4860 2.0221 1883.4 -0.0072324 576.59 0.19838 675.00 0.0014815 0.39079 172.90 0.098407 1.4860 2.0221 1883.4 -0.0072324 576.59 0.19838
-68.625 17145. undefined 1.8782 177.01 0.10570 675.00 0.0014815 1.8782 177.01 0.10570 1.4889 2.0235 1885.2 -0.0072283 574.57 0.19865 675.00 0.0014815 1.8782 177.01 0.10570 1.4889 2.0235 1885.2 -0.0072283 574.57 0.19865
-67.625 17401. undefined 3.3685 181.11 0.11297 675.00 0.0014815 3.3685 181.11 0.11297 1.4918 2.0249 1886.9 -0.0072240 572.57 0.19892 675.00 0.0014815 3.3685 181.11 0.11297 1.4918 2.0249 1886.9 -0.0072240 572.57 0.19892
-66.625 17656. undefined 4.8617 185.21 0.12021 675.00 0.0014815 4.8617 185.21 0.12021 1.4947 2.0264 1888.7 -0.0072197 570.60 0.19919 675.00 0.0014815 4.8617 185.21 0.12021 1.4947 2.0264 1888.7 -0.0072197 570.60 0.19919
-65.625 17911. undefined 6.3579 189.30 0.12744 675.00 0.0014815 6.3579 189.30 0.12744 1.4976 2.0279 1890.5 -0.0072152 568.66 0.19946 675.00 0.0014815 6.3579 189.30 0.12744 1.4976 2.0279 1890.5 -0.0072152 568.66 0.19946
-64.625 18164. undefined 7.8570 193.40 0.13465 675.00 0.0014815 7.8570 193.40 0.13465 1.5006 2.0294 1892.2 -0.0072106 566.75 0.19973 675.00 0.0014815 7.8570 193.40 0.13465 1.5006 2.0294 1892.2 -0.0072106 566.75 0.19973
-63.625 18418. undefined 9.3590 197.49 0.14183 675.00 0.0014815 9.3590 197.49 0.14183 1.5035 2.0310 1893.9 -0.0072060 564.86 0.20000 675.00 0.0014815 9.3590 197.49 0.14183 1.5035 2.0310 1893.9 -0.0072060 564.86 0.20000
-62.625 18671. undefined 10.864 201.58 0.14900 675.00 0.0014815 10.864 201.58 0.14900 1.5065 2.0326 1895.6 -0.0072012 563.00 0.20027 675.00 0.0014815 10.864 201.58 0.14900 1.5065 2.0326 1895.6 -0.0072012 563.00 0.20027
-61.625 18923. undefined 12.372 205.66 0.15615 675.00 0.0014815 12.372 205.66 0.15615 1.5095 2.0342 1897.3 -0.0071963 561.17 0.20054 675.00 0.0014815 12.372 205.66 0.15615 1.5095 2.0342 1897.3 -0.0071963 561.17 0.20054
-60.625 19175. undefined 13.883 209.74 0.16327 675.00 0.0014815 13.883 209.74 0.16327 1.5125 2.0358 1899.0 -0.0071913 559.36 0.20082 675.00 0.0014815 13.883 209.74 0.16327 1.5125 2.0358 1899.0 -0.0071913 559.36 0.20082
-59.625 19426. undefined 15.397 213.82 0.17038 675.00 0.0014815 15.397 213.82 0.17038 1.5156 2.0375 1900.7 -0.0071862 557.57 0.20109 675.00 0.0014815 15.397 213.82 0.17038 1.5156 2.0375 1900.7 -0.0071862 557.57 0.20109
-58.625 19677. undefined 16.914 217.90 0.17747 675.00 0.0014815 16.914 217.90 0.17747 1.5186 2.0392 1902.4 -0.0071811 555.81 0.20136 675.00 0.0014815 16.914 217.90 0.17747 1.5186 2.0392 1902.4 -0.0071811 555.81 0.20136
-57.625 19927. undefined 18.434 221.97 0.18454 675.00 0.0014815 18.434 221.97 0.18454 1.5217 2.0409 1904.1 -0.0071758 554.08 0.20163 675.00 0.0014815 18.434 221.97 0.18454 1.5217 2.0409 1904.1 -0.0071758 554.08 0.20163
-56.625 20176. undefined 19.958 226.05 0.19159 675.00 0.0014815 19.958 226.05 0.19159 1.5248 2.0427 1905.7 -0.0071704 552.36 0.20191 675.00 0.0014815 19.958 226.05 0.19159 1.5248 2.0427 1905.7 -0.0071704 552.36 0.20191
-55.625 20425. undefined 21.484 230.12 0.19862 675.00 0.0014815 21.484 230.12 0.19862 1.5279 2.0444 1907.3 -0.0071649 550.67 0.20218 675.00 0.0014815 21.484 230.12 0.19862 1.5279 2.0444 1907.3 -0.0071649 550.67 0.20218
-54.625 20674. undefined 23.013 234.18 0.20564 675.00 0.0014815 23.013 234.18 0.20564 1.5310 2.0462 1909.0 -0.0071594 549.00 0.20245 675.00 0.0014815 23.013 234.18 0.20564 1.5310 2.0462 1909.0 -0.0071594 549.00 0.20245
-53.625 20922. undefined 24.546 238.25 0.21263 675.00 0.0014815 24.546 238.25 0.21263 1.5341 2.0481 1910.6 -0.0071537 547.36 0.20273 675.00 0.0014815 24.546 238.25 0.21263 1.5341 2.0481 1910.6 -0.0071537 547.36 0.20273
-52.625 21169. undefined 26.082 242.31 0.21961 675.00 0.0014815 26.082 242.31 0.21961 1.5373 2.0499 1912.2 -0.0071480 545.74 0.20300 675.00 0.0014815 26.082 242.31 0.21961 1.5373 2.0499 1912.2 -0.0071480 545.74 0.20300
-51.625 21416. undefined 27.621 246.37 0.22658 675.00 0.0014815 27.621 246.37 0.22658 1.5405 2.0518 1913.8 -0.0071421 544.13 0.20328 675.00 0.0014815 27.621 246.37 0.22658 1.5405 2.0518 1913.8 -0.0071421 544.13 0.20328
-50.625 21662. undefined 29.163 250.43 0.23352 675.00 0.0014815 29.163 250.43 0.23352 1.5436 2.0537 1915.4 -0.0071362 542.55 0.20355 675.00 0.0014815 29.163 250.43 0.23352 1.5436 2.0537 1915.4 -0.0071362 542.55 0.20355
-49.625 21908. undefined 30.708 254.49 0.24045 675.00 0.0014815 30.708 254.49 0.24045 1.5469 2.0557 1917.0 -0.0071302 540.99 0.20382 675.00 0.0014815 30.708 254.49 0.24045 1.5469 2.0557 1917.0 -0.0071302 540.99 0.20382
-48.625 22154. undefined 32.256 258.54 0.24736 675.00 0.0014815 32.256 258.54 0.24736 1.5501 2.0576 1918.6 -0.0071241 539.45 0.20410 675.00 0.0014815 32.256 258.54 0.24736 1.5501 2.0576 1918.6 -0.0071241 539.45 0.20410
-47.625 22399. undefined 33.808 262.60 0.25426 675.00 0.0014815 33.808 262.60 0.25426 1.5533 2.0596 1920.1 -0.0071179 537.93 0.20438 675.00 0.0014815 33.808 262.60 0.25426 1.5533 2.0596 1920.1 -0.0071179 537.93 0.20438
-46.625 22643. undefined 35.363 266.65 0.26114 675.00 0.0014815 35.363 266.65 0.26114 1.5566 2.0616 1921.7 -0.0071116 536.44 0.20465 675.00 0.0014815 35.363 266.65 0.26114 1.5566 2.0616 1921.7 -0.0071116 536.44 0.20465
-45.625 22887. undefined 36.921 270.70 0.26800 675.00 0.0014815 36.921 270.70 0.26800 1.5598 2.0637 1923.2 -0.0071053 534.95 0.20493 675.00 0.0014815 36.921 270.70 0.26800 1.5598 2.0637 1923.2 -0.0071053 534.95 0.20493
-44.625 23130. undefined 38.483 274.74 0.27485 675.00 0.0014815 38.483 274.74 0.27485 1.5631 2.0657 1924.8 -0.0070989 533.49 0.20520 675.00 0.0014815 38.483 274.74 0.27485 1.5631 2.0657 1924.8 -0.0070989 533.49 0.20520
-43.625 23373. undefined 40.047 278.79 0.28168 675.00 0.0014815 40.047 278.79 0.28168 1.5664 2.0678 1926.3 -0.0070923 532.05 0.20548 675.00 0.0014815 40.047 278.79 0.28168 1.5664 2.0678 1926.3 -0.0070923 532.05 0.20548
-42.625 23615. undefined 41.615 282.83 0.28850 675.00 0.0014815 41.615 282.83 0.28850 1.5697 2.0699 1927.8 -0.0070857 530.63 0.20576 675.00 0.0014815 41.615 282.83 0.28850 1.5697 2.0699 1927.8 -0.0070857 530.63 0.20576
-41.625 23857. undefined 43.187 286.87 0.29530 675.00 0.0014815 43.187 286.87 0.29530 1.5731 2.0721 1929.3 -0.0070790 529.22 0.20603 675.00 0.0014815 43.187 286.87 0.29530 1.5731 2.0721 1929.3 -0.0070790 529.22 0.20603
-40.625 24098. undefined 44.762 290.91 0.30209 675.00 0.0014815 44.762 290.91 0.30209 1.5764 2.0743 1930.8 -0.0070723 527.83 0.20631 675.00 0.0014815 44.762 290.91 0.30209 1.5764 2.0743 1930.8 -0.0070723 527.83 0.20631
-39.625 24339. undefined 46.340 294.95 0.30886 675.00 0.0014815 46.340 294.95 0.30886 1.5798 2.0764 1932.3 -0.0070655 526.46 0.20659 675.00 0.0014815 46.340 294.95 0.30886 1.5798 2.0764 1932.3 -0.0070655 526.46 0.20659
-38.625 24580. undefined 47.921 298.99 0.31562 675.00 0.0014815 47.921 298.99 0.31562 1.5832 2.0787 1933.8 -0.0070585 525.11 0.20687 675.00 0.0014815 47.921 298.99 0.31562 1.5832 2.0787 1933.8 -0.0070585 525.11 0.20687
-37.625 24820. undefined 49.506 303.03 0.32236 675.00 0.0014815 49.506 303.03 0.32236 1.5866 2.0809 1935.3 -0.0070516 523.77 0.20715 675.00 0.0014815 49.506 303.03 0.32236 1.5866 2.0809 1935.3 -0.0070516 523.77 0.20715
-36.625 25059. undefined 51.094 307.06 0.32909 675.00 0.0014815 51.094 307.06 0.32909 1.5900 2.0832 1936.8 -0.0070445 522.45 0.20743 675.00 0.0014815 51.094 307.06 0.32909 1.5900 2.0832 1936.8 -0.0070445 522.45 0.20743
-35.625 25298. undefined 52.686 311.09 0.33581 675.00 0.0014815 52.686 311.09 0.33581 1.5934 2.0855 1938.2 -0.0070374 521.15 0.20770 675.00 0.0014815 52.686 311.09 0.33581 1.5934 2.0855 1938.2 -0.0070374 521.15 0.20770
-34.625 25537. undefined 54.281 315.12 0.34251 675.00 0.0014815 54.281 315.12 0.34251 1.5969 2.0878 1939.7 -0.0070302 519.86 0.20798 675.00 0.0014815 54.281 315.12 0.34251 1.5969 2.0878 1939.7 -0.0070302 519.86 0.20798
-33.625 25775. undefined 55.880 319.15 0.34920 675.00 0.0014815 55.880 319.15 0.34920 1.6003 2.0901 1941.1 -0.0070229 518.59 0.20826 675.00 0.0014815 55.880 319.15 0.34920 1.6003 2.0901 1941.1 -0.0070229 518.59 0.20826
-32.625 26012. undefined 57.482 323.18 0.35587 675.00 0.0014815 57.482 323.18 0.35587 1.6038 2.0925 1942.6 -0.0070155 517.33 0.20854 675.00 0.0014815 57.482 323.18 0.35587 1.6038 2.0925 1942.6 -0.0070155 517.33 0.20854
-31.625 26249. undefined 59.088 327.21 0.36253 675.00 0.0014815 59.088 327.21 0.36253 1.6073 2.0948 1944.0 -0.0070081 516.09 0.20882 675.00 0.0014815 59.088 327.21 0.36253 1.6073 2.0948 1944.0 -0.0070081 516.09 0.20882
-30.625 26486. undefined 60.697 331.24 0.36918 675.00 0.0014815 60.697 331.24 0.36918 1.6108 2.0972 1945.5 -0.0070007 514.87 0.20910 675.00 0.0014815 60.697 331.24 0.36918 1.6108 2.0972 1945.5 -0.0070007 514.87 0.20910
-29.625 26722. undefined 62.309 335.26 0.37581 675.00 0.0014815 62.309 335.26 0.37581 1.6143 2.0997 1946.9 -0.0069931 513.66 0.20938 675.00 0.0014815 62.309 335.26 0.37581 1.6143 2.0997 1946.9 -0.0069931 513.66 0.20938
-28.625 26958. undefined 63.925 339.28 0.38244 675.00 0.0014815 63.925 339.28 0.38244 1.6179 2.1021 1948.3 -0.0069855 512.46 0.20967 675.00 0.0014815 63.925 339.28 0.38244 1.6179 2.1021 1948.3 -0.0069855 512.46 0.20967
-27.625 27193. undefined 65.545 343.31 0.38905 675.00 0.0014815 65.545 343.31 0.38905 1.6214 2.1046 1949.7 -0.0069778 511.28 0.20995 675.00 0.0014815 65.545 343.31 0.38905 1.6214 2.1046 1949.7 -0.0069778 511.28 0.20995
-26.625 27428. undefined 67.168 347.33 0.39565 675.00 0.0014815 67.168 347.33 0.39565 1.6250 2.1071 1951.1 -0.0069701 510.11 0.21023 675.00 0.0014815 67.168 347.33 0.39565 1.6250 2.1071 1951.1 -0.0069701 510.11 0.21023
-25.625 27662. undefined 68.795 351.35 0.40223 675.00 0.0014815 68.795 351.35 0.40223 1.6286 2.1096 1952.5 -0.0069623 508.96 0.21051 675.00 0.0014815 68.795 351.35 0.40223 1.6286 2.1096 1952.5 -0.0069623 508.96 0.21051
-24.625 27896. undefined 70.425 355.37 0.40880 675.00 0.0014815 70.425 355.37 0.40880 1.6322 2.1121 1953.9 -0.0069545 507.82 0.21079 675.00 0.0014815 70.425 355.37 0.40880 1.6322 2.1121 1953.9 -0.0069545 507.82 0.21079
-23.625 28130. undefined 72.059 359.39 0.41537 675.00 0.0014815 72.059 359.39 0.41537 1.6358 2.1147 1955.3 -0.0069466 506.69 0.21108 675.00 0.0014815 72.059 359.39 0.41537 1.6358 2.1147 1955.3 -0.0069466 506.69 0.21108
-22.625 28363. undefined 73.697 363.40 0.42192 675.00 0.0014815 73.697 363.40 0.42192 1.6394 2.1173 1956.6 -0.0069386 505.58 0.21136 675.00 0.0014815 73.697 363.40 0.42192 1.6394 2.1173 1956.6 -0.0069386 505.58 0.21136
-21.625 28595. undefined 75.338 367.42 0.42845 675.00 0.0014815 75.338 367.42 0.42845 1.6430 2.1199 1958.0 -0.0069306 504.48 0.21164 675.00 0.0014815 75.338 367.42 0.42845 1.6430 2.1199 1958.0 -0.0069306 504.48 0.21164
-20.625 28827. undefined 76.983 371.44 0.43498 675.00 0.0014815 76.983 371.44 0.43498 1.6467 2.1225 1959.4 -0.0069225 503.39 0.21193 675.00 0.0014815 76.983 371.44 0.43498 1.6467 2.1225 1959.4 -0.0069225 503.39 0.21193
-19.625 29059. undefined 78.631 375.45 0.44149 675.00 0.0014815 78.631 375.45 0.44149 1.6503 2.1251 1960.7 -0.0069144 502.32 0.21221 675.00 0.0014815 78.631 375.45 0.44149 1.6503 2.1251 1960.7 -0.0069144 502.32 0.21221
-18.625 29290. undefined 80.283 379.47 0.44800 675.00 0.0014815 80.283 379.47 0.44800 1.6540 2.1278 1962.1 -0.0069062 501.26 0.21249 675.00 0.0014815 80.283 379.47 0.44800 1.6540 2.1278 1962.1 -0.0069062 501.26 0.21249
-17.625 29521. undefined 81.939 383.48 0.45449 675.00 0.0014815 81.939 383.48 0.45449 1.6577 2.1305 1963.4 -0.0068980 500.21 0.21278 675.00 0.0014815 81.939 383.48 0.45449 1.6577 2.1305 1963.4 -0.0068980 500.21 0.21278
-16.625 29752. undefined 83.599 387.49 0.46097 675.00 0.0014815 83.599 387.49 0.46097 1.6614 2.1332 1964.8 -0.0068897 499.17 0.21306 675.00 0.0014815 83.599 387.49 0.46097 1.6614 2.1332 1964.8 -0.0068897 499.17 0.21306
-15.625 29982. undefined 85.262 391.51 0.46744 675.00 0.0014815 85.262 391.51 0.46744 1.6651 2.1359 1966.1 -0.0068814 498.14 0.21335 675.00 0.0014815 85.262 391.51 0.46744 1.6651 2.1359 1966.1 -0.0068814 498.14 0.21335
-14.625 30211. undefined 86.929 395.52 0.47390 675.00 0.0014815 86.929 395.52 0.47390 1.6688 2.1386 1967.4 -0.0068730 497.13 0.21363 675.00 0.0014815 86.929 395.52 0.47390 1.6688 2.1386 1967.4 -0.0068730 497.13 0.21363
-13.625 30440. undefined 88.600 399.53 0.48035 675.00 0.0014815 88.600 399.53 0.48035 1.6726 2.1414 1968.7 -0.0068646 496.13 0.21392 675.00 0.0014815 88.600 399.53 0.48035 1.6726 2.1414 1968.7 -0.0068646 496.13 0.21392
-12.625 30669. undefined 90.274 403.54 0.48679 675.00 0.0014815 90.274 403.54 0.48679 1.6763 2.1442 1970.1 -0.0068562 495.14 0.21420 675.00 0.0014815 90.274 403.54 0.48679 1.6763 2.1442 1970.1 -0.0068562 495.14 0.21420
-11.625 30897. undefined 91.952 407.55 0.49322 675.00 0.0014815 91.952 407.55 0.49322 1.6801 2.1470 1971.4 -0.0068477 494.16 0.21449 675.00 0.0014815 91.952 407.55 0.49322 1.6801 2.1470 1971.4 -0.0068477 494.16 0.21449
-10.625 31125. undefined 93.634 411.56 0.49964 675.00 0.0014815 93.634 411.56 0.49964 1.6838 2.1498 1972.7 -0.0068391 493.19 0.21478 675.00 0.0014815 93.634 411.56 0.49964 1.6838 2.1498 1972.7 -0.0068391 493.19 0.21478
-9.6250 31353. undefined 95.320 415.57 0.50605 675.00 0.0014815 95.320 415.57 0.50605 1.6876 2.1526 1974.0 -0.0068305 492.23 0.21506 675.00 0.0014815 95.320 415.57 0.50605 1.6876 2.1526 1974.0 -0.0068305 492.23 0.21506
-8.6250 31580. undefined 97.009 419.58 0.51245 675.00 0.0014815 97.009 419.58 0.51245 1.6914 2.1555 1975.3 -0.0068219 491.29 0.21535 675.00 0.0014815 97.009 419.58 0.51245 1.6914 2.1555 1975.3 -0.0068219 491.29 0.21535
-7.6250 31807. undefined 98.703 423.59 0.51884 675.00 0.0014815 98.703 423.59 0.51884 1.6952 2.1584 1976.6 -0.0068132 490.35 0.21564 675.00 0.0014815 98.703 423.59 0.51884 1.6952 2.1584 1976.6 -0.0068132 490.35 0.21564
-6.6250 32033. undefined 100.40 427.60 0.52522 675.00 0.0014815 100.40 427.60 0.52522 1.6990 2.1612 1977.9 -0.0068045 489.43 0.21592 675.00 0.0014815 100.40 427.60 0.52522 1.6990 2.1612 1977.9 -0.0068045 489.43 0.21592
-5.6250 32259. undefined 102.10 431.61 0.53159 675.00 0.0014815 102.10 431.61 0.53159 1.7029 2.1641 1979.1 -0.0067958 488.51 0.21621 675.00 0.0014815 102.10 431.61 0.53159 1.7029 2.1641 1979.1 -0.0067958 488.51 0.21621
-4.6250 32484. undefined 103.81 435.61 0.53795 675.00 0.0014815 103.81 435.61 0.53795 1.7067 2.1671 1980.4 -0.0067870 487.61 0.21650 675.00 0.0014815 103.81 435.61 0.53795 1.7067 2.1671 1980.4 -0.0067870 487.61 0.21650
-3.6250 32709. undefined 105.51 439.62 0.54430 675.00 0.0014815 105.51 439.62 0.54430 1.7106 2.1700 1981.7 -0.0067782 486.71 0.21679 675.00 0.0014815 105.51 439.62 0.54430 1.7106 2.1700 1981.7 -0.0067782 486.71 0.21679
-2.6250 32934. undefined 107.23 443.63 0.55064 675.00 0.0014815 107.23 443.63 0.55064 1.7144 2.1730 1983.0 -0.0067693 485.83 0.21708 675.00 0.0014815 107.23 443.63 0.55064 1.7144 2.1730 1983.0 -0.0067693 485.83 0.21708
-1.6250 33158. undefined 108.94 447.64 0.55698 675.00 0.0014815 108.94 447.64 0.55698 1.7183 2.1759 1984.2 -0.0067604 484.95 0.21737 675.00 0.0014815 108.94 447.64 0.55698 1.7183 2.1759 1984.2 -0.0067604 484.95 0.21737
-0.62500 33382. undefined 110.66 451.64 0.56330 675.00 0.0014815 110.66 451.64 0.56330 1.7222 2.1789 1985.5 -0.0067515 484.09 0.21765 675.00 0.0014815 110.66 451.64 0.56330 1.7222 2.1789 1985.5 -0.0067515 484.09 0.21765
0.37500 33606. undefined 112.39 455.65 0.56961 675.00 0.0014815 112.39 455.65 0.56961 1.7261 2.1819 1986.7 -0.0067426 483.23 0.21794 675.00 0.0014815 112.39 455.65 0.56961 1.7261 2.1819 1986.7 -0.0067426 483.23 0.21794
1.3750 33829. undefined 114.12 459.66 0.57592 675.00 0.0014815 114.12 459.66 0.57592 1.7300 2.1850 1988.0 -0.0067336 482.38 0.21823 675.00 0.0014815 114.12 459.66 0.57592 1.7300 2.1850 1988.0 -0.0067336 482.38 0.21823
2.3750 34052. undefined 115.85 463.67 0.58222 675.00 0.0014815 115.85 463.67 0.58222 1.7339 2.1880 1989.2 -0.0067246 481.54 0.21852 675.00 0.0014815 115.85 463.67 0.58222 1.7339 2.1880 1989.2 -0.0067246 481.54 0.21852
3.3750 34274. undefined 117.58 467.67 0.58851 675.00 0.0014815 117.58 467.67 0.58851 1.7378 2.1910 1990.5 -0.0067156 480.72 0.21881 675.00 0.0014815 117.58 467.67 0.58851 1.7378 2.1910 1990.5 -0.0067156 480.72 0.21881
4.3750 34496. undefined 119.32 471.68 0.59479 675.00 0.0014815 119.32 471.68 0.59479 1.7417 2.1941 1991.7 -0.0067065 479.90 0.21911 675.00 0.0014815 119.32 471.68 0.59479 1.7417 2.1941 1991.7 -0.0067065 479.90 0.21911
5.3750 34718. undefined 121.07 475.69 0.60106 675.00 0.0014815 121.07 475.69 0.60106 1.7457 2.1972 1992.9 -0.0066974 479.09 0.21940 675.00 0.0014815 121.07 475.69 0.60106 1.7457 2.1972 1992.9 -0.0066974 479.09 0.21940
6.3750 34939. undefined 122.81 479.70 0.60732 675.00 0.0014815 122.81 479.70 0.60732 1.7496 2.2003 1994.2 -0.0066883 478.28 0.21969 675.00 0.0014815 122.81 479.70 0.60732 1.7496 2.2003 1994.2 -0.0066883 478.28 0.21969
7.3750 35160. undefined 124.57 483.70 0.61358 675.00 0.0014815 124.57 483.70 0.61358 1.7536 2.2034 1995.4 -0.0066792 477.49 0.21998 675.00 0.0014815 124.57 483.70 0.61358 1.7536 2.2034 1995.4 -0.0066792 477.49 0.21998
8.3750 35380. undefined 126.32 487.71 0.61982 675.00 0.0014815 126.32 487.71 0.61982 1.7576 2.2065 1996.6 -0.0066700 476.70 0.22027 675.00 0.0014815 126.32 487.71 0.61982 1.7576 2.2065 1996.6 -0.0066700 476.70 0.22027
9.3750 35600. undefined 128.08 491.72 0.62606 675.00 0.0014815 128.08 491.72 0.62606 1.7615 2.2097 1997.8 -0.0066609 475.93 0.22056 675.00 0.0014815 128.08 491.72 0.62606 1.7615 2.2097 1997.8 -0.0066609 475.93 0.22056
10.375 35820. undefined 129.84 495.73 0.63229 675.00 0.0014815 129.84 495.73 0.63229 1.7655 2.2128 1999.1 -0.0066517 475.16 0.22086 675.00 0.0014815 129.84 495.73 0.63229 1.7655 2.2128 1999.1 -0.0066517 475.16 0.22086
11.375 36040. undefined 131.61 499.74 0.63852 675.00 0.0014815 131.61 499.74 0.63852 1.7695 2.2160 2000.3 -0.0066424 474.40 0.22115 675.00 0.0014815 131.61 499.74 0.63852 1.7695 2.2160 2000.3 -0.0066424 474.40 0.22115
12.375 36259. undefined 133.38 503.74 0.64473 675.00 0.0014815 133.38 503.74 0.64473 1.7735 2.2192 2001.5 -0.0066332 473.65 0.22144 675.00 0.0014815 133.38 503.74 0.64473 1.7735 2.2192 2001.5 -0.0066332 473.65 0.22144
13.375 36477. undefined 135.16 507.75 0.65094 675.00 0.0014815 135.16 507.75 0.65094 1.7775 2.2224 2002.7 -0.0066240 472.90 0.22174 675.00 0.0014815 135.16 507.75 0.65094 1.7775 2.2224 2002.7 -0.0066240 472.90 0.22174
14.375 36696. undefined 136.94 511.76 0.65714 675.00 0.0014815 136.94 511.76 0.65714 1.7815 2.2256 2003.9 -0.0066147 472.16 0.22203 675.00 0.0014815 136.94 511.76 0.65714 1.7815 2.2256 2003.9 -0.0066147 472.16 0.22203
15.375 36913. undefined 138.72 515.77 0.66333 675.00 0.0014815 138.72 515.77 0.66333 1.7856 2.2288 2005.1 -0.0066054 471.43 0.22232 675.00 0.0014815 138.72 515.77 0.66333 1.7856 2.2288 2005.1 -0.0066054 471.43 0.22232
16.375 37131. undefined 140.51 519.78 0.66952 675.00 0.0014815 140.51 519.78 0.66952 1.7896 2.2321 2006.3 -0.0065961 470.71 0.22262 675.00 0.0014815 140.51 519.78 0.66952 1.7896 2.2321 2006.3 -0.0065961 470.71 0.22262
17.375 37348. undefined 142.30 523.79 0.67569 675.00 0.0014815 142.30 523.79 0.67569 1.7936 2.2353 2007.5 -0.0065868 470.00 0.22291 675.00 0.0014815 142.30 523.79 0.67569 1.7936 2.2353 2007.5 -0.0065868 470.00 0.22291
18.375 37565. undefined 144.10 527.80 0.68186 675.00 0.0014815 144.10 527.80 0.68186 1.7977 2.2386 2008.6 -0.0065774 469.29 0.22321 675.00 0.0014815 144.10 527.80 0.68186 1.7977 2.2386 2008.6 -0.0065774 469.29 0.22321
19.375 37782. undefined 145.90 531.82 0.68803 675.00 0.0014815 145.90 531.82 0.68803 1.8017 2.2418 2009.8 -0.0065681 468.59 0.22350 675.00 0.0014815 145.90 531.82 0.68803 1.8017 2.2418 2009.8 -0.0065681 468.59 0.22350
20.375 37998. undefined 147.70 535.83 0.69418 675.00 0.0014815 147.70 535.83 0.69418 1.8058 2.2451 2011.0 -0.0065587 467.90 0.22380 675.00 0.0014815 147.70 535.83 0.69418 1.8058 2.2451 2011.0 -0.0065587 467.90 0.22380
21.375 38214. undefined 149.51 539.84 0.70033 675.00 0.0014815 149.51 539.84 0.70033 1.8099 2.2484 2012.2 -0.0065494 467.21 0.22409 675.00 0.0014815 149.51 539.84 0.70033 1.8099 2.2484 2012.2 -0.0065494 467.21 0.22409
22.375 38429. undefined 151.32 543.85 0.70647 675.00 0.0014815 151.32 543.85 0.70647 1.8139 2.2517 2013.4 -0.0065400 466.54 0.22439 675.00 0.0014815 151.32 543.85 0.70647 1.8139 2.2517 2013.4 -0.0065400 466.54 0.22439
23.375 38644. undefined 153.14 547.87 0.71261 675.00 0.0014815 153.14 547.87 0.71261 1.8180 2.2551 2014.5 -0.0065306 465.86 0.22468 675.00 0.0014815 153.14 547.87 0.71261 1.8180 2.2551 2014.5 -0.0065306 465.86 0.22468
24.375 38859. undefined 154.96 551.88 0.71874 675.00 0.0014815 154.96 551.88 0.71874 1.8221 2.2584 2015.7 -0.0065212 465.20 0.22498 675.00 0.0014815 154.96 551.88 0.71874 1.8221 2.2584 2015.7 -0.0065212 465.20 0.22498
25.375 39074. undefined 156.78 555.90 0.72486 675.00 0.0014815 156.78 555.90 0.72486 1.8262 2.2617 2016.9 -0.0065118 464.54 0.22528 675.00 0.0014815 156.78 555.90 0.72486 1.8262 2.2617 2016.9 -0.0065118 464.54 0.22528
26.375 39288. undefined 158.61 559.91 0.73097 675.00 0.0014815 158.61 559.91 0.73097 1.8303 2.2651 2018.0 -0.0065024 463.89 0.22558 675.00 0.0014815 158.61 559.91 0.73097 1.8303 2.2651 2018.0 -0.0065024 463.89 0.22558
27.375 39502. undefined 160.44 563.93 0.73708 675.00 0.0014815 160.44 563.93 0.73708 1.8344 2.2685 2019.2 -0.0064929 463.24 0.22587 675.00 0.0014815 160.44 563.93 0.73708 1.8344 2.2685 2019.2 -0.0064929 463.24 0.22587
28.375 39715. undefined 162.28 567.95 0.74318 675.00 0.0014815 162.28 567.95 0.74318 1.8385 2.2718 2020.3 -0.0064835 462.61 0.22617 675.00 0.0014815 162.28 567.95 0.74318 1.8385 2.2718 2020.3 -0.0064835 462.61 0.22617
29.375 39928. undefined 164.12 571.96 0.74927 675.00 0.0014815 164.12 571.96 0.74927 1.8427 2.2752 2021.5 -0.0064741 461.97 0.22647 675.00 0.0014815 164.12 571.96 0.74927 1.8427 2.2752 2021.5 -0.0064741 461.97 0.22647
30.375 40141. undefined 165.96 575.98 0.75536 675.00 0.0014815 165.96 575.98 0.75536 1.8468 2.2786 2022.6 -0.0064646 461.35 0.22677 675.00 0.0014815 165.96 575.98 0.75536 1.8468 2.2786 2022.6 -0.0064646 461.35 0.22677
31.375 40353. undefined 167.81 580.00 0.76144 675.00 0.0014815 167.81 580.00 0.76144 1.8509 2.2820 2023.8 -0.0064552 460.73 0.22707 675.00 0.0014815 167.81 580.00 0.76144 1.8509 2.2820 2023.8 -0.0064552 460.73 0.22707
32.375 40566. undefined 169.66 584.02 0.76752 675.00 0.0014815 169.66 584.02 0.76752 1.8550 2.2854 2024.9 -0.0064457 460.12 0.22736 675.00 0.0014815 169.66 584.02 0.76752 1.8550 2.2854 2024.9 -0.0064457 460.12 0.22736
33.375 40777. undefined 171.52 588.04 0.77359 675.00 0.0014815 171.52 588.04 0.77359 1.8592 2.2889 2026.1 -0.0064363 459.51 0.22766 675.00 0.0014815 171.52 588.04 0.77359 1.8592 2.2889 2026.1 -0.0064363 459.51 0.22766
34.375 40989. undefined 173.38 592.06 0.77965 675.00 0.0014815 173.38 592.06 0.77965 1.8633 2.2923 2027.2 -0.0064268 458.91 0.22796 675.00 0.0014815 173.38 592.06 0.77965 1.8633 2.2923 2027.2 -0.0064268 458.91 0.22796
35.375 41200. undefined 175.25 596.09 0.78570 675.00 0.0014815 175.25 596.09 0.78570 1.8675 2.2958 2028.3 -0.0064174 458.31 0.22826 675.00 0.0014815 175.25 596.09 0.78570 1.8675 2.2958 2028.3 -0.0064174 458.31 0.22826
36.375 41411. undefined 177.12 600.11 0.79175 675.00 0.0014815 177.12 600.11 0.79175 1.8716 2.2992 2029.5 -0.0064079 457.72 0.22856 675.00 0.0014815 177.12 600.11 0.79175 1.8716 2.2992 2029.5 -0.0064079 457.72 0.22856
37.375 41621. undefined 178.99 604.13 0.79780 675.00 0.0014815 178.99 604.13 0.79780 1.8758 2.3027 2030.6 -0.0063985 457.14 0.22886 675.00 0.0014815 178.99 604.13 0.79780 1.8758 2.3027 2030.6 -0.0063985 457.14 0.22886
38.375 41832. undefined 180.87 608.16 0.80383 675.00 0.0014815 180.87 608.16 0.80383 1.8800 2.3061 2031.7 -0.0063890 456.56 0.22916 675.00 0.0014815 180.87 608.16 0.80383 1.8800 2.3061 2031.7 -0.0063890 456.56 0.22916
39.375 42042. undefined 182.75 612.18 0.80987 675.00 0.0014815 182.75 612.18 0.80987 1.8841 2.3096 2032.8 -0.0063796 455.99 0.22946 675.00 0.0014815 182.75 612.18 0.80987 1.8841 2.3096 2032.8 -0.0063796 455.99 0.22946
40.375 42251. undefined 184.64 616.21 0.81589 675.00 0.0014815 184.64 616.21 0.81589 1.8883 2.3131 2034.0 -0.0063701 455.42 0.22977 675.00 0.0014815 184.64 616.21 0.81589 1.8883 2.3131 2034.0 -0.0063701 455.42 0.22977
41.375 42460. undefined 186.53 620.24 0.82191 675.00 0.0014815 186.53 620.24 0.82191 1.8925 2.3166 2035.1 -0.0063607 454.86 0.23007 675.00 0.0014815 186.53 620.24 0.82191 1.8925 2.3166 2035.1 -0.0063607 454.86 0.23007
42.375 42669. undefined 188.42 624.27 0.82793 675.00 0.0014815 188.42 624.27 0.82793 1.8967 2.3201 2036.2 -0.0063512 454.30 0.23037 675.00 0.0014815 188.42 624.27 0.82793 1.8967 2.3201 2036.2 -0.0063512 454.30 0.23037
43.375 42878. undefined 190.32 628.30 0.83393 675.00 0.0014815 190.32 628.30 0.83393 1.9009 2.3236 2037.3 -0.0063418 453.75 0.23067 675.00 0.0014815 190.32 628.30 0.83393 1.9009 2.3236 2037.3 -0.0063418 453.75 0.23067
44.375 43086. undefined 192.22 632.33 0.83994 675.00 0.0014815 192.22 632.33 0.83994 1.9051 2.3272 2038.4 -0.0063323 453.20 0.23097 675.00 0.0014815 192.22 632.33 0.83994 1.9051 2.3272 2038.4 -0.0063323 453.20 0.23097
45.375 43294. undefined 194.13 636.36 0.84593 675.00 0.0014815 194.13 636.36 0.84593 1.9092 2.3307 2039.5 -0.0063229 452.66 0.23128 675.00 0.0014815 194.13 636.36 0.84593 1.9092 2.3307 2039.5 -0.0063229 452.66 0.23128
46.375 43502. undefined 196.04 640.39 0.85193 675.00 0.0014815 196.04 640.39 0.85193 1.9134 2.3342 2040.7 -0.0063135 452.13 0.23158 675.00 0.0014815 196.04 640.39 0.85193 1.9134 2.3342 2040.7 -0.0063135 452.13 0.23158
47.375 43710. undefined 197.96 644.43 0.85791 675.00 0.0014815 197.96 644.43 0.85791 1.9176 2.3378 2041.8 -0.0063040 451.60 0.23188 675.00 0.0014815 197.96 644.43 0.85791 1.9176 2.3378 2041.8 -0.0063040 451.60 0.23188
48.375 43917. undefined 199.88 648.46 0.86389 675.00 0.0014815 199.88 648.46 0.86389 1.9218 2.3413 2042.9 -0.0062946 451.07 0.23219 675.00 0.0014815 199.88 648.46 0.86389 1.9218 2.3413 2042.9 -0.0062946 451.07 0.23219
49.375 44123. undefined 201.80 652.50 0.86987 675.00 0.0014815 201.80 652.50 0.86987 1.9261 2.3449 2044.0 -0.0062852 450.55 0.23249 675.00 0.0014815 201.80 652.50 0.86987 1.9261 2.3449 2044.0 -0.0062852 450.55 0.23249
50.375 44330. undefined 203.73 656.54 0.87583 675.00 0.0014815 203.73 656.54 0.87583 1.9303 2.3485 2045.1 -0.0062758 450.04 0.23279 675.00 0.0014815 203.73 656.54 0.87583 1.9303 2.3485 2045.1 -0.0062758 450.04 0.23279
51.375 44536. undefined 205.66 660.58 0.88180 675.00 0.0014815 205.66 660.58 0.88180 1.9345 2.3520 2046.2 -0.0062664 449.53 0.23310 675.00 0.0014815 205.66 660.58 0.88180 1.9345 2.3520 2046.2 -0.0062664 449.53 0.23310
52.375 44742. undefined 207.60 664.62 0.88776 675.00 0.0014815 207.60 664.62 0.88776 1.9387 2.3556 2047.2 -0.0062570 449.02 0.23340 675.00 0.0014815 207.60 664.62 0.88776 1.9387 2.3556 2047.2 -0.0062570 449.02 0.23340
53.375 44948. undefined 209.54 668.66 0.89371 675.00 0.0014815 209.54 668.66 0.89371 1.9429 2.3592 2048.3 -0.0062476 448.52 0.23371 675.00 0.0014815 209.54 668.66 0.89371 1.9429 2.3592 2048.3 -0.0062476 448.52 0.23371
54.375 45153. undefined 211.49 672.70 0.89966 675.00 0.0014815 211.49 672.70 0.89966 1.9471 2.3628 2049.4 -0.0062383 448.02 0.23401 675.00 0.0014815 211.49 672.70 0.89966 1.9471 2.3628 2049.4 -0.0062383 448.02 0.23401
55.375 45358. undefined 213.43 676.74 0.90560 675.00 0.0014815 213.43 676.74 0.90560 1.9514 2.3664 2050.5 -0.0062289 447.53 0.23432 675.00 0.0014815 213.43 676.74 0.90560 1.9514 2.3664 2050.5 -0.0062289 447.53 0.23432
56.375 45563. undefined 215.39 680.79 0.91154 675.00 0.0014815 215.39 680.79 0.91154 1.9556 2.3700 2051.6 -0.0062195 447.04 0.23463 675.00 0.0014815 215.39 680.79 0.91154 1.9556 2.3700 2051.6 -0.0062195 447.04 0.23463
57.375 45767. undefined 217.35 684.83 0.91747 675.00 0.0014815 217.35 684.83 0.91747 1.9598 2.3736 2052.7 -0.0062102 446.56 0.23493 675.00 0.0014815 217.35 684.83 0.91747 1.9598 2.3736 2052.7 -0.0062102 446.56 0.23493
58.375 45972. undefined 219.31 688.88 0.92340 675.00 0.0014815 219.31 688.88 0.92340 1.9641 2.3772 2053.8 -0.0062009 446.08 0.23524 675.00 0.0014815 219.31 688.88 0.92340 1.9641 2.3772 2053.8 -0.0062009 446.08 0.23524
59.375 46175. undefined 221.27 692.93 0.92932 675.00 0.0014815 221.27 692.93 0.92932 1.9683 2.3809 2054.8 -0.0061915 445.61 0.23555 675.00 0.0014815 221.27 692.93 0.92932 1.9683 2.3809 2054.8 -0.0061915 445.61 0.23555
60.375 46379. undefined 223.24 696.98 0.93523 675.00 0.0014815 223.24 696.98 0.93523 1.9725 2.3845 2055.9 -0.0061822 445.14 0.23585 675.00 0.0014815 223.24 696.98 0.93523 1.9725 2.3845 2055.9 -0.0061822 445.14 0.23585
61.375 46582. undefined 225.22 701.03 0.94115 675.00 0.0014815 225.22 701.03 0.94115 1.9768 2.3881 2057.0 -0.0061729 444.67 0.23616 675.00 0.0014815 225.22 701.03 0.94115 1.9768 2.3881 2057.0 -0.0061729 444.67 0.23616
62.375 46785. undefined 227.20 705.08 0.94705 675.00 0.0014815 227.20 705.08 0.94705 1.9810 2.3918 2058.1 -0.0061636 444.21 0.23647 675.00 0.0014815 227.20 705.08 0.94705 1.9810 2.3918 2058.1 -0.0061636 444.21 0.23647
63.375 46988. undefined 229.18 709.14 0.95295 675.00 0.0014815 229.18 709.14 0.95295 1.9853 2.3954 2059.1 -0.0061544 443.76 0.23678 675.00 0.0014815 229.18 709.14 0.95295 1.9853 2.3954 2059.1 -0.0061544 443.76 0.23678
64.375 47191. undefined 231.17 713.19 0.95885 675.00 0.0014815 231.17 713.19 0.95885 1.9895 2.3991 2060.2 -0.0061451 443.30 0.23708 675.00 0.0014815 231.17 713.19 0.95885 1.9895 2.3991 2060.2 -0.0061451 443.30 0.23708
65.375 47393. undefined 233.16 717.25 0.96474 675.00 0.0014815 233.16 717.25 0.96474 1.9937 2.4027 2061.3 -0.0061358 442.86 0.23739 675.00 0.0014815 233.16 717.25 0.96474 1.9937 2.4027 2061.3 -0.0061358 442.86 0.23739
66.375 47595. undefined 235.16 721.31 0.97063 675.00 0.0014815 235.16 721.31 0.97063 1.9980 2.4064 2062.3 -0.0061266 442.41 0.23770 675.00 0.0014815 235.16 721.31 0.97063 1.9980 2.4064 2062.3 -0.0061266 442.41 0.23770
67.375 47796. undefined 237.16 725.37 0.97651 675.00 0.0014815 237.16 725.37 0.97651 2.0022 2.4100 2063.4 -0.0061174 441.97 0.23801 675.00 0.0014815 237.16 725.37 0.97651 2.0022 2.4100 2063.4 -0.0061174 441.97 0.23801
68.375 47998. undefined 239.16 729.43 0.98239 675.00 0.0014815 239.16 729.43 0.98239 2.0065 2.4137 2064.5 -0.0061082 441.53 0.23832 675.00 0.0014815 239.16 729.43 0.98239 2.0065 2.4137 2064.5 -0.0061082 441.53 0.23832
69.375 48199. undefined 241.17 733.49 0.98826 675.00 0.0014815 241.17 733.49 0.98826 2.0107 2.4174 2065.5 -0.0060990 441.10 0.23863 675.00 0.0014815 241.17 733.49 0.98826 2.0107 2.4174 2065.5 -0.0060990 441.10 0.23863
70.375 48400. undefined 243.18 737.56 0.99413 675.00 0.0014815 243.18 737.56 0.99413 2.0150 2.4210 2066.6 -0.0060898 440.67 0.23894 675.00 0.0014815 243.18 737.56 0.99413 2.0150 2.4210 2066.6 -0.0060898 440.67 0.23894
71.375 48600. undefined 245.20 741.62 0.99999 675.00 0.0014815 245.20 741.62 0.99999 2.0192 2.4247 2067.6 -0.0060807 440.25 0.23925 675.00 0.0014815 245.20 741.62 0.99999 2.0192 2.4247 2067.6 -0.0060807 440.25 0.23925
72.375 48800. undefined 247.22 745.69 1.0059 675.00 0.0014815 247.22 745.69 1.0059 2.0235 2.4284 2068.7 -0.0060715 439.83 0.23956 675.00 0.0014815 247.22 745.69 1.0059 2.0235 2.4284 2068.7 -0.0060715 439.83 0.23956
73.375 49000. undefined 249.25 749.76 1.0117 675.00 0.0014815 249.25 749.76 1.0117 2.0278 2.4321 2069.7 -0.0060624 439.41 0.23987 675.00 0.0014815 249.25 749.76 1.0117 2.0278 2.4321 2069.7 -0.0060624 439.41 0.23987
74.375 49200. undefined 251.28 753.83 1.0176 675.00 0.0014815 251.28 753.83 1.0176 2.0320 2.4358 2070.8 -0.0060533 438.99 0.24018 675.00 0.0014815 251.28 753.83 1.0176 2.0320 2.4358 2070.8 -0.0060533 438.99 0.24018
75.375 49399. undefined 253.31 757.90 1.0234 675.00 0.0014815 253.31 757.90 1.0234 2.0363 2.4395 2071.8 -0.0060442 438.58 0.24049 675.00 0.0014815 253.31 757.90 1.0234 2.0363 2.4395 2071.8 -0.0060442 438.58 0.24049
76.375 49599. undefined 255.35 761.97 1.0292 675.00 0.0014815 255.35 761.97 1.0292 2.0405 2.4432 2072.9 -0.0060351 438.18 0.24081 675.00 0.0014815 255.35 761.97 1.0292 2.0405 2.4432 2072.9 -0.0060351 438.18 0.24081
77.375 49798. undefined 257.39 766.05 1.0351 675.00 0.0014815 257.39 766.05 1.0351 2.0448 2.4469 2073.9 -0.0060260 437.77 0.24112 675.00 0.0014815 257.39 766.05 1.0351 2.0448 2.4469 2073.9 -0.0060260 437.77 0.24112
78.375 49996. undefined 259.44 770.12 1.0409 675.00 0.0014815 259.44 770.12 1.0409 2.0490 2.4506 2075.0 -0.0060170 437.38 0.24143 675.00 0.0014815 259.44 770.12 1.0409 2.0490 2.4506 2075.0 -0.0060170 437.38 0.24143
79.375 50195. undefined 261.49 774.20 1.0467 675.00 0.0014815 261.49 774.20 1.0467 2.0533 2.4543 2076.0 -0.0060080 436.98 0.24174 675.00 0.0014815 261.49 774.20 1.0467 2.0533 2.4543 2076.0 -0.0060080 436.98 0.24174
80.375 50393. undefined 263.54 778.28 1.0526 675.00 0.0014815 263.54 778.28 1.0526 2.0576 2.4580 2077.1 -0.0059989 436.59 0.24206 675.00 0.0014815 263.54 778.28 1.0526 2.0576 2.4580 2077.1 -0.0059989 436.59 0.24206
81.375 50591. undefined 265.60 782.36 1.0584 675.00 0.0014815 265.60 782.36 1.0584 2.0618 2.4617 2078.1 -0.0059899 436.20 0.24237 675.00 0.0014815 265.60 782.36 1.0584 2.0618 2.4617 2078.1 -0.0059899 436.20 0.24237
82.375 50788. undefined 267.67 786.44 1.0642 675.00 0.0014815 267.67 786.44 1.0642 2.0661 2.4655 2079.1 -0.0059810 435.81 0.24268 675.00 0.0014815 267.67 786.44 1.0642 2.0661 2.4655 2079.1 -0.0059810 435.81 0.24268
83.375 50986. undefined 269.74 790.53 1.0700 675.00 0.0014815 269.74 790.53 1.0700 2.0703 2.4692 2080.2 -0.0059720 435.43 0.24300 675.00 0.0014815 269.74 790.53 1.0700 2.0703 2.4692 2080.2 -0.0059720 435.43 0.24300
84.375 51183. undefined 271.81 794.61 1.0758 675.00 0.0014815 271.81 794.61 1.0758 2.0746 2.4729 2081.2 -0.0059631 435.05 0.24331 675.00 0.0014815 271.81 794.61 1.0758 2.0746 2.4729 2081.2 -0.0059631 435.05 0.24331
85.375 51380. undefined 273.89 798.70 1.0816 675.00 0.0014815 273.89 798.70 1.0816 2.0788 2.4766 2082.2 -0.0059542 434.68 0.24362 675.00 0.0014815 273.89 798.70 1.0816 2.0788 2.4766 2082.2 -0.0059542 434.68 0.24362
86.375 51576. undefined 275.97 802.79 1.0874 675.00 0.0014815 275.97 802.79 1.0874 2.0831 2.4804 2083.3 -0.0059453 434.30 0.24394 675.00 0.0014815 275.97 802.79 1.0874 2.0831 2.4804 2083.3 -0.0059453 434.30 0.24394
87.375 51773. undefined 278.05 806.88 1.0932 675.00 0.0014815 278.05 806.88 1.0932 2.0873 2.4841 2084.3 -0.0059364 433.93 0.24425 675.00 0.0014815 278.05 806.88 1.0932 2.0873 2.4841 2084.3 -0.0059364 433.93 0.24425
88.375 51969. undefined 280.14 810.97 1.0990 675.00 0.0014815 280.14 810.97 1.0990 2.0916 2.4878 2085.3 -0.0059275 433.57 0.24457 675.00 0.0014815 280.14 810.97 1.0990 2.0916 2.4878 2085.3 -0.0059275 433.57 0.24457
89.375 52165. undefined 282.23 815.07 1.1048 675.00 0.0014815 282.23 815.07 1.1048 2.0959 2.4916 2086.3 -0.0059187 433.20 0.24488 675.00 0.0014815 282.23 815.07 1.1048 2.0959 2.4916 2086.3 -0.0059187 433.20 0.24488
90.375 52360. undefined 284.33 819.16 1.1105 675.00 0.0014815 284.33 819.16 1.1105 2.1001 2.4953 2087.4 -0.0059099 432.84 0.24520 675.00 0.0014815 284.33 819.16 1.1105 2.1001 2.4953 2087.4 -0.0059099 432.84 0.24520
91.375 52555. undefined 286.44 823.26 1.1163 675.00 0.0014815 286.44 823.26 1.1163 2.1044 2.4990 2088.4 -0.0059011 432.49 0.24552 675.00 0.0014815 286.44 823.26 1.1163 2.1044 2.4990 2088.4 -0.0059011 432.49 0.24552
92.375 52751. undefined 288.54 827.36 1.1221 675.00 0.0014815 288.54 827.36 1.1221 2.1086 2.5028 2089.4 -0.0058923 432.13 0.24583 675.00 0.0014815 288.54 827.36 1.1221 2.1086 2.5028 2089.4 -0.0058923 432.13 0.24583
93.375 52945. undefined 290.65 831.46 1.1279 675.00 0.0014815 290.65 831.46 1.1279 2.1129 2.5065 2090.4 -0.0058835 431.78 0.24615 675.00 0.0014815 290.65 831.46 1.1279 2.1129 2.5065 2090.4 -0.0058835 431.78 0.24615
94.375 53140. undefined 292.77 835.56 1.1336 675.00 0.0014815 292.77 835.56 1.1336 2.1171 2.5103 2091.4 -0.0058748 431.43 0.24647 675.00 0.0014815 292.77 835.56 1.1336 2.1171 2.5103 2091.4 -0.0058748 431.43 0.24647
95.375 53334. undefined 294.89 839.67 1.1394 675.00 0.0014815 294.89 839.67 1.1394 2.1214 2.5140 2092.4 -0.0058661 431.09 0.24678 675.00 0.0014815 294.89 839.67 1.1394 2.1214 2.5140 2092.4 -0.0058661 431.09 0.24678
96.375 53528. undefined 297.01 843.77 1.1451 675.00 0.0014815 297.01 843.77 1.1451 2.1256 2.5178 2093.5 -0.0058574 430.75 0.24710 675.00 0.0014815 297.01 843.77 1.1451 2.1256 2.5178 2093.5 -0.0058574 430.75 0.24710
97.375 53722. undefined 299.14 847.88 1.1509 675.00 0.0014815 299.14 847.88 1.1509 2.1299 2.5215 2094.5 -0.0058487 430.41 0.24742 675.00 0.0014815 299.14 847.88 1.1509 2.1299 2.5215 2094.5 -0.0058487 430.41 0.24742
98.375 53916. undefined 301.27 851.99 1.1566 675.00 0.0014815 301.27 851.99 1.1566 2.1341 2.5253 2095.5 -0.0058401 430.07 0.24774 675.00 0.0014815 301.27 851.99 1.1566 2.1341 2.5253 2095.5 -0.0058401 430.07 0.24774
99.375 54109. undefined 303.41 856.10 1.1624 675.00 0.0014815 303.41 856.10 1.1624 2.1384 2.5290 2096.5 -0.0058314 429.74 0.24806 675.00 0.0014815 303.41 856.10 1.1624 2.1384 2.5290 2096.5 -0.0058314 429.74 0.24806
100.38 54303. undefined 305.55 860.22 1.1681 675.00 0.0014815 305.55 860.22 1.1681 2.1426 2.5328 2097.5 -0.0058228 429.41 0.24838 675.00 0.0014815 305.55 860.22 1.1681 2.1426 2.5328 2097.5 -0.0058228 429.41 0.24838
101.38 54495. undefined 307.69 864.33 1.1738 675.00 0.0014815 307.69 864.33 1.1738 2.1468 2.5365 2098.5 -0.0058142 429.08 0.24869 675.00 0.0014815 307.69 864.33 1.1738 2.1468 2.5365 2098.5 -0.0058142 429.08 0.24869
102.38 54688. undefined 309.84 868.45 1.1796 675.00 0.0014815 309.84 868.45 1.1796 2.1511 2.5403 2099.5 -0.0058057 428.75 0.24901 675.00 0.0014815 309.84 868.45 1.1796 2.1511 2.5403 2099.5 -0.0058057 428.75 0.24901
103.38 54881. undefined 311.99 872.57 1.1853 675.00 0.0014815 311.99 872.57 1.1853 2.1553 2.5440 2100.5 -0.0057971 428.43 0.24933 675.00 0.0014815 311.99 872.57 1.1853 2.1553 2.5440 2100.5 -0.0057971 428.43 0.24933
104.38 55073. undefined 314.15 876.69 1.1910 675.00 0.0014815 314.15 876.69 1.1910 2.1596 2.5478 2101.5 -0.0057886 428.11 0.24965 675.00 0.0014815 314.15 876.69 1.1910 2.1596 2.5478 2101.5 -0.0057886 428.11 0.24965
105.38 55265. undefined 316.31 880.81 1.1967 675.00 0.0014815 316.31 880.81 1.1967 2.1638 2.5515 2102.5 -0.0057801 427.79 0.24997 675.00 0.0014815 316.31 880.81 1.1967 2.1638 2.5515 2102.5 -0.0057801 427.79 0.24997
106.38 55456. undefined 318.48 884.94 1.2025 675.00 0.0014815 318.48 884.94 1.2025 2.1680 2.5553 2103.5 -0.0057716 427.48 0.25029 675.00 0.0014815 318.48 884.94 1.2025 2.1680 2.5553 2103.5 -0.0057716 427.48 0.25029
107.38 55648. undefined 320.65 889.06 1.2082 675.00 0.0014815 320.65 889.06 1.2082 2.1723 2.5590 2104.5 -0.0057632 427.17 0.25061 675.00 0.0014815 320.65 889.06 1.2082 2.1723 2.5590 2104.5 -0.0057632 427.17 0.25061
108.38 55839. undefined 322.82 893.19 1.2139 675.00 0.0014815 322.82 893.19 1.2139 2.1765 2.5628 2105.5 -0.0057547 426.86 0.25094 675.00 0.0014815 322.82 893.19 1.2139 2.1765 2.5628 2105.5 -0.0057547 426.86 0.25094
109.38 56030. undefined 325.00 897.32 1.2196 675.00 0.0014815 325.00 897.32 1.2196 2.1807 2.5665 2106.5 -0.0057463 426.55 0.25126 675.00 0.0014815 325.00 897.32 1.2196 2.1807 2.5665 2106.5 -0.0057463 426.55 0.25126
110.38 56221. undefined 327.18 901.45 1.2253 675.00 0.0014815 327.18 901.45 1.2253 2.1849 2.5703 2107.5 -0.0057379 426.25 0.25158 675.00 0.0014815 327.18 901.45 1.2253 2.1849 2.5703 2107.5 -0.0057379 426.25 0.25158
111.38 56412. undefined 329.37 905.58 1.2310 675.00 0.0014815 329.37 905.58 1.2310 2.1892 2.5741 2108.5 -0.0057296 425.94 0.25190 675.00 0.0014815 329.37 905.58 1.2310 2.1892 2.5741 2108.5 -0.0057296 425.94 0.25190
112.38 56602. undefined 331.56 909.72 1.2367 675.00 0.0014815 331.56 909.72 1.2367 2.1934 2.5778 2109.5 -0.0057212 425.64 0.25222 675.00 0.0014815 331.56 909.72 1.2367 2.1934 2.5778 2109.5 -0.0057212 425.64 0.25222
113.38 56792. undefined 333.76 913.86 1.2423 675.00 0.0014815 333.76 913.86 1.2423 2.1976 2.5816 2110.5 -0.0057129 425.35 0.25255 675.00 0.0014815 333.76 913.86 1.2423 2.1976 2.5816 2110.5 -0.0057129 425.35 0.25255
114.38 56982. undefined 335.96 918.00 1.2480 675.00 0.0014815 335.96 918.00 1.2480 2.2018 2.5853 2111.5 -0.0057046 425.05 0.25287 675.00 0.0014815 335.96 918.00 1.2480 2.2018 2.5853 2111.5 -0.0057046 425.05 0.25287
115.38 57172. undefined 338.16 922.14 1.2537 675.00 0.0014815 338.16 922.14 1.2537 2.2060 2.5891 2112.4 -0.0056964 424.76 0.25319 675.00 0.0014815 338.16 922.14 1.2537 2.2060 2.5891 2112.4 -0.0056964 424.76 0.25319
116.38 57361. undefined 340.37 926.28 1.2594 675.00 0.0014815 340.37 926.28 1.2594 2.2102 2.5928 2113.4 -0.0056881 424.47 0.25351 675.00 0.0014815 340.37 926.28 1.2594 2.2102 2.5928 2113.4 -0.0056881 424.47 0.25351
117.38 57550. undefined 342.58 930.43 1.2651 675.00 0.0014815 342.58 930.43 1.2651 2.2144 2.5966 2114.4 -0.0056799 424.18 0.25384 675.00 0.0014815 342.58 930.43 1.2651 2.2144 2.5966 2114.4 -0.0056799 424.18 0.25384
118.38 57739. undefined 344.80 934.57 1.2707 675.00 0.0014815 344.80 934.57 1.2707 2.2186 2.6004 2115.4 -0.0056717 423.90 0.25416 675.00 0.0014815 344.80 934.57 1.2707 2.2186 2.6004 2115.4 -0.0056717 423.90 0.25416
119.38 57928. undefined 347.02 938.72 1.2764 675.00 0.0014815 347.02 938.72 1.2764 2.2229 2.6041 2116.4 -0.0056635 423.61 0.25449 675.00 0.0014815 347.02 938.72 1.2764 2.2229 2.6041 2116.4 -0.0056635 423.61 0.25449
120.38 58117. undefined 349.24 942.87 1.2820 675.00 0.0014815 349.24 942.87 1.2820 2.2271 2.6079 2117.3 -0.0056554 423.33 0.25481 675.00 0.0014815 349.24 942.87 1.2820 2.2271 2.6079 2117.3 -0.0056554 423.33 0.25481
121.38 58305. undefined 351.47 947.03 1.2877 675.00 0.0014815 351.47 947.03 1.2877 2.2312 2.6116 2118.3 -0.0056472 423.05 0.25514 675.00 0.0014815 351.47 947.03 1.2877 2.2312 2.6116 2118.3 -0.0056472 423.05 0.25514
122.38 58493. undefined 353.71 951.18 1.2934 675.00 0.0014815 353.71 951.18 1.2934 2.2354 2.6154 2119.3 -0.0056391 422.78 0.25546 675.00 0.0014815 353.71 951.18 1.2934 2.2354 2.6154 2119.3 -0.0056391 422.78 0.25546
123.38 58681. undefined 355.94 955.34 1.2990 675.00 0.0014815 355.94 955.34 1.2990 2.2396 2.6191 2120.3 -0.0056311 422.50 0.25579 675.00 0.0014815 355.94 955.34 1.2990 2.2396 2.6191 2120.3 -0.0056311 422.50 0.25579
124.38 58869. undefined 358.19 959.50 1.3047 675.00 0.0014815 358.19 959.50 1.3047 2.2438 2.6229 2121.3 -0.0056230 422.23 0.25611 675.00 0.0014815 358.19 959.50 1.3047 2.2438 2.6229 2121.3 -0.0056230 422.23 0.25611
125.38 59056. undefined 360.43 963.66 1.3103 675.00 0.0014815 360.43 963.66 1.3103 2.2480 2.6266 2122.2 -0.0056150 421.96 0.25644 675.00 0.0014815 360.43 963.66 1.3103 2.2480 2.6266 2122.2 -0.0056150 421.96 0.25644
126.38 59243. undefined 362.68 967.82 1.3159 675.00 0.0014815 362.68 967.82 1.3159 2.2522 2.6304 2123.2 -0.0056070 421.69 0.25677 675.00 0.0014815 362.68 967.82 1.3159 2.2522 2.6304 2123.2 -0.0056070 421.69 0.25677
127.38 59430. undefined 364.94 971.98 1.3216 675.00 0.0014815 364.94 971.98 1.3216 2.2564 2.6341 2124.2 -0.0055990 421.43 0.25709 675.00 0.0014815 364.94 971.98 1.3216 2.2564 2.6341 2124.2 -0.0055990 421.43 0.25709
128.38 59617. undefined 367.19 976.15 1.3272 675.00 0.0014815 367.19 976.15 1.3272 2.2606 2.6379 2125.1 -0.0055910 421.16 0.25742 675.00 0.0014815 367.19 976.15 1.3272 2.2606 2.6379 2125.1 -0.0055910 421.16 0.25742
129.38 59804. undefined 369.46 980.32 1.3328 675.00 0.0014815 369.46 980.32 1.3328 2.2647 2.6416 2126.1 -0.0055831 420.90 0.25775 675.00 0.0014815 369.46 980.32 1.3328 2.2647 2.6416 2126.1 -0.0055831 420.90 0.25775
130.38 59990. undefined 371.72 984.49 1.3385 675.00 0.0014815 371.72 984.49 1.3385 2.2689 2.6454 2127.1 -0.0055752 420.64 0.25807 675.00 0.0014815 371.72 984.49 1.3385 2.2689 2.6454 2127.1 -0.0055752 420.64 0.25807
131.38 60176. undefined 374.00 988.66 1.3441 675.00 0.0014815 374.00 988.66 1.3441 2.2731 2.6491 2128.0 -0.0055673 420.39 0.25840 675.00 0.0014815 374.00 988.66 1.3441 2.2731 2.6491 2128.0 -0.0055673 420.39 0.25840
132.38 60362. undefined 376.27 992.84 1.3497 675.00 0.0014815 376.27 992.84 1.3497 2.2772 2.6528 2129.0 -0.0055594 420.13 0.25873 675.00 0.0014815 376.27 992.84 1.3497 2.2772 2.6528 2129.0 -0.0055594 420.13 0.25873
133.38 60548. undefined 378.55 997.01 1.3553 675.00 0.0014815 378.55 997.01 1.3553 2.2814 2.6566 2130.0 -0.0055516 419.88 0.25906 675.00 0.0014815 378.55 997.01 1.3553 2.2814 2.6566 2130.0 -0.0055516 419.88 0.25906
134.38 60733. undefined 380.83 1001.2 1.3609 675.00 0.0014815 380.83 1001.2 1.3609 2.2856 2.6603 2130.9 -0.0055437 419.63 0.25939 675.00 0.0014815 380.83 1001.2 1.3609 2.2856 2.6603 2130.9 -0.0055437 419.63 0.25939
135.38 60919. undefined 383.12 1005.4 1.3665 675.00 0.0014815 383.12 1005.4 1.3665 2.2897 2.6641 2131.9 -0.0055360 419.38 0.25972 675.00 0.0014815 383.12 1005.4 1.3665 2.2897 2.6641 2131.9 -0.0055360 419.38 0.25972
136.38 61104. undefined 385.41 1009.6 1.3721 675.00 0.0014815 385.41 1009.6 1.3721 2.2939 2.6678 2132.9 -0.0055282 419.13 0.26005 675.00 0.0014815 385.41 1009.6 1.3721 2.2939 2.6678 2132.9 -0.0055282 419.13 0.26005
137.38 61289. undefined 387.71 1013.7 1.3777 675.00 0.0014815 387.71 1013.7 1.3777 2.2980 2.6715 2133.8 -0.0055204 418.88 0.26037 675.00 0.0014815 387.71 1013.7 1.3777 2.2980 2.6715 2133.8 -0.0055204 418.88 0.26037
138.38 61474. undefined 390.01 1017.9 1.3833 675.00 0.0014815 390.01 1017.9 1.3833 2.3021 2.6753 2134.8 -0.0055127 418.64 0.26070 675.00 0.0014815 390.01 1017.9 1.3833 2.3021 2.6753 2134.8 -0.0055127 418.64 0.26070
139.38 61658. undefined 392.31 1022.1 1.3889 675.00 0.0014815 392.31 1022.1 1.3889 2.3063 2.6790 2135.7 -0.0055050 418.40 0.26103 675.00 0.0014815 392.31 1022.1 1.3889 2.3063 2.6790 2135.7 -0.0055050 418.40 0.26103
140.38 61842. undefined 394.62 1026.3 1.3945 675.00 0.0014815 394.62 1026.3 1.3945 2.3104 2.6827 2136.7 -0.0054974 418.16 0.26137 675.00 0.0014815 394.62 1026.3 1.3945 2.3104 2.6827 2136.7 -0.0054974 418.16 0.26137
141.38 62026. undefined 396.93 1030.5 1.4001 675.00 0.0014815 396.93 1030.5 1.4001 2.3146 2.6864 2137.6 -0.0054897 417.92 0.26170 675.00 0.0014815 396.93 1030.5 1.4001 2.3146 2.6864 2137.6 -0.0054897 417.92 0.26170
142.38 62210. undefined 399.25 1034.7 1.4057 675.00 0.0014815 399.25 1034.7 1.4057 2.3187 2.6902 2138.6 -0.0054821 417.68 0.26203 675.00 0.0014815 399.25 1034.7 1.4057 2.3187 2.6902 2138.6 -0.0054821 417.68 0.26203
143.38 62394. undefined 401.57 1038.9 1.4113 675.00 0.0014815 401.57 1038.9 1.4113 2.3228 2.6939 2139.5 -0.0054745 417.45 0.26236 675.00 0.0014815 401.57 1038.9 1.4113 2.3228 2.6939 2139.5 -0.0054745 417.45 0.26236
144.38 62578. undefined 403.90 1043.1 1.4168 675.00 0.0014815 403.90 1043.1 1.4168 2.3269 2.6976 2140.5 -0.0054669 417.22 0.26269 675.00 0.0014815 403.90 1043.1 1.4168 2.3269 2.6976 2140.5 -0.0054669 417.22 0.26269
145.38 62761. undefined 406.23 1047.3 1.4224 675.00 0.0014815 406.23 1047.3 1.4224 2.3311 2.7013 2141.4 -0.0054594 416.98 0.26302 675.00 0.0014815 406.23 1047.3 1.4224 2.3311 2.7013 2141.4 -0.0054594 416.98 0.26302
146.38 62944. undefined 408.56 1051.5 1.4280 675.00 0.0014815 408.56 1051.5 1.4280 2.3352 2.7051 2142.4 -0.0054518 416.76 0.26335 675.00 0.0014815 408.56 1051.5 1.4280 2.3352 2.7051 2142.4 -0.0054518 416.76 0.26335
147.38 63127. undefined 410.90 1055.7 1.4335 675.00 0.0014815 410.90 1055.7 1.4335 2.3393 2.7088 2143.3 -0.0054443 416.53 0.26369 675.00 0.0014815 410.90 1055.7 1.4335 2.3393 2.7088 2143.3 -0.0054443 416.53 0.26369
148.38 63309. undefined 413.24 1059.9 1.4391 675.00 0.0014815 413.24 1059.9 1.4391 2.3434 2.7125 2144.3 -0.0054368 416.30 0.26402 675.00 0.0014815 413.24 1059.9 1.4391 2.3434 2.7125 2144.3 -0.0054368 416.30 0.26402
149.38 63492. undefined 415.58 1064.1 1.4446 675.00 0.0014815 415.58 1064.1 1.4446 2.3475 2.7162 2145.2 -0.0054294 416.08 0.26435 675.00 0.0014815 415.58 1064.1 1.4446 2.3475 2.7162 2145.2 -0.0054294 416.08 0.26435
150.38 63674. undefined 417.93 1068.3 1.4502 675.00 0.0014815 417.93 1068.3 1.4502 2.3516 2.7199 2146.2 -0.0054220 415.86 0.26469 675.00 0.0014815 417.93 1068.3 1.4502 2.3516 2.7199 2146.2 -0.0054220 415.86 0.26469
151.38 63856. undefined 420.29 1072.5 1.4558 675.00 0.0014815 420.29 1072.5 1.4558 2.3557 2.7236 2147.1 -0.0054146 415.63 0.26502 675.00 0.0014815 420.29 1072.5 1.4558 2.3557 2.7236 2147.1 -0.0054146 415.63 0.26502
152.38 64038. undefined 422.64 1076.8 1.4613 675.00 0.0014815 422.64 1076.8 1.4613 2.3598 2.7273 2148.1 -0.0054072 415.42 0.26535 675.00 0.0014815 422.64 1076.8 1.4613 2.3598 2.7273 2148.1 -0.0054072 415.42 0.26535
153.38 64220. undefined 425.00 1081.0 1.4668 675.00 0.0014815 425.00 1081.0 1.4668 2.3639 2.7310 2149.0 -0.0053998 415.20 0.26569 675.00 0.0014815 425.00 1081.0 1.4668 2.3639 2.7310 2149.0 -0.0053998 415.20 0.26569
154.38 64401. undefined 427.37 1085.2 1.4724 675.00 0.0014815 427.37 1085.2 1.4724 2.3679 2.7347 2149.9 -0.0053925 414.98 0.26602 675.00 0.0014815 427.37 1085.2 1.4724 2.3679 2.7347 2149.9 -0.0053925 414.98 0.26602
155.38 64583. undefined 429.74 1089.4 1.4779 675.00 0.0014815 429.74 1089.4 1.4779 2.3720 2.7384 2150.9 -0.0053852 414.77 0.26636 675.00 0.0014815 429.74 1089.4 1.4779 2.3720 2.7384 2150.9 -0.0053852 414.77 0.26636
156.38 64764. undefined 432.11 1093.6 1.4835 675.00 0.0014815 432.11 1093.6 1.4835 2.3761 2.7421 2151.8 -0.0053779 414.56 0.26669 675.00 0.0014815 432.11 1093.6 1.4835 2.3761 2.7421 2151.8 -0.0053779 414.56 0.26669
157.38 64945. undefined 434.49 1097.9 1.4890 675.00 0.0014815 434.49 1097.9 1.4890 2.3802 2.7458 2152.7 -0.0053706 414.35 0.26703 675.00 0.0014815 434.49 1097.9 1.4890 2.3802 2.7458 2152.7 -0.0053706 414.35 0.26703
158.38 65125. undefined 436.88 1102.1 1.4945 675.00 0.0014815 436.88 1102.1 1.4945 2.3842 2.7495 2153.7 -0.0053634 414.14 0.26736 675.00 0.0014815 436.88 1102.1 1.4945 2.3842 2.7495 2153.7 -0.0053634 414.14 0.26736
159.38 65306. undefined 439.26 1106.3 1.5000 675.00 0.0014815 439.26 1106.3 1.5000 2.3883 2.7532 2154.6 -0.0053562 413.93 0.26770 675.00 0.0014815 439.26 1106.3 1.5000 2.3883 2.7532 2154.6 -0.0053562 413.93 0.26770
160.38 65486. undefined 441.65 1110.6 1.5056 675.00 0.0014815 441.65 1110.6 1.5056 2.3924 2.7568 2155.5 -0.0053490 413.72 0.26804 675.00 0.0014815 441.65 1110.6 1.5056 2.3924 2.7568 2155.5 -0.0053490 413.72 0.26804
161.38 65666. undefined 444.05 1114.8 1.5111 675.00 0.0014815 444.05 1114.8 1.5111 2.3964 2.7605 2156.5 -0.0053418 413.52 0.26837 675.00 0.0014815 444.05 1114.8 1.5111 2.3964 2.7605 2156.5 -0.0053418 413.52 0.26837
162.38 65846. undefined 446.44 1119.0 1.5166 675.00 0.0014815 446.44 1119.0 1.5166 2.4005 2.7642 2157.4 -0.0053347 413.31 0.26871 675.00 0.0014815 446.44 1119.0 1.5166 2.4005 2.7642 2157.4 -0.0053347 413.31 0.26871
163.38 66026. undefined 448.85 1123.3 1.5221 675.00 0.0014815 448.85 1123.3 1.5221 2.4045 2.7679 2158.3 -0.0053276 413.11 0.26905 675.00 0.0014815 448.85 1123.3 1.5221 2.4045 2.7679 2158.3 -0.0053276 413.11 0.26905
164.38 66206. undefined 451.25 1127.5 1.5276 675.00 0.0014815 451.25 1127.5 1.5276 2.4085 2.7715 2159.3 -0.0053205 412.91 0.26938 675.00 0.0014815 451.25 1127.5 1.5276 2.4085 2.7715 2159.3 -0.0053205 412.91 0.26938
165.38 66385. undefined 453.66 1131.8 1.5331 675.00 0.0014815 453.66 1131.8 1.5331 2.4126 2.7752 2160.2 -0.0053134 412.71 0.26972 675.00 0.0014815 453.66 1131.8 1.5331 2.4126 2.7752 2160.2 -0.0053134 412.71 0.26972
166.38 66564. undefined 456.08 1136.0 1.5386 675.00 0.0014815 456.08 1136.0 1.5386 2.4166 2.7789 2161.1 -0.0053063 412.52 0.27006 675.00 0.0014815 456.08 1136.0 1.5386 2.4166 2.7789 2161.1 -0.0053063 412.52 0.27006
167.38 66743. undefined 458.50 1140.2 1.5441 675.00 0.0014815 458.50 1140.2 1.5441 2.4206 2.7825 2162.0 -0.0052993 412.32 0.27040 675.00 0.0014815 458.50 1140.2 1.5441 2.4206 2.7825 2162.0 -0.0052993 412.32 0.27040
168.38 66922. undefined 460.92 1144.5 1.5496 675.00 0.0014815 460.92 1144.5 1.5496 2.4247 2.7862 2163.0 -0.0052923 412.13 0.27074 675.00 0.0014815 460.92 1144.5 1.5496 2.4247 2.7862 2163.0 -0.0052923 412.13 0.27074
169.38 67101. undefined 463.35 1148.7 1.5551 675.00 0.0014815 463.35 1148.7 1.5551 2.4287 2.7899 2163.9 -0.0052853 411.93 0.27108 675.00 0.0014815 463.35 1148.7 1.5551 2.4287 2.7899 2163.9 -0.0052853 411.93 0.27108
170.38 67279. undefined 465.78 1153.0 1.5606 675.00 0.0014815 465.78 1153.0 1.5606 2.4327 2.7935 2164.8 -0.0052784 411.74 0.27141 675.00 0.0014815 465.78 1153.0 1.5606 2.4327 2.7935 2164.8 -0.0052784 411.74 0.27141
171.38 67458. undefined 468.21 1157.3 1.5661 675.00 0.0014815 468.21 1157.3 1.5661 2.4367 2.7972 2165.7 -0.0052714 411.55 0.27175 675.00 0.0014815 468.21 1157.3 1.5661 2.4367 2.7972 2165.7 -0.0052714 411.55 0.27175
172.38 67636. undefined 470.65 1161.5 1.5715 675.00 0.0014815 470.65 1161.5 1.5715 2.4407 2.8008 2166.7 -0.0052645 411.36 0.27209 675.00 0.0014815 470.65 1161.5 1.5715 2.4407 2.8008 2166.7 -0.0052645 411.36 0.27209
173.38 67814. undefined 473.09 1165.8 1.5770 675.00 0.0014815 473.09 1165.8 1.5770 2.4447 2.8044 2167.6 -0.0052577 411.17 0.27243 675.00 0.0014815 473.09 1165.8 1.5770 2.4447 2.8044 2167.6 -0.0052577 411.17 0.27243
174.38 67992. undefined 475.54 1170.0 1.5825 675.00 0.0014815 475.54 1170.0 1.5825 2.4487 2.8081 2168.5 -0.0052508 410.99 0.27277 675.00 0.0014815 475.54 1170.0 1.5825 2.4487 2.8081 2168.5 -0.0052508 410.99 0.27277
175.38 68169. undefined 477.99 1174.3 1.5880 675.00 0.0014815 477.99 1174.3 1.5880 2.4527 2.8117 2169.4 -0.0052440 410.80 0.27311 675.00 0.0014815 477.99 1174.3 1.5880 2.4527 2.8117 2169.4 -0.0052440 410.80 0.27311
176.38 68346. undefined 480.45 1178.6 1.5934 675.00 0.0014815 480.45 1178.6 1.5934 2.4567 2.8154 2170.3 -0.0052371 410.62 0.27346 675.00 0.0014815 480.45 1178.6 1.5934 2.4567 2.8154 2170.3 -0.0052371 410.62 0.27346
177.38 68524. undefined 482.90 1182.8 1.5989 675.00 0.0014815 482.90 1182.8 1.5989 2.4607 2.8190 2171.2 -0.0052304 410.44 0.27380 675.00 0.0014815 482.90 1182.8 1.5989 2.4607 2.8190 2171.2 -0.0052304 410.44 0.27380
178.38 68701. undefined 485.37 1187.1 1.6043 675.00 0.0014815 485.37 1187.1 1.6043 2.4646 2.8226 2172.1 -0.0052236 410.26 0.27414 675.00 0.0014815 485.37 1187.1 1.6043 2.4646 2.8226 2172.1 -0.0052236 410.26 0.27414
179.38 68878. undefined 487.83 1191.4 1.6098 675.00 0.0014815 487.83 1191.4 1.6098 2.4686 2.8262 2173.1 -0.0052168 410.08 0.27448 675.00 0.0014815 487.83 1191.4 1.6098 2.4686 2.8262 2173.1 -0.0052168 410.08 0.27448
180.38 69054. undefined 490.30 1195.7 1.6153 675.00 0.0014815 490.30 1195.7 1.6153 2.4726 2.8299 2174.0 -0.0052101 409.90 0.27482 675.00 0.0014815 490.30 1195.7 1.6153 2.4726 2.8299 2174.0 -0.0052101 409.90 0.27482
181.38 69231. undefined 492.78 1199.9 1.6207 675.00 0.0014815 492.78 1199.9 1.6207 2.4765 2.8335 2174.9 -0.0052034 409.72 0.27516 675.00 0.0014815 492.78 1199.9 1.6207 2.4765 2.8335 2174.9 -0.0052034 409.72 0.27516
182.38 69407. undefined 495.26 1204.2 1.6262 675.00 0.0014815 495.26 1204.2 1.6262 2.4805 2.8371 2175.8 -0.0051967 409.55 0.27551 675.00 0.0014815 495.26 1204.2 1.6262 2.4805 2.8371 2175.8 -0.0051967 409.55 0.27551
183.38 69583. undefined 497.74 1208.5 1.6316 675.00 0.0014815 497.74 1208.5 1.6316 2.4844 2.8407 2176.7 -0.0051901 409.37 0.27585 675.00 0.0014815 497.74 1208.5 1.6316 2.4844 2.8407 2176.7 -0.0051901 409.37 0.27585
184.38 69759. undefined 500.23 1212.8 1.6370 675.00 0.0014815 500.23 1212.8 1.6370 2.4884 2.8443 2177.6 -0.0051835 409.20 0.27619 675.00 0.0014815 500.23 1212.8 1.6370 2.4884 2.8443 2177.6 -0.0051835 409.20 0.27619
185.38 69935. undefined 502.72 1217.1 1.6425 675.00 0.0014815 502.72 1217.1 1.6425 2.4923 2.8479 2178.5 -0.0051768 409.03 0.27654 675.00 0.0014815 502.72 1217.1 1.6425 2.4923 2.8479 2178.5 -0.0051768 409.03 0.27654
186.38 70111. undefined 505.21 1221.4 1.6479 675.00 0.0014815 505.21 1221.4 1.6479 2.4963 2.8515 2179.4 -0.0051703 408.86 0.27688 675.00 0.0014815 505.21 1221.4 1.6479 2.4963 2.8515 2179.4 -0.0051703 408.86 0.27688
187.38 70286. undefined 507.71 1225.6 1.6533 675.00 0.0014815 507.71 1225.6 1.6533 2.5002 2.8551 2180.3 -0.0051637 408.69 0.27723 675.00 0.0014815 507.71 1225.6 1.6533 2.5002 2.8551 2180.3 -0.0051637 408.69 0.27723
188.38 70461. undefined 510.21 1229.9 1.6588 675.00 0.0014815 510.21 1229.9 1.6588 2.5041 2.8587 2181.2 -0.0051571 408.52 0.27757 675.00 0.0014815 510.21 1229.9 1.6588 2.5041 2.8587 2181.2 -0.0051571 408.52 0.27757
189.38 70636. undefined 512.72 1234.2 1.6642 675.00 0.0014815 512.72 1234.2 1.6642 2.5081 2.8623 2182.1 -0.0051506 408.35 0.27791 675.00 0.0014815 512.72 1234.2 1.6642 2.5081 2.8623 2182.1 -0.0051506 408.35 0.27791
190.38 70811. undefined 515.23 1238.5 1.6696 675.00 0.0014815 515.23 1238.5 1.6696 2.5120 2.8659 2183.0 -0.0051441 408.19 0.27826 675.00 0.0014815 515.23 1238.5 1.6696 2.5120 2.8659 2183.0 -0.0051441 408.19 0.27826
191.38 70986. undefined 517.74 1242.8 1.6750 675.00 0.0014815 517.74 1242.8 1.6750 2.5159 2.8695 2183.9 -0.0051377 408.02 0.27861 675.00 0.0014815 517.74 1242.8 1.6750 2.5159 2.8695 2183.9 -0.0051377 408.02 0.27861
192.38 71161. undefined 520.26 1247.1 1.6804 675.00 0.0014815 520.26 1247.1 1.6804 2.5198 2.8730 2184.8 -0.0051312 407.86 0.27895 675.00 0.0014815 520.26 1247.1 1.6804 2.5198 2.8730 2184.8 -0.0051312 407.86 0.27895
193.38 71335. undefined 522.78 1251.4 1.6859 675.00 0.0014815 522.78 1251.4 1.6859 2.5237 2.8766 2185.7 -0.0051248 407.69 0.27930 675.00 0.0014815 522.78 1251.4 1.6859 2.5237 2.8766 2185.7 -0.0051248 407.69 0.27930
194.38 71509. undefined 525.31 1255.7 1.6913 675.00 0.0014815 525.31 1255.7 1.6913 2.5276 2.8802 2186.6 -0.0051184 407.53 0.27964 675.00 0.0014815 525.31 1255.7 1.6913 2.5276 2.8802 2186.6 -0.0051184 407.53 0.27964
195.38 71683. undefined 527.84 1260.0 1.6967 675.00 0.0014815 527.84 1260.0 1.6967 2.5315 2.8837 2187.5 -0.0051120 407.37 0.27999 675.00 0.0014815 527.84 1260.0 1.6967 2.5315 2.8837 2187.5 -0.0051120 407.37 0.27999
196.38 71857. undefined 530.37 1264.4 1.7021 675.00 0.0014815 530.37 1264.4 1.7021 2.5354 2.8873 2188.4 -0.0051056 407.21 0.28034 675.00 0.0014815 530.37 1264.4 1.7021 2.5354 2.8873 2188.4 -0.0051056 407.21 0.28034
197.38 72031. undefined 532.91 1268.7 1.7075 675.00 0.0014815 532.91 1268.7 1.7075 2.5393 2.8909 2189.3 -0.0050993 407.06 0.28068 675.00 0.0014815 532.91 1268.7 1.7075 2.5393 2.8909 2189.3 -0.0050993 407.06 0.28068
198.38 72205. undefined 535.45 1273.0 1.7129 675.00 0.0014815 535.45 1273.0 1.7129 2.5431 2.8944 2190.2 -0.0050929 406.90 0.28103 675.00 0.0014815 535.45 1273.0 1.7129 2.5431 2.8944 2190.2 -0.0050929 406.90 0.28103
199.38 72378. undefined 537.99 1277.3 1.7183 675.00 0.0014815 537.99 1277.3 1.7183 2.5470 2.8980 2191.1 -0.0050866 406.74 0.28138 675.00 0.0014815 537.99 1277.3 1.7183 2.5470 2.8980 2191.1 -0.0050866 406.74 0.28138
200.38 72551. undefined 540.54 1281.6 1.7236 675.00 0.0014815 540.54 1281.6 1.7236 2.5509 2.9015 2192.0 -0.0050804 406.59 0.28173 675.00 0.0014815 540.54 1281.6 1.7236 2.5509 2.9015 2192.0 -0.0050804 406.59 0.28173
201.38 72724. undefined 543.09 1285.9 1.7290 675.00 0.0014815 543.09 1285.9 1.7290 2.5548 2.9051 2192.9 -0.0050741 406.44 0.28207 675.00 0.0014815 543.09 1285.9 1.7290 2.5548 2.9051 2192.9 -0.0050741 406.44 0.28207
202.38 72897. undefined 545.65 1290.3 1.7344 675.00 0.0014815 545.65 1290.3 1.7344 2.5586 2.9086 2193.8 -0.0050679 406.28 0.28242 675.00 0.0014815 545.65 1290.3 1.7344 2.5586 2.9086 2193.8 -0.0050679 406.28 0.28242
203.38 73070. undefined 548.21 1294.6 1.7398 675.00 0.0014815 548.21 1294.6 1.7398 2.5625 2.9122 2194.7 -0.0050617 406.13 0.28277 675.00 0.0014815 548.21 1294.6 1.7398 2.5625 2.9122 2194.7 -0.0050617 406.13 0.28277
204.38 73242. undefined 550.78 1298.9 1.7452 675.00 0.0014815 550.78 1298.9 1.7452 2.5663 2.9157 2195.6 -0.0050555 405.98 0.28312 675.00 0.0014815 550.78 1298.9 1.7452 2.5663 2.9157 2195.6 -0.0050555 405.98 0.28312
205.38 73415. undefined 553.34 1303.2 1.7505 675.00 0.0014815 553.34 1303.2 1.7505 2.5702 2.9192 2196.4 -0.0050493 405.83 0.28347 675.00 0.0014815 553.34 1303.2 1.7505 2.5702 2.9192 2196.4 -0.0050493 405.83 0.28347
206.38 73587. undefined 555.92 1307.6 1.7559 675.00 0.0014815 555.92 1307.6 1.7559 2.5740 2.9227 2197.3 -0.0050432 405.68 0.28382 675.00 0.0014815 555.92 1307.6 1.7559 2.5740 2.9227 2197.3 -0.0050432 405.68 0.28382
207.38 73759. undefined 558.49 1311.9 1.7613 675.00 0.0014815 558.49 1311.9 1.7613 2.5778 2.9263 2198.2 -0.0050370 405.54 0.28417 675.00 0.0014815 558.49 1311.9 1.7613 2.5778 2.9263 2198.2 -0.0050370 405.54 0.28417
208.38 73931. undefined 561.07 1316.2 1.7666 675.00 0.0014815 561.07 1316.2 1.7666 2.5817 2.9298 2199.1 -0.0050309 405.39 0.28452 675.00 0.0014815 561.07 1316.2 1.7666 2.5817 2.9298 2199.1 -0.0050309 405.39 0.28452
209.38 74103. undefined 563.66 1320.6 1.7720 675.00 0.0014815 563.66 1320.6 1.7720 2.5855 2.9333 2200.0 -0.0050248 405.25 0.28487 675.00 0.0014815 563.66 1320.6 1.7720 2.5855 2.9333 2200.0 -0.0050248 405.25 0.28487
210.38 74274. undefined 566.24 1324.9 1.7774 675.00 0.0014815 566.24 1324.9 1.7774 2.5893 2.9368 2200.9 -0.0050188 405.10 0.28522 675.00 0.0014815 566.24 1324.9 1.7774 2.5893 2.9368 2200.9 -0.0050188 405.10 0.28522
211.38 74446. undefined 568.83 1329.3 1.7827 675.00 0.0014815 568.83 1329.3 1.7827 2.5931 2.9403 2201.7 -0.0050127 404.96 0.28557 675.00 0.0014815 568.83 1329.3 1.7827 2.5931 2.9403 2201.7 -0.0050127 404.96 0.28557
212.38 74617. undefined 571.43 1333.6 1.7881 675.00 0.0014815 571.43 1333.6 1.7881 2.5969 2.9438 2202.6 -0.0050067 404.82 0.28592 675.00 0.0014815 571.43 1333.6 1.7881 2.5969 2.9438 2202.6 -0.0050067 404.82 0.28592
213.38 74788. undefined 574.03 1337.9 1.7934 675.00 0.0014815 574.03 1337.9 1.7934 2.6007 2.9473 2203.5 -0.0050007 404.67 0.28628 675.00 0.0014815 574.03 1337.9 1.7934 2.6007 2.9473 2203.5 -0.0050007 404.67 0.28628
214.38 74959. undefined 576.63 1342.3 1.7987 675.00 0.0014815 576.63 1342.3 1.7987 2.6045 2.9508 2204.4 -0.0049947 404.53 0.28663 675.00 0.0014815 576.63 1342.3 1.7987 2.6045 2.9508 2204.4 -0.0049947 404.53 0.28663
215.38 75130. undefined 579.24 1346.6 1.8041 675.00 0.0014815 579.24 1346.6 1.8041 2.6083 2.9543 2205.3 -0.0049887 404.39 0.28698 675.00 0.0014815 579.24 1346.6 1.8041 2.6083 2.9543 2205.3 -0.0049887 404.39 0.28698
216.38 75301. undefined 581.85 1351.0 1.8094 675.00 0.0014815 581.85 1351.0 1.8094 2.6121 2.9578 2206.1 -0.0049828 404.26 0.28733 675.00 0.0014815 581.85 1351.0 1.8094 2.6121 2.9578 2206.1 -0.0049828 404.26 0.28733
217.38 75471. undefined 584.46 1355.4 1.8148 675.00 0.0014815 584.46 1355.4 1.8148 2.6159 2.9613 2207.0 -0.0049769 404.12 0.28769 675.00 0.0014815 584.46 1355.4 1.8148 2.6159 2.9613 2207.0 -0.0049769 404.12 0.28769
218.38 75641. undefined 587.08 1359.7 1.8201 675.00 0.0014815 587.08 1359.7 1.8201 2.6197 2.9647 2207.9 -0.0049710 403.98 0.28804 675.00 0.0014815 587.08 1359.7 1.8201 2.6197 2.9647 2207.9 -0.0049710 403.98 0.28804
219.38 75812. undefined 589.70 1364.1 1.8254 675.00 0.0014815 589.70 1364.1 1.8254 2.6234 2.9682 2208.8 -0.0049651 403.85 0.28839 675.00 0.0014815 589.70 1364.1 1.8254 2.6234 2.9682 2208.8 -0.0049651 403.85 0.28839
220.38 75982. undefined 592.33 1368.4 1.8307 675.00 0.0014815 592.33 1368.4 1.8307 2.6272 2.9717 2209.6 -0.0049592 403.71 0.28875 675.00 0.0014815 592.33 1368.4 1.8307 2.6272 2.9717 2209.6 -0.0049592 403.71 0.28875
221.38 76151. undefined 594.96 1372.8 1.8361 675.00 0.0014815 594.96 1372.8 1.8361 2.6310 2.9751 2210.5 -0.0049534 403.58 0.28910 675.00 0.0014815 594.96 1372.8 1.8361 2.6310 2.9751 2210.5 -0.0049534 403.58 0.28910
222.38 76321. undefined 597.59 1377.2 1.8414 675.00 0.0014815 597.59 1377.2 1.8414 2.6347 2.9786 2211.4 -0.0049476 403.44 0.28946 675.00 0.0014815 597.59 1377.2 1.8414 2.6347 2.9786 2211.4 -0.0049476 403.44 0.28946
223.38 76491. undefined 600.22 1381.5 1.8467 675.00 0.0014815 600.22 1381.5 1.8467 2.6385 2.9821 2212.3 -0.0049418 403.31 0.28981 675.00 0.0014815 600.22 1381.5 1.8467 2.6385 2.9821 2212.3 -0.0049418 403.31 0.28981
224.38 76660. undefined 602.86 1385.9 1.8520 675.00 0.0014815 602.86 1385.9 1.8520 2.6422 2.9855 2213.1 -0.0049360 403.18 0.29016 675.00 0.0014815 602.86 1385.9 1.8520 2.6422 2.9855 2213.1 -0.0049360 403.18 0.29016
225.38 76829. undefined 605.51 1390.3 1.8573 675.00 0.0014815 605.51 1390.3 1.8573 2.6460 2.9890 2214.0 -0.0049302 403.05 0.29052 675.00 0.0014815 605.51 1390.3 1.8573 2.6460 2.9890 2214.0 -0.0049302 403.05 0.29052
226.38 76998. undefined 608.16 1394.7 1.8626 675.00 0.0014815 608.16 1394.7 1.8626 2.6497 2.9924 2214.9 -0.0049245 402.92 0.29088 675.00 0.0014815 608.16 1394.7 1.8626 2.6497 2.9924 2214.9 -0.0049245 402.92 0.29088
227.38 77167. undefined 610.81 1399.0 1.8679 675.00 0.0014815 610.81 1399.0 1.8679 2.6534 2.9958 2215.7 -0.0049188 402.79 0.29123 675.00 0.0014815 610.81 1399.0 1.8679 2.6534 2.9958 2215.7 -0.0049188 402.79 0.29123
228.38 77336. undefined 613.46 1403.4 1.8732 675.00 0.0014815 613.46 1403.4 1.8732 2.6572 2.9993 2216.6 -0.0049131 402.67 0.29159 675.00 0.0014815 613.46 1403.4 1.8732 2.6572 2.9993 2216.6 -0.0049131 402.67 0.29159
229.38 77505. undefined 616.12 1407.8 1.8785 675.00 0.0014815 616.12 1407.8 1.8785 2.6609 3.0027 2217.5 -0.0049074 402.54 0.29194 675.00 0.0014815 616.12 1407.8 1.8785 2.6609 3.0027 2217.5 -0.0049074 402.54 0.29194
230.38 77673. undefined 618.79 1412.2 1.8838 675.00 0.0014815 618.79 1412.2 1.8838 2.6646 3.0061 2218.3 -0.0049017 402.41 0.29230 675.00 0.0014815 618.79 1412.2 1.8838 2.6646 3.0061 2218.3 -0.0049017 402.41 0.29230
231.38 77842. undefined 621.45 1416.6 1.8891 675.00 0.0014815 621.45 1416.6 1.8891 2.6683 3.0096 2219.2 -0.0048961 402.29 0.29266 675.00 0.0014815 621.45 1416.6 1.8891 2.6683 3.0096 2219.2 -0.0048961 402.29 0.29266
232.38 78010. undefined 624.12 1420.9 1.8944 675.00 0.0014815 624.12 1420.9 1.8944 2.6720 3.0130 2220.1 -0.0048904 402.16 0.29302 675.00 0.0014815 624.12 1420.9 1.8944 2.6720 3.0130 2220.1 -0.0048904 402.16 0.29302
233.38 78178. undefined 626.80 1425.3 1.8997 675.00 0.0014815 626.80 1425.3 1.8997 2.6757 3.0164 2220.9 -0.0048848 402.04 0.29337 675.00 0.0014815 626.80 1425.3 1.8997 2.6757 3.0164 2220.9 -0.0048848 402.04 0.29337
234.38 78346. undefined 629.47 1429.7 1.9050 675.00 0.0014815 629.47 1429.7 1.9050 2.6794 3.0198 2221.8 -0.0048793 401.92 0.29373 675.00 0.0014815 629.47 1429.7 1.9050 2.6794 3.0198 2221.8 -0.0048793 401.92 0.29373
235.38 78513. undefined 632.15 1434.1 1.9102 675.00 0.0014815 632.15 1434.1 1.9102 2.6831 3.0232 2222.6 -0.0048737 401.80 0.29409 675.00 0.0014815 632.15 1434.1 1.9102 2.6831 3.0232 2222.6 -0.0048737 401.80 0.29409
236.38 78681. undefined 634.84 1438.5 1.9155 675.00 0.0014815 634.84 1438.5 1.9155 2.6868 3.0266 2223.5 -0.0048681 401.68 0.29445 675.00 0.0014815 634.84 1438.5 1.9155 2.6868 3.0266 2223.5 -0.0048681 401.68 0.29445
237.38 78848. undefined 637.53 1442.9 1.9208 675.00 0.0014815 637.53 1442.9 1.9208 2.6905 3.0300 2224.4 -0.0048626 401.55 0.29481 675.00 0.0014815 637.53 1442.9 1.9208 2.6905 3.0300 2224.4 -0.0048626 401.55 0.29481
238.38 79016. undefined 640.22 1447.3 1.9261 675.00 0.0014815 640.22 1447.3 1.9261 2.6941 3.0334 2225.2 -0.0048571 401.44 0.29516 675.00 0.0014815 640.22 1447.3 1.9261 2.6941 3.0334 2225.2 -0.0048571 401.44 0.29516
239.38 79183. undefined 642.92 1451.7 1.9313 675.00 0.0014815 642.92 1451.7 1.9313 2.6978 3.0368 2226.1 -0.0048516 401.32 0.29552 675.00 0.0014815 642.92 1451.7 1.9313 2.6978 3.0368 2226.1 -0.0048516 401.32 0.29552
240.38 79350. undefined 645.62 1456.1 1.9366 675.00 0.0014815 645.62 1456.1 1.9366 2.7015 3.0402 2226.9 -0.0048461 401.20 0.29588 675.00 0.0014815 645.62 1456.1 1.9366 2.7015 3.0402 2226.9 -0.0048461 401.20 0.29588
241.38 79517. undefined 648.32 1460.5 1.9418 675.00 0.0014815 648.32 1460.5 1.9418 2.7051 3.0436 2227.8 -0.0048407 401.08 0.29624 675.00 0.0014815 648.32 1460.5 1.9418 2.7051 3.0436 2227.8 -0.0048407 401.08 0.29624
242.38 79683. undefined 651.03 1464.9 1.9471 675.00 0.0014815 651.03 1464.9 1.9471 2.7088 3.0469 2228.6 -0.0048352 400.97 0.29660 675.00 0.0014815 651.03 1464.9 1.9471 2.7088 3.0469 2228.6 -0.0048352 400.97 0.29660
243.38 79850. undefined 653.74 1469.4 1.9524 675.00 0.0014815 653.74 1469.4 1.9524 2.7124 3.0503 2229.5 -0.0048298 400.85 0.29696 675.00 0.0014815 653.74 1469.4 1.9524 2.7124 3.0503 2229.5 -0.0048298 400.85 0.29696
244.38 80016. undefined 656.45 1473.8 1.9576 675.00 0.0014815 656.45 1473.8 1.9576 2.7161 3.0537 2230.3 -0.0048244 400.74 0.29733 675.00 0.0014815 656.45 1473.8 1.9576 2.7161 3.0537 2230.3 -0.0048244 400.74 0.29733
245.38 80182. undefined 659.17 1478.2 1.9628 675.00 0.0014815 659.17 1478.2 1.9628 2.7197 3.0571 2231.2 -0.0048190 400.62 0.29769 675.00 0.0014815 659.17 1478.2 1.9628 2.7197 3.0571 2231.2 -0.0048190 400.62 0.29769
246.38 80349. undefined 661.89 1482.6 1.9681 675.00 0.0014815 661.89 1482.6 1.9681 2.7233 3.0604 2232.0 -0.0048137 400.51 0.29805 675.00 0.0014815 661.89 1482.6 1.9681 2.7233 3.0604 2232.0 -0.0048137 400.51 0.29805
247.38 80514. undefined 664.62 1487.0 1.9733 675.00 0.0014815 664.62 1487.0 1.9733 2.7270 3.0638 2232.9 -0.0048083 400.40 0.29841 675.00 0.0014815 664.62 1487.0 1.9733 2.7270 3.0638 2232.9 -0.0048083 400.40 0.29841
248.38 80680. undefined 667.34 1491.5 1.9786 675.00 0.0014815 667.34 1491.5 1.9786 2.7306 3.0671 2233.7 -0.0048030 400.28 0.29877 675.00 0.0014815 667.34 1491.5 1.9786 2.7306 3.0671 2233.7 -0.0048030 400.28 0.29877
249.38 80846. undefined 670.08 1495.9 1.9838 675.00 0.0014815 670.08 1495.9 1.9838 2.7342 3.0705 2234.6 -0.0047977 400.17 0.29913 675.00 0.0014815 670.08 1495.9 1.9838 2.7342 3.0705 2234.6 -0.0047977 400.17 0.29913
250.38 81012. undefined 672.81 1500.3 1.9890 675.00 0.0014815 672.81 1500.3 1.9890 2.7378 3.0738 2235.4 -0.0047924 400.06 0.29950 675.00 0.0014815 672.81 1500.3 1.9890 2.7378 3.0738 2235.4 -0.0047924 400.06 0.29950
251.38 81177. undefined 675.55 1504.7 1.9943 675.00 0.0014815 675.55 1504.7 1.9943 2.7414 3.0772 2236.3 -0.0047871 399.95 0.29986 675.00 0.0014815 675.55 1504.7 1.9943 2.7414 3.0772 2236.3 -0.0047871 399.95 0.29986
252.38 81342. undefined 678.30 1509.2 1.9995 675.00 0.0014815 678.30 1509.2 1.9995 2.7450 3.0805 2237.1 -0.0047819 399.84 0.30022 675.00 0.0014815 678.30 1509.2 1.9995 2.7450 3.0805 2237.1 -0.0047819 399.84 0.30022
253.38 81507. undefined 681.04 1513.6 2.0047 675.00 0.0014815 681.04 1513.6 2.0047 2.7486 3.0838 2238.0 -0.0047766 399.74 0.30059 675.00 0.0014815 681.04 1513.6 2.0047 2.7486 3.0838 2238.0 -0.0047766 399.74 0.30059
254.38 81672. undefined 683.79 1518.0 2.0099 675.00 0.0014815 683.79 1518.0 2.0099 2.7522 3.0871 2238.8 -0.0047714 399.63 0.30095 675.00 0.0014815 683.79 1518.0 2.0099 2.7522 3.0871 2238.8 -0.0047714 399.63 0.30095
255.38 81837. undefined 686.55 1522.5 2.0151 675.00 0.0014815 686.55 1522.5 2.0151 2.7558 3.0905 2239.7 -0.0047662 399.52 0.30131 675.00 0.0014815 686.55 1522.5 2.0151 2.7558 3.0905 2239.7 -0.0047662 399.52 0.30131
256.38 82002. undefined 689.30 1526.9 2.0204 675.00 0.0014815 689.30 1526.9 2.0204 2.7594 3.0938 2240.5 -0.0047610 399.42 0.30168 675.00 0.0014815 689.30 1526.9 2.0204 2.7594 3.0938 2240.5 -0.0047610 399.42 0.30168
257.38 82166. undefined 692.07 1531.4 2.0256 675.00 0.0014815 692.07 1531.4 2.0256 2.7630 3.0971 2241.3 -0.0047559 399.31 0.30204 675.00 0.0014815 692.07 1531.4 2.0256 2.7630 3.0971 2241.3 -0.0047559 399.31 0.30204
258.38 82331. undefined 694.83 1535.8 2.0308 675.00 0.0014815 694.83 1535.8 2.0308 2.7665 3.1004 2242.2 -0.0047507 399.21 0.30241 675.00 0.0014815 694.83 1535.8 2.0308 2.7665 3.1004 2242.2 -0.0047507 399.21 0.30241
259.38 82495. undefined 697.60 1540.2 2.0360 675.00 0.0014815 697.60 1540.2 2.0360 2.7701 3.1037 2243.0 -0.0047456 399.10 0.30277 675.00 0.0014815 697.60 1540.2 2.0360 2.7701 3.1037 2243.0 -0.0047456 399.10 0.30277
260.38 82659. undefined 700.37 1544.7 2.0412 675.00 0.0014815 700.37 1544.7 2.0412 2.7737 3.1070 2243.9 -0.0047404 399.00 0.30314 675.00 0.0014815 700.37 1544.7 2.0412 2.7737 3.1070 2243.9 -0.0047404 399.00 0.30314
261.38 82823. undefined 703.15 1549.1 2.0464 675.00 0.0014815 703.15 1549.1 2.0464 2.7772 3.1103 2244.7 -0.0047353 398.90 0.30350 675.00 0.0014815 703.15 1549.1 2.0464 2.7772 3.1103 2244.7 -0.0047353 398.90 0.30350
262.38 82987. undefined 705.93 1553.6 2.0516 675.00 0.0014815 705.93 1553.6 2.0516 2.7808 3.1136 2245.5 -0.0047303 398.79 0.30387 675.00 0.0014815 705.93 1553.6 2.0516 2.7808 3.1136 2245.5 -0.0047303 398.79 0.30387
263.38 83151. undefined 708.71 1558.0 2.0568 675.00 0.0014815 708.71 1558.0 2.0568 2.7843 3.1169 2246.4 -0.0047252 398.69 0.30424 675.00 0.0014815 708.71 1558.0 2.0568 2.7843 3.1169 2246.4 -0.0047252 398.69 0.30424
264.38 83314. undefined 711.49 1562.5 2.0619 675.00 0.0014815 711.49 1562.5 2.0619 2.7879 3.1202 2247.2 -0.0047202 398.59 0.30460 675.00 0.0014815 711.49 1562.5 2.0619 2.7879 3.1202 2247.2 -0.0047202 398.59 0.30460
265.38 83478. undefined 714.28 1567.0 2.0671 675.00 0.0014815 714.28 1567.0 2.0671 2.7914 3.1235 2248.0 -0.0047151 398.49 0.30497 675.00 0.0014815 714.28 1567.0 2.0671 2.7914 3.1235 2248.0 -0.0047151 398.49 0.30497
266.38 83641. undefined 717.08 1571.4 2.0723 675.00 0.0014815 717.08 1571.4 2.0723 2.7949 3.1267 2248.9 -0.0047101 398.39 0.30534 675.00 0.0014815 717.08 1571.4 2.0723 2.7949 3.1267 2248.9 -0.0047101 398.39 0.30534
267.38 83804. undefined 719.87 1575.9 2.0775 675.00 0.0014815 719.87 1575.9 2.0775 2.7984 3.1300 2249.7 -0.0047051 398.29 0.30570 675.00 0.0014815 719.87 1575.9 2.0775 2.7984 3.1300 2249.7 -0.0047051 398.29 0.30570
268.38 83967. undefined 722.67 1580.4 2.0827 675.00 0.0014815 722.67 1580.4 2.0827 2.8020 3.1333 2250.5 -0.0047001 398.20 0.30607 675.00 0.0014815 722.67 1580.4 2.0827 2.8020 3.1333 2250.5 -0.0047001 398.20 0.30607
269.38 84130. undefined 725.48 1584.8 2.0878 675.00 0.0014815 725.48 1584.8 2.0878 2.8055 3.1365 2251.4 -0.0046952 398.10 0.30644 675.00 0.0014815 725.48 1584.8 2.0878 2.8055 3.1365 2251.4 -0.0046952 398.10 0.30644
270.38 84293. undefined 728.28 1589.3 2.0930 675.00 0.0014815 728.28 1589.3 2.0930 2.8090 3.1398 2252.2 -0.0046902 398.00 0.30681 675.00 0.0014815 728.28 1589.3 2.0930 2.8090 3.1398 2252.2 -0.0046902 398.00 0.30681
271.38 84456. undefined 731.10 1593.8 2.0982 675.00 0.0014815 731.10 1593.8 2.0982 2.8125 3.1430 2253.0 -0.0046853 397.91 0.30718 675.00 0.0014815 731.10 1593.8 2.0982 2.8125 3.1430 2253.0 -0.0046853 397.91 0.30718
272.38 84618. undefined 733.91 1598.2 2.1033 675.00 0.0014815 733.91 1598.2 2.1033 2.8160 3.1463 2253.9 -0.0046804 397.81 0.30755 675.00 0.0014815 733.91 1598.2 2.1033 2.8160 3.1463 2253.9 -0.0046804 397.81 0.30755
273.38 84780. undefined 736.73 1602.7 2.1085 675.00 0.0014815 736.73 1602.7 2.1085 2.8195 3.1495 2254.7 -0.0046755 397.71 0.30792 675.00 0.0014815 736.73 1602.7 2.1085 2.8195 3.1495 2254.7 -0.0046755 397.71 0.30792
274.38 84943. undefined 739.55 1607.2 2.1137 675.00 0.0014815 739.55 1607.2 2.1137 2.8230 3.1528 2255.5 -0.0046706 397.62 0.30829 675.00 0.0014815 739.55 1607.2 2.1137 2.8230 3.1528 2255.5 -0.0046706 397.62 0.30829
275.38 85105. undefined 742.37 1611.7 2.1188 675.00 0.0014815 742.37 1611.7 2.1188 2.8265 3.1560 2256.3 -0.0046657 397.53 0.30865 675.00 0.0014815 742.37 1611.7 2.1188 2.8265 3.1560 2256.3 -0.0046657 397.53 0.30865
276.38 85267. undefined 745.20 1616.2 2.1240 675.00 0.0014815 745.20 1616.2 2.1240 2.8299 3.1593 2257.2 -0.0046609 397.43 0.30903 675.00 0.0014815 745.20 1616.2 2.1240 2.8299 3.1593 2257.2 -0.0046609 397.43 0.30903
277.38 85429. undefined 748.03 1620.6 2.1291 675.00 0.0014815 748.03 1620.6 2.1291 2.8334 3.1625 2258.0 -0.0046560 397.34 0.30940 675.00 0.0014815 748.03 1620.6 2.1291 2.8334 3.1625 2258.0 -0.0046560 397.34 0.30940
278.38 85590. undefined 750.87 1625.1 2.1343 675.00 0.0014815 750.87 1625.1 2.1343 2.8369 3.1657 2258.8 -0.0046512 397.25 0.30977 675.00 0.0014815 750.87 1625.1 2.1343 2.8369 3.1657 2258.8 -0.0046512 397.25 0.30977
279.38 85752. undefined 753.71 1629.6 2.1394 675.00 0.0014815 753.71 1629.6 2.1394 2.8404 3.1689 2259.6 -0.0046464 397.16 0.31014 675.00 0.0014815 753.71 1629.6 2.1394 2.8404 3.1689 2259.6 -0.0046464 397.16 0.31014
280.38 85913. undefined 756.55 1634.1 2.1445 675.00 0.0014815 756.55 1634.1 2.1445 2.8438 3.1721 2260.5 -0.0046416 397.07 0.31051 675.00 0.0014815 756.55 1634.1 2.1445 2.8438 3.1721 2260.5 -0.0046416 397.07 0.31051
281.38 86075. undefined 759.39 1638.6 2.1497 675.00 0.0014815 759.39 1638.6 2.1497 2.8473 3.1754 2261.3 -0.0046368 396.98 0.31088 675.00 0.0014815 759.39 1638.6 2.1497 2.8473 3.1754 2261.3 -0.0046368 396.98 0.31088
282.38 86236. undefined 762.24 1643.1 2.1548 675.00 0.0014815 762.24 1643.1 2.1548 2.8507 3.1786 2262.1 -0.0046321 396.89 0.31114 675.00 0.0014815 762.24 1643.1 2.1548 2.8507 3.1786 2262.1 -0.0046321 396.89 0.31114
283.38 86397. undefined 765.10 1647.6 2.1599 675.00 0.0014815 765.10 1647.6 2.1599 2.8542 3.1818 2262.9 -0.0046273 396.80 0.31151 675.00 0.0014815 765.10 1647.6 2.1599 2.8542 3.1818 2262.9 -0.0046273 396.80 0.31151
284.38 86558. undefined 767.95 1652.1 2.1651 675.00 0.0014815 767.95 1652.1 2.1651 2.8576 3.1850 2263.8 -0.0046226 396.71 0.31188 675.00 0.0014815 767.95 1652.1 2.1651 2.8576 3.1850 2263.8 -0.0046226 396.71 0.31188
285.38 86719. undefined 770.81 1656.6 2.1702 675.00 0.0014815 770.81 1656.6 2.1702 2.8610 3.1882 2264.6 -0.0046179 396.62 0.31225 675.00 0.0014815 770.81 1656.6 2.1702 2.8610 3.1882 2264.6 -0.0046179 396.62 0.31225
286.38 86879. undefined 773.67 1661.1 2.1753 675.00 0.0014815 773.67 1661.1 2.1753 2.8645 3.1914 2265.4 -0.0046132 396.53 0.31263 675.00 0.0014815 773.67 1661.1 2.1753 2.8645 3.1914 2265.4 -0.0046132 396.53 0.31263
287.38 87040. undefined 776.54 1665.6 2.1804 675.00 0.0014815 776.54 1665.6 2.1804 2.8679 3.1945 2266.2 -0.0046085 396.45 0.31300 675.00 0.0014815 776.54 1665.6 2.1804 2.8679 3.1945 2266.2 -0.0046085 396.45 0.31300
288.38 87200. undefined 779.41 1670.1 2.1855 675.00 0.0014815 779.41 1670.1 2.1855 2.8713 3.1977 2267.0 -0.0046038 396.36 0.31337 675.00 0.0014815 779.41 1670.1 2.1855 2.8713 3.1977 2267.0 -0.0046038 396.36 0.31337
289.38 87360. undefined 782.28 1674.6 2.1907 675.00 0.0014815 782.28 1674.6 2.1907 2.8747 3.2009 2267.8 -0.0045992 396.27 0.31375 675.00 0.0014815 782.28 1674.6 2.1907 2.8747 3.2009 2267.8 -0.0045992 396.27 0.31375
290.38 87521. undefined 785.16 1679.1 2.1958 675.00 0.0014815 785.16 1679.1 2.1958 2.8781 3.2041 2268.7 -0.0045946 396.19 0.31412 675.00 0.0014815 785.16 1679.1 2.1958 2.8781 3.2041 2268.7 -0.0045946 396.19 0.31412
291.38 87681. undefined 788.04 1683.6 2.2009 675.00 0.0014815 788.04 1683.6 2.2009 2.8815 3.2072 2269.5 -0.0045899 396.10 0.31449 675.00 0.0014815 788.04 1683.6 2.2009 2.8815 3.2072 2269.5 -0.0045899 396.10 0.31449
292.38 87841. undefined 790.92 1688.2 2.2060 675.00 0.0014815 790.92 1688.2 2.2060 2.8849 3.2104 2270.3 -0.0045853 396.02 0.31487 675.00 0.0014815 790.92 1688.2 2.2060 2.8849 3.2104 2270.3 -0.0045853 396.02 0.31487
293.38 88000. undefined 793.81 1692.7 2.2111 675.00 0.0014815 793.81 1692.7 2.2111 2.8883 3.2136 2271.1 -0.0045807 395.94 0.31524 675.00 0.0014815 793.81 1692.7 2.2111 2.8883 3.2136 2271.1 -0.0045807 395.94 0.31524
294.38 88160. undefined 796.70 1697.2 2.2162 675.00 0.0014815 796.70 1697.2 2.2162 2.8917 3.2167 2271.9 -0.0045762 395.85 0.31562 675.00 0.0014815 796.70 1697.2 2.2162 2.8917 3.2167 2271.9 -0.0045762 395.85 0.31562
295.38 88319. undefined 799.59 1701.7 2.2213 675.00 0.0014815 799.59 1701.7 2.2213 2.8951 3.2199 2272.7 -0.0045716 395.77 0.31599 675.00 0.0014815 799.59 1701.7 2.2213 2.8951 3.2199 2272.7 -0.0045716 395.77 0.31599
296.38 88479. undefined 802.49 1706.3 2.2264 675.00 0.0014815 802.49 1706.3 2.2264 2.8985 3.2230 2273.5 -0.0045671 395.69 0.31637 675.00 0.0014815 802.49 1706.3 2.2264 2.8985 3.2230 2273.5 -0.0045671 395.69 0.31637
297.38 88638. undefined 805.39 1710.8 2.2314 675.00 0.0014815 805.39 1710.8 2.2314 2.9019 3.2262 2274.3 -0.0045625 395.61 0.31675 675.00 0.0014815 805.39 1710.8 2.2314 2.9019 3.2262 2274.3 -0.0045625 395.61 0.31675
298.38 88797. undefined 808.29 1715.3 2.2365 675.00 0.0014815 808.29 1715.3 2.2365 2.9052 3.2293 2275.1 -0.0045580 395.52 0.31712 675.00 0.0014815 808.29 1715.3 2.2365 2.9052 3.2293 2275.1 -0.0045580 395.52 0.31712
299.38 88956. undefined 811.20 1719.8 2.2416 675.00 0.0014815 811.20 1719.8 2.2416 2.9086 3.2325 2275.9 -0.0045535 395.44 0.31750 675.00 0.0014815 811.20 1719.8 2.2416 2.9086 3.2325 2275.9 -0.0045535 395.44 0.31750
300.38 89115. undefined 814.11 1724.4 2.2467 675.00 0.0014815 814.11 1724.4 2.2467 2.9120 3.2356 2276.8 -0.0045490 395.36 0.31787 675.00 0.0014815 814.11 1724.4 2.2467 2.9120 3.2356 2276.8 -0.0045490 395.36 0.31787