Temperature (C) Pressure (psia) Quality (l+v) Internal Energy (l+v, kJ/kg) Enthalpy (l+v, kJ/kg) Entropy (l+v, J/g*K) Density (l, kg/m3) Volume (l, m3/kg) Internal Energy (l, kJ/kg) Enthalpy (l, kJ/kg) Entropy (l, J/g*K) Cv (l, J/g*K) Cp (l, J/g*K) Sound Spd. (l, m/s) Joule-Thomson (l, F/psia) Viscosity (l, uPa*s) Therm. Cond. (l, W/m*K) Density (v, kg/m3) Volume (v, m3/kg) Internal Energy (v, kJ/kg) Enthalpy (v, kJ/kg) Entropy (v, J/g*K) Cv (v, J/g*K) Cp (v, J/g*K) Sound Spd. (v, m/s) Joule-Thomson (v, F/psia) Viscosity (v, uPa*s) Therm. Cond. (v, W/m*K)
-187.62 2.4953e-08 1.0224e-12 -196.64 -196.64 -1.3959 733.13 0.0013640 -196.64 -196.64 -1.3959 1.3553 1.9158 2136.4 -0.0077592 10960. 0.20792 1.0669e-08 9.3732e+07 350.13 366.26 5.1858 0.69067 0.87923 143.28 6.1051 2.3259 0.0017061
-186.62 3.7339e-08 1.4815e-12 -194.73 -194.73 -1.3736 732.08 0.0013660 -194.73 -194.73 -1.3736 1.3539 1.9166 2129.6 -0.0077546 10073. 0.20765 1.5780e-08 6.3371e+07 350.82 367.14 5.1200 0.69462 0.88317 144.03 5.9178 2.3534 0.0017533
-185.62 5.5322e-08 2.1249e-12 -192.81 -192.81 -1.3516 731.04 0.0013679 -192.81 -192.81 -1.3516 1.3525 1.9174 2122.9 -0.0077498 9276.1 0.20737 2.3112e-08 4.3267e+07 351.52 368.02 5.0561 0.69857 0.88713 144.77 5.7383 2.3808 0.0018007
-184.62 8.1182e-08 3.0176e-12 -190.89 -190.89 -1.3298 730.00 0.0013699 -190.89 -190.89 -1.3298 1.3513 1.9182 2116.1 -0.0077448 8557.8 0.20708 3.3533e-08 2.9821e+07 352.22 368.91 4.9939 0.70253 0.89108 145.51 5.5662 2.4083 0.0018485
-183.62 1.1803e-07 4.2442e-12 -188.97 -188.97 -1.3083 728.96 0.0013718 -188.97 -188.97 -1.3083 1.3501 1.9191 2109.3 -0.0077395 7909.8 0.20678 4.8211e-08 2.0742e+07 352.92 369.81 4.9333 0.70648 0.89504 146.24 5.4011 2.4357 0.0018965
-182.62 1.7009e-07 5.9139e-12 -187.05 -187.05 -1.2869 727.92 0.0013738 -187.05 -187.05 -1.2869 1.3490 1.9201 2102.5 -0.0077340 7324.3 0.20647 6.8704e-08 1.4555e+07 353.63 370.70 4.8744 0.71043 0.89899 146.97 5.2426 2.4632 0.0019448
-181.62 2.4299e-07 8.1661e-12 -185.13 -185.13 -1.2658 726.88 0.0013757 -185.13 -185.13 -1.2658 1.3480 1.9210 2095.7 -0.0077283 6794.5 0.20616 9.7079e-08 1.0301e+07 354.35 371.60 4.8170 0.71438 0.90294 147.69 5.0904 2.4906 0.0019934
-180.62 3.4425e-07 1.1177e-11 -183.21 -183.21 -1.2450 725.85 0.0013777 -183.21 -183.21 -1.2450 1.3470 1.9220 2088.9 -0.0077225 6314.4 0.20584 1.3605e-07 7.3504e+06 355.06 372.51 4.7612 0.71833 0.90688 148.41 4.9442 2.5181 0.0020423
-179.62 4.8378e-07 1.5168e-11 -181.29 -181.29 -1.2243 724.81 0.0013797 -181.29 -181.29 -1.2243 1.3461 1.9231 2082.0 -0.0077164 5878.8 0.20551 1.8915e-07 5.2868e+06 355.78 373.42 4.7068 0.72227 0.91082 149.13 4.8038 2.5456 0.0020915
-178.62 6.7459e-07 2.0413e-11 -179.37 -179.37 -1.2038 723.78 0.0013816 -179.37 -179.37 -1.2038 1.3453 1.9241 2075.2 -0.0077102 5482.9 0.20517 2.6096e-07 3.8320e+06 356.51 374.33 4.6538 0.72620 0.91475 149.84 4.6688 2.5731 0.0021410
-177.62 9.3358e-07 2.7249e-11 -177.44 -177.44 -1.1836 722.75 0.0013836 -177.44 -177.44 -1.1836 1.3445 1.9252 2068.4 -0.0077039 5122.6 0.20483 3.5737e-07 2.7982e+06 357.23 375.25 4.6022 0.73012 0.91867 150.54 4.5390 2.6005 0.0021907
-176.62 1.2826e-06 3.6088e-11 -175.52 -175.52 -1.1635 721.72 0.0013856 -175.52 -175.52 -1.1635 1.3437 1.9263 2061.5 -0.0076973 4794.1 0.20447 4.8588e-07 2.0581e+06 357.97 376.17 4.5519 0.73403 0.92258 151.25 4.4142 2.6280 0.0022408
-175.62 1.7496e-06 4.7427e-11 -173.59 -173.59 -1.1437 720.69 0.0013876 -173.59 -173.59 -1.1437 1.3430 1.9274 2054.7 -0.0076907 4494.3 0.20411 6.5601e-07 1.5244e+06 358.70 377.09 4.5029 0.73792 0.92648 151.95 4.2941 2.6555 0.0022912
-174.62 2.3705e-06 6.1859e-11 -171.66 -171.66 -1.1240 719.66 0.0013895 -171.66 -171.66 -1.1240 1.3423 1.9286 2047.9 -0.0076838 4220.2 0.20375 8.7976e-07 1.1367e+06 359.44 378.02 4.4551 0.74181 0.93036 152.64 4.1784 2.6830 0.0023418
-173.62 3.1903e-06 8.0089e-11 -169.73 -169.73 -1.1045 718.64 0.0013915 -169.73 -169.73 -1.1045 1.3417 1.9298 2041.0 -0.0076769 3969.3 0.20338 1.1721e-06 8.5314e+05 360.19 378.95 4.4085 0.74568 0.93423 153.33 4.0671 2.7105 0.0023928
-172.62 4.2661e-06 1.0294e-10 -167.80 -167.80 -1.0852 717.61 0.0013935 -167.80 -167.80 -1.0852 1.3411 1.9310 2034.2 -0.0076698 3739.3 0.20300 1.5518e-06 6.4441e+05 360.93 379.89 4.3631 0.74953 0.93809 154.02 3.9599 2.7379 0.0024440
-171.62 5.6692e-06 1.3139e-10 -165.87 -165.87 -1.0661 716.58 0.0013955 -165.87 -165.87 -1.0661 1.3405 1.9322 2027.3 -0.0076625 3528.0 0.20261 2.0419e-06 4.8974e+05 361.69 380.83 4.3188 0.75337 0.94193 154.71 3.8566 2.7654 0.0024955
-170.62 7.4884e-06 1.6652e-10 -163.94 -163.94 -1.0472 715.56 0.0013975 -163.94 -163.94 -1.0472 1.3400 1.9334 2020.5 -0.0076552 3333.8 0.20222 2.6708e-06 3.7442e+05 362.44 381.77 4.2755 0.75720 0.94575 155.39 3.7570 2.7929 0.0025473
-169.62 9.8334e-06 2.0960e-10 -162.00 -162.00 -1.0284 714.54 0.0013995 -162.00 -162.00 -1.0284 1.3395 1.9347 2013.6 -0.0076477 3154.9 0.20182 3.4733e-06 2.8791e+05 363.20 382.72 4.2334 0.76100 0.94956 156.07 3.6609 2.8204 0.0025994
-168.62 1.2839e-05 2.6206e-10 -160.07 -160.07 -1.0098 713.52 0.0014015 -160.07 -160.07 -1.0098 1.3390 1.9359 2006.8 -0.0076401 2989.9 0.20141 4.4917e-06 2.2263e+05 363.96 383.67 4.1922 0.76479 0.95335 156.74 3.5683 2.8479 0.0026518
-167.62 1.6672e-05 3.2545e-10 -158.13 -158.13 -0.99134 712.49 0.0014035 -158.13 -158.13 -0.99134 1.3386 1.9372 2000.0 -0.0076323 2837.5 0.20100 5.7771e-06 1.7310e+05 364.73 384.63 4.1521 0.76856 0.95712 157.41 3.4790 2.8754 0.0027045
-166.62 2.1533e-05 4.0151e-10 -156.19 -156.19 -0.97306 711.47 0.0014055 -156.19 -156.19 -0.97306 1.3382 1.9385 1993.1 -0.0076245 2696.5 0.20058 7.3914e-06 1.3529e+05 365.50 385.59 4.1129 0.77232 0.96087 158.08 3.3927 2.9029 0.0027575
-165.62 2.7666e-05 4.9210e-10 -154.25 -154.25 -0.95494 710.45 0.0014075 -154.25 -154.25 -0.95494 1.3378 1.9398 1986.3 -0.0076165 2566.0 0.20016 9.4084e-06 1.0629e+05 366.27 386.55 4.0746 0.77605 0.96460 158.75 3.3095 2.9304 0.0028108
-164.62 3.5367e-05 5.9920e-10 -152.31 -152.31 -0.93698 709.44 0.0014096 -152.31 -152.31 -0.93698 1.3375 1.9411 1979.4 -0.0076084 2444.9 0.19973 1.1916e-05 83918. 367.05 387.52 4.0372 0.77976 0.96832 159.41 3.2291 2.9579 0.0028643
-163.62 4.4989e-05 7.2484e-10 -150.37 -150.37 -0.91917 708.42 0.0014116 -150.37 -150.37 -0.91917 1.3371 1.9424 1972.6 -0.0076002 2332.3 0.19930 1.5020e-05 66577. 367.83 388.49 4.0008 0.78346 0.97201 160.07 3.1514 2.9854 0.0029182
-162.62 5.6956e-05 8.7111e-10 -148.43 -148.43 -0.90151 707.40 0.0014136 -148.43 -148.43 -0.90151 1.3368 1.9437 1965.8 -0.0075919 2227.7 0.19886 1.8844e-05 53068. 368.62 389.46 3.9651 0.78713 0.97569 160.72 3.0764 3.0129 0.0029723
-161.62 7.1773e-05 1.0400e-09 -146.48 -146.48 -0.88400 706.38 0.0014157 -146.48 -146.48 -0.88400 1.3365 1.9451 1959.0 -0.0075834 2130.2 0.19841 2.3533e-05 42494. 369.41 390.44 3.9304 0.79079 0.97935 161.38 3.0038 3.0404 0.0030268
-160.62 9.0036e-05 1.2334e-09 -144.54 -144.54 -0.86663 705.37 0.0014177 -144.54 -144.54 -0.86663 1.3363 1.9465 1952.1 -0.0075748 2039.2 0.19796 2.9258e-05 34178. 370.20 391.42 3.8964 0.79443 0.98298 162.03 2.9337 3.0679 0.0030815
-159.62 0.00011245 1.4529e-09 -142.59 -142.59 -0.84940 704.35 0.0014197 -142.59 -142.59 -0.84940 1.3360 1.9478 1945.3 -0.0075661 1954.2 0.19751 3.6221e-05 27609. 371.00 392.40 3.8632 0.79805 0.98660 162.68 2.8658 3.0955 0.0031365
-158.62 0.00013985 1.6996e-09 -140.64 -140.64 -0.83231 703.34 0.0014218 -140.64 -140.64 -0.83231 1.3358 1.9492 1938.5 -0.0075573 1874.8 0.19705 4.4652e-05 22395. 371.80 393.39 3.8307 0.80164 0.99020 163.32 2.8002 3.1230 0.0031918
-157.62 0.00017320 1.9742e-09 -138.69 -138.69 -0.81536 702.32 0.0014238 -138.69 -138.69 -0.81536 1.3356 1.9506 1931.7 -0.0075484 1800.3 0.19658 5.4822e-05 18241. 372.60 394.38 3.7990 0.80522 0.99378 163.96 2.7367 3.1505 0.0032474
-156.62 0.00021364 2.2762e-09 -136.74 -136.74 -0.79854 701.31 0.0014259 -136.74 -136.74 -0.79854 1.3354 1.9520 1924.9 -0.0075393 1730.5 0.19611 6.7040e-05 14916. 373.41 395.38 3.7680 0.80878 0.99734 164.60 2.6752 3.1780 0.0033033
-155.62 0.00026248 2.6044e-09 -134.79 -134.79 -0.78185 700.30 0.0014280 -134.79 -134.79 -0.78185 1.3352 1.9534 1918.1 -0.0075302 1664.9 0.19564 8.1666e-05 12245. 374.22 396.38 3.7377 0.81232 1.0009 165.24 2.6157 3.2055 0.0033595
-154.62 0.00032125 2.9557e-09 -132.83 -132.83 -0.76530 699.29 0.0014300 -132.83 -132.83 -0.76530 1.3350 1.9548 1911.3 -0.0075209 1603.3 0.19516 9.9109e-05 10090. 375.03 397.38 3.7081 0.81585 1.0044 165.87 2.5580 3.2330 0.0034160
-153.62 0.00039171 3.3255e-09 -130.88 -130.88 -0.74887 698.27 0.0014321 -130.88 -130.88 -0.74887 1.3349 1.9563 1904.5 -0.0075114 1545.3 0.19468 0.00011984 8344.6 375.85 398.39 3.6792 0.81935 1.0079 166.50 2.5022 3.2606 0.0034727
-152.62 0.00047590 3.7066e-09 -128.92 -128.92 -0.73256 697.26 0.0014342 -128.92 -128.92 -0.73256 1.3348 1.9577 1897.8 -0.0075019 1490.6 0.19419 0.00014439 6925.9 376.67 399.40 3.6509 0.82284 1.0114 167.13 2.4481 3.2881 0.0035298
-151.62 0.00057613 4.0892e-09 -126.96 -126.96 -0.71638 696.25 0.0014363 -126.96 -126.96 -0.71638 1.3346 1.9592 1891.0 -0.0074922 1438.9 0.19370 0.00017336 5768.4 377.49 400.41 3.6232 0.82631 1.0149 167.76 2.3957 3.3156 0.0035872
-150.62 0.00069507 4.4598e-09 -125.00 -125.00 -0.70032 695.24 0.0014384 -125.00 -125.00 -0.70032 1.3345 1.9606 1884.2 -0.0074824 1390.2 0.19320 0.00020744 4820.7 378.32 401.42 3.5962 0.82976 1.0183 168.38 2.3448 3.3431 0.0036448
-149.62 0.00083574 4.8008e-09 -123.04 -123.04 -0.68438 694.23 0.0014404 -123.04 -123.04 -0.68438 1.3345 1.9621 1877.4 -0.0074724 1344.0 0.19270 0.00024740 4042.0 379.15 402.44 3.5697 0.83319 1.0218 169.00 2.2956 3.3706 0.0037027
-148.62 0.0010016 5.0897e-09 -121.08 -121.08 -0.66855 693.22 0.0014425 -121.08 -121.08 -0.66855 1.3344 1.9636 1870.7 -0.0074623 1300.3 0.19220 0.00029412 3400.0 379.99 403.47 3.5438 0.83661 1.0252 169.62 2.2478 3.3982 0.0037610
-147.62 0.0011965 5.2978e-09 -119.11 -119.11 -0.65284 692.21 0.0014447 -119.11 -119.11 -0.65284 1.3343 1.9651 1863.9 -0.0074521 1258.9 0.19169 0.00034856 2869.0 380.83 404.49 3.5185 0.84001 1.0286 170.24 2.2014 3.4257 0.0038195
-146.62 0.0014249 5.3897e-09 -117.15 -117.15 -0.63724 691.20 0.0014468 -117.15 -117.15 -0.63724 1.3343 1.9666 1857.2 -0.0074417 1219.6 0.19117 0.00041181 2428.3 381.67 405.52 3.4938 0.84340 1.0320 170.85 2.1565 3.4532 0.0038783
-145.62 0.0016917 5.3218e-09 -115.18 -115.18 -0.62175 690.19 0.0014489 -115.18 -115.18 -0.62175 1.3343 1.9682 1850.4 -0.0074312 1182.3 0.19066 0.00048510 2061.4 382.51 406.56 3.4695 0.84677 1.0353 171.46 2.1128 3.4807 0.0039374
-144.62 0.0020026 5.0409e-09 -113.21 -113.21 -0.60637 689.18 0.0014510 -113.21 -113.21 -0.60637 1.3343 1.9697 1843.7 -0.0074206 1146.8 0.19014 0.00056976 1755.1 383.36 407.59 3.4458 0.85012 1.0387 172.07 2.0705 3.5082 0.0039967
-143.62 0.0023637 4.4831e-09 -111.24 -111.24 -0.59110 688.17 0.0014531 -111.24 -111.24 -0.59110 1.3343 1.9713 1836.9 -0.0074098 1113.0 0.18962 0.00066731 1498.6 384.21 408.63 3.4226 0.85346 1.0420 172.68 2.0294 3.5358 0.0040564
-142.62 0.0027820 3.5718e-09 -109.27 -109.27 -0.57593 687.16 0.0014553 -109.27 -109.27 -0.57593 1.3343 1.9728 1830.2 -0.0073988 1080.8 0.18909 0.00077939 1283.1 385.07 409.68 3.3999 0.85679 1.0454 173.28 1.9896 3.5633 0.0041164
-141.62 0.0032653 2.2162e-09 -107.30 -107.30 -0.56087 686.15 0.0014574 -107.30 -107.30 -0.56087 1.3343 1.9744 1823.5 -0.0073878 1050.1 0.18856 0.00090784 1101.5 385.93 410.72 3.3777 0.86011 1.0487 173.88 1.9508 3.5908 0.0041766
-140.62 0.0038222 3.0924e-10 -105.32 -105.32 -0.54591 685.14 0.0014596 -105.32 -105.32 -0.54591 1.3344 1.9760 1816.7 -0.0073765 1020.7 0.18803 0.0010547 948.16 386.79 411.77 3.3560 0.86341 1.0520 174.48 1.9133 3.6183 0.0042372
-139.62 281.22 undefined -103.90 -101.07 -0.53521 685.00 0.0014599 -103.90 -101.07 -0.53521 1.3363 1.9759 1818.1 -0.0073769 1008.6 0.18819 685.00 0.0014599 -103.90 -101.07 -0.53521 1.3363 1.9759 1818.1 -0.0073769 1008.6 0.18819
-138.62 605.80 undefined -102.56 -96.464 -0.52523 685.00 0.0014599 -102.56 -96.464 -0.52523 1.3385 1.9757 1820.8 -0.0073790 999.23 0.18847 685.00 0.0014599 -102.56 -96.464 -0.52523 1.3385 1.9757 1820.8 -0.0073790 999.23 0.18847
-137.62 929.31 undefined -101.22 -91.868 -0.51531 685.00 0.0014599 -101.22 -91.868 -0.51531 1.3407 1.9754 1823.4 -0.0073810 990.09 0.18875 685.00 0.0014599 -101.22 -91.868 -0.51531 1.3407 1.9754 1823.4 -0.0073810 990.09 0.18875
-136.62 1251.7 undefined -99.880 -87.281 -0.50545 685.00 0.0014599 -99.880 -87.281 -0.50545 1.3429 1.9752 1826.0 -0.0073829 981.17 0.18902 685.00 0.0014599 -99.880 -87.281 -0.50545 1.3429 1.9752 1826.0 -0.0073829 981.17 0.18902
-135.62 1573.1 undefined -98.536 -82.702 -0.49564 685.00 0.0014599 -98.536 -82.702 -0.49564 1.3451 1.9749 1828.6 -0.0073847 972.46 0.18930 685.00 0.0014599 -98.536 -82.702 -0.49564 1.3451 1.9749 1828.6 -0.0073847 972.46 0.18930
-134.62 1893.5 undefined -97.190 -78.131 -0.48588 685.00 0.0014599 -97.190 -78.131 -0.48588 1.3473 1.9748 1831.2 -0.0073863 963.95 0.18958 685.00 0.0014599 -97.190 -78.131 -0.48588 1.3473 1.9748 1831.2 -0.0073863 963.95 0.18958
-133.62 2212.8 undefined -95.841 -73.569 -0.47619 685.00 0.0014599 -95.841 -73.569 -0.47619 1.3495 1.9746 1833.8 -0.0073879 955.64 0.18986 685.00 0.0014599 -95.841 -73.569 -0.47619 1.3495 1.9746 1833.8 -0.0073879 955.64 0.18986
-132.62 2531.1 undefined -94.491 -69.014 -0.46654 685.00 0.0014599 -94.491 -69.014 -0.46654 1.3517 1.9745 1836.4 -0.0073894 947.51 0.19014 685.00 0.0014599 -94.491 -69.014 -0.46654 1.3517 1.9745 1836.4 -0.0073894 947.51 0.19014
-131.62 2848.4 undefined -93.138 -64.468 -0.45695 685.00 0.0014599 -93.138 -64.468 -0.45695 1.3538 1.9744 1839.0 -0.0073907 939.57 0.19041 685.00 0.0014599 -93.138 -64.468 -0.45695 1.3538 1.9744 1839.0 -0.0073907 939.57 0.19041
-130.62 3164.7 undefined -91.783 -59.929 -0.44741 685.00 0.0014599 -91.783 -59.929 -0.44741 1.3560 1.9743 1841.5 -0.0073920 931.80 0.19069 685.00 0.0014599 -91.783 -59.929 -0.44741 1.3560 1.9743 1841.5 -0.0073920 931.80 0.19069
-129.62 3480.0 undefined -90.426 -55.398 -0.43792 685.00 0.0014599 -90.426 -55.398 -0.43792 1.3582 1.9742 1844.1 -0.0073931 924.20 0.19097 685.00 0.0014599 -90.426 -55.398 -0.43792 1.3582 1.9742 1844.1 -0.0073931 924.20 0.19097
-128.62 3794.4 undefined -89.067 -50.875 -0.42848 685.00 0.0014599 -89.067 -50.875 -0.42848 1.3604 1.9742 1846.6 -0.0073941 916.77 0.19125 685.00 0.0014599 -89.067 -50.875 -0.42848 1.3604 1.9742 1846.6 -0.0073941 916.77 0.19125
-127.62 4107.7 undefined -87.705 -46.359 -0.41909 685.00 0.0014599 -87.705 -46.359 -0.41909 1.3625 1.9742 1849.1 -0.0073951 909.50 0.19153 685.00 0.0014599 -87.705 -46.359 -0.41909 1.3625 1.9742 1849.1 -0.0073951 909.50 0.19153
-126.62 4420.2 undefined -86.342 -41.851 -0.40976 685.00 0.0014599 -86.342 -41.851 -0.40976 1.3647 1.9742 1851.6 -0.0073959 902.39 0.19181 685.00 0.0014599 -86.342 -41.851 -0.40976 1.3647 1.9742 1851.6 -0.0073959 902.39 0.19181
-125.62 4731.6 undefined -84.976 -37.350 -0.40047 685.00 0.0014599 -84.976 -37.350 -0.40047 1.3669 1.9742 1854.1 -0.0073966 895.43 0.19209 685.00 0.0014599 -84.976 -37.350 -0.40047 1.3669 1.9742 1854.1 -0.0073966 895.43 0.19209
-124.62 5042.2 undefined -83.608 -32.857 -0.39122 685.00 0.0014599 -83.608 -32.857 -0.39122 1.3691 1.9743 1856.6 -0.0073972 888.62 0.19238 685.00 0.0014599 -83.608 -32.857 -0.39122 1.3691 1.9743 1856.6 -0.0073972 888.62 0.19238
-123.62 5351.8 undefined -82.238 -28.370 -0.38203 685.00 0.0014599 -82.238 -28.370 -0.38203 1.3713 1.9744 1859.1 -0.0073978 881.94 0.19266 685.00 0.0014599 -82.238 -28.370 -0.38203 1.3713 1.9744 1859.1 -0.0073978 881.94 0.19266
-122.62 5660.4 undefined -80.865 -23.891 -0.37288 685.00 0.0014599 -80.865 -23.891 -0.37288 1.3735 1.9745 1861.5 -0.0073982 875.41 0.19294 685.00 0.0014599 -80.865 -23.891 -0.37288 1.3735 1.9745 1861.5 -0.0073982 875.41 0.19294
-121.62 5968.2 undefined -79.491 -19.419 -0.36378 685.00 0.0014599 -79.491 -19.419 -0.36378 1.3757 1.9746 1863.9 -0.0073985 869.01 0.19322 685.00 0.0014599 -79.491 -19.419 -0.36378 1.3757 1.9746 1863.9 -0.0073985 869.01 0.19322
-120.62 6275.1 undefined -78.114 -14.953 -0.35472 685.00 0.0014599 -78.114 -14.953 -0.35472 1.3778 1.9748 1866.3 -0.0073987 862.74 0.19350 685.00 0.0014599 -78.114 -14.953 -0.35472 1.3778 1.9748 1866.3 -0.0073987 862.74 0.19350
-119.62 6581.0 undefined -76.735 -10.495 -0.34571 685.00 0.0014599 -76.735 -10.495 -0.34571 1.3801 1.9750 1868.7 -0.0073988 856.60 0.19378 685.00 0.0014599 -76.735 -10.495 -0.34571 1.3801 1.9750 1868.7 -0.0073988 856.60 0.19378
-118.62 6886.1 undefined -75.354 -6.0430 -0.33675 685.00 0.0014599 -75.354 -6.0430 -0.33675 1.3823 1.9752 1871.1 -0.0073988 850.58 0.19407 685.00 0.0014599 -75.354 -6.0430 -0.33675 1.3823 1.9752 1871.1 -0.0073988 850.58 0.19407
-117.62 7190.3 undefined -73.970 -1.5979 -0.32782 685.00 0.0014599 -73.970 -1.5979 -0.32782 1.3845 1.9754 1873.5 -0.0073987 844.68 0.19435 685.00 0.0014599 -73.970 -1.5979 -0.32782 1.3845 1.9754 1873.5 -0.0073987 844.68 0.19435
-116.62 7493.6 undefined -72.585 2.8406 -0.31894 685.00 0.0014599 -72.585 2.8406 -0.31894 1.3867 1.9757 1875.8 -0.0073985 838.90 0.19463 685.00 0.0014599 -72.585 2.8406 -0.31894 1.3867 1.9757 1875.8 -0.0073985 838.90 0.19463
-115.62 7796.0 undefined -71.197 7.2726 -0.31010 685.00 0.0014599 -71.197 7.2726 -0.31010 1.3889 1.9760 1878.2 -0.0073982 833.23 0.19492 685.00 0.0014599 -71.197 7.2726 -0.31010 1.3889 1.9760 1878.2 -0.0073982 833.23 0.19492
-114.62 8097.6 undefined -69.807 11.698 -0.30131 685.00 0.0014599 -69.807 11.698 -0.30131 1.3912 1.9763 1880.5 -0.0073978 827.68 0.19520 685.00 0.0014599 -69.807 11.698 -0.30131 1.3912 1.9763 1880.5 -0.0073978 827.68 0.19520
-113.62 8398.3 undefined -68.415 16.117 -0.29255 685.00 0.0014599 -68.415 16.117 -0.29255 1.3934 1.9766 1882.8 -0.0073972 822.23 0.19548 685.00 0.0014599 -68.415 16.117 -0.29255 1.3934 1.9766 1882.8 -0.0073972 822.23 0.19548
-112.62 8698.2 undefined -67.020 20.530 -0.28384 685.00 0.0014599 -67.020 20.530 -0.28384 1.3957 1.9770 1885.1 -0.0073966 816.88 0.19577 685.00 0.0014599 -67.020 20.530 -0.28384 1.3957 1.9770 1885.1 -0.0073966 816.88 0.19577
-111.62 8997.3 undefined -65.623 24.937 -0.27516 685.00 0.0014599 -65.623 24.937 -0.27516 1.3979 1.9774 1887.4 -0.0073959 811.64 0.19605 685.00 0.0014599 -65.623 24.937 -0.27516 1.3979 1.9774 1887.4 -0.0073959 811.64 0.19605
-110.62 9295.5 undefined -64.224 29.338 -0.26653 685.00 0.0014599 -64.224 29.338 -0.26653 1.4002 1.9778 1889.6 -0.0073950 806.49 0.19634 685.00 0.0014599 -64.224 29.338 -0.26653 1.4002 1.9778 1889.6 -0.0073950 806.49 0.19634
-109.62 9592.8 undefined -62.823 33.732 -0.25793 685.00 0.0014599 -62.823 33.732 -0.25793 1.4025 1.9783 1891.9 -0.0073941 801.45 0.19662 685.00 0.0014599 -62.823 33.732 -0.25793 1.4025 1.9783 1891.9 -0.0073941 801.45 0.19662
-108.62 9889.4 undefined -61.419 38.121 -0.24938 685.00 0.0014599 -61.419 38.121 -0.24938 1.4048 1.9787 1894.1 -0.0073931 796.49 0.19691 685.00 0.0014599 -61.419 38.121 -0.24938 1.4048 1.9787 1894.1 -0.0073931 796.49 0.19691
-107.62 10185. undefined -60.013 42.503 -0.24086 685.00 0.0014599 -60.013 42.503 -0.24086 1.4071 1.9792 1896.3 -0.0073919 791.63 0.19720 685.00 0.0014599 -60.013 42.503 -0.24086 1.4071 1.9792 1896.3 -0.0073919 791.63 0.19720
-106.62 10480. undefined -58.605 46.880 -0.23237 685.00 0.0014599 -58.605 46.880 -0.23237 1.4094 1.9798 1898.5 -0.0073907 786.86 0.19748 685.00 0.0014599 -58.605 46.880 -0.23237 1.4094 1.9798 1898.5 -0.0073907 786.86 0.19748
-105.62 10774. undefined -57.195 51.251 -0.22393 685.00 0.0014599 -57.195 51.251 -0.22393 1.4117 1.9803 1900.7 -0.0073893 782.17 0.19777 685.00 0.0014599 -57.195 51.251 -0.22393 1.4117 1.9803 1900.7 -0.0073893 782.17 0.19777
-104.62 11068. undefined -55.782 55.617 -0.21552 685.00 0.0014599 -55.782 55.617 -0.21552 1.4140 1.9809 1902.9 -0.0073878 777.57 0.19805 685.00 0.0014599 -55.782 55.617 -0.21552 1.4140 1.9809 1902.9 -0.0073878 777.57 0.19805
-103.62 11360. undefined -54.367 59.977 -0.20715 685.00 0.0014599 -54.367 59.977 -0.20715 1.4164 1.9815 1905.0 -0.0073863 773.06 0.19834 685.00 0.0014599 -54.367 59.977 -0.20715 1.4164 1.9815 1905.0 -0.0073863 773.06 0.19834
-102.62 11652. undefined -52.949 64.331 -0.19881 685.00 0.0014599 -52.949 64.331 -0.19881 1.4187 1.9821 1907.1 -0.0073846 768.62 0.19863 685.00 0.0014599 -52.949 64.331 -0.19881 1.4187 1.9821 1907.1 -0.0073846 768.62 0.19863
-101.62 11943. undefined -51.529 68.680 -0.19051 685.00 0.0014599 -51.529 68.680 -0.19051 1.4211 1.9828 1909.3 -0.0073828 764.26 0.19892 685.00 0.0014599 -51.529 68.680 -0.19051 1.4211 1.9828 1909.3 -0.0073828 764.26 0.19892
-100.62 12233. undefined -50.107 73.023 -0.18224 685.00 0.0014599 -50.107 73.023 -0.18224 1.4235 1.9835 1911.4 -0.0073809 759.98 0.19920 685.00 0.0014599 -50.107 73.023 -0.18224 1.4235 1.9835 1911.4 -0.0073809 759.98 0.19920
-99.625 12523. undefined -48.682 77.361 -0.17401 685.00 0.0014599 -48.682 77.361 -0.17401 1.4259 1.9842 1913.5 -0.0073789 755.78 0.19949 685.00 0.0014599 -48.682 77.361 -0.17401 1.4259 1.9842 1913.5 -0.0073789 755.78 0.19949
-98.625 12811. undefined -47.255 81.694 -0.16581 685.00 0.0014599 -47.255 81.694 -0.16581 1.4283 1.9849 1915.5 -0.0073768 751.65 0.19978 685.00 0.0014599 -47.255 81.694 -0.16581 1.4283 1.9849 1915.5 -0.0073768 751.65 0.19978
-97.625 13099. undefined -45.826 86.022 -0.15764 685.00 0.0014599 -45.826 86.022 -0.15764 1.4307 1.9857 1917.6 -0.0073746 747.59 0.20007 685.00 0.0014599 -45.826 86.022 -0.15764 1.4307 1.9857 1917.6 -0.0073746 747.59 0.20007
-96.625 13386. undefined -44.394 90.344 -0.14950 685.00 0.0014599 -44.394 90.344 -0.14950 1.4331 1.9865 1919.7 -0.0073723 743.60 0.20036 685.00 0.0014599 -44.394 90.344 -0.14950 1.4331 1.9865 1919.7 -0.0073723 743.60 0.20036
-95.625 13673. undefined -42.960 94.661 -0.14140 685.00 0.0014599 -42.960 94.661 -0.14140 1.4355 1.9873 1921.7 -0.0073699 739.67 0.20065 685.00 0.0014599 -42.960 94.661 -0.14140 1.4355 1.9873 1921.7 -0.0073699 739.67 0.20065
-94.625 13958. undefined -41.523 98.974 -0.13333 685.00 0.0014599 -41.523 98.974 -0.13333 1.4380 1.9881 1923.7 -0.0073674 735.82 0.20094 685.00 0.0014599 -41.523 98.974 -0.13333 1.4380 1.9881 1923.7 -0.0073674 735.82 0.20094
-93.625 14243. undefined -40.084 103.28 -0.12529 685.00 0.0014599 -40.084 103.28 -0.12529 1.4405 1.9890 1925.7 -0.0073648 732.03 0.20123 685.00 0.0014599 -40.084 103.28 -0.12529 1.4405 1.9890 1925.7 -0.0073648 732.03 0.20123
-92.625 14528. undefined -38.642 107.58 -0.11728 685.00 0.0014599 -38.642 107.58 -0.11728 1.4429 1.9899 1927.7 -0.0073620 728.30 0.20152 685.00 0.0014599 -38.642 107.58 -0.11728 1.4429 1.9899 1927.7 -0.0073620 728.30 0.20152
-91.625 14811. undefined -37.198 111.88 -0.10931 685.00 0.0014599 -37.198 111.88 -0.10931 1.4454 1.9908 1929.7 -0.0073592 724.64 0.20181 685.00 0.0014599 -37.198 111.88 -0.10931 1.4454 1.9908 1929.7 -0.0073592 724.64 0.20181
-90.625 15094. undefined -35.751 116.17 -0.10136 685.00 0.0014599 -35.751 116.17 -0.10136 1.4480 1.9918 1931.7 -0.0073563 721.03 0.20210 685.00 0.0014599 -35.751 116.17 -0.10136 1.4480 1.9918 1931.7 -0.0073563 721.03 0.20210
-89.625 15376. undefined -34.302 120.46 -0.093440 685.00 0.0014599 -34.302 120.46 -0.093440 1.4505 1.9927 1933.6 -0.0073532 717.49 0.20239 685.00 0.0014599 -34.302 120.46 -0.093440 1.4505 1.9927 1933.6 -0.0073532 717.49 0.20239
-88.625 15657. undefined -32.850 124.75 -0.085551 685.00 0.0014599 -32.850 124.75 -0.085551 1.4530 1.9937 1935.6 -0.0073501 714.00 0.20268 685.00 0.0014599 -32.850 124.75 -0.085551 1.4530 1.9937 1935.6 -0.0073501 714.00 0.20268
-87.625 15938. undefined -31.396 129.03 -0.077691 685.00 0.0014599 -31.396 129.03 -0.077691 1.4556 1.9948 1937.5 -0.0073469 710.57 0.20297 685.00 0.0014599 -31.396 129.03 -0.077691 1.4556 1.9948 1937.5 -0.0073469 710.57 0.20297
-86.625 16218. undefined -29.939 133.30 -0.069860 685.00 0.0014599 -29.939 133.30 -0.069860 1.4581 1.9958 1939.4 -0.0073435 707.20 0.20327 685.00 0.0014599 -29.939 133.30 -0.069860 1.4581 1.9958 1939.4 -0.0073435 707.20 0.20327
-85.625 16497. undefined -28.479 137.57 -0.062056 685.00 0.0014599 -28.479 137.57 -0.062056 1.4607 1.9969 1941.3 -0.0073401 703.88 0.20356 685.00 0.0014599 -28.479 137.57 -0.062056 1.4607 1.9969 1941.3 -0.0073401 703.88 0.20356
-84.625 16776. undefined -27.017 141.84 -0.054281 685.00 0.0014599 -27.017 141.84 -0.054281 1.4633 1.9980 1943.2 -0.0073365 700.61 0.20385 685.00 0.0014599 -27.017 141.84 -0.054281 1.4633 1.9980 1943.2 -0.0073365 700.61 0.20385
-83.625 17054. undefined -25.553 146.10 -0.046532 685.00 0.0014599 -25.553 146.10 -0.046532 1.4659 1.9992 1945.1 -0.0073329 697.40 0.20414 685.00 0.0014599 -25.553 146.10 -0.046532 1.4659 1.9992 1945.1 -0.0073329 697.40 0.20414
-82.625 17331. undefined -24.086 150.36 -0.038811 685.00 0.0014599 -24.086 150.36 -0.038811 1.4686 2.0003 1946.9 -0.0073291 694.24 0.20444 685.00 0.0014599 -24.086 150.36 -0.038811 1.4686 2.0003 1946.9 -0.0073291 694.24 0.20444
-81.625 17608. undefined -22.616 154.61 -0.031116 685.00 0.0014599 -22.616 154.61 -0.031116 1.4712 2.0015 1948.8 -0.0073252 691.12 0.20473 685.00 0.0014599 -22.616 154.61 -0.031116 1.4712 2.0015 1948.8 -0.0073252 691.12 0.20473
-80.625 17883. undefined -21.143 158.86 -0.023448 685.00 0.0014599 -21.143 158.86 -0.023448 1.4739 2.0027 1950.6 -0.0073213 688.06 0.20502 685.00 0.0014599 -21.143 158.86 -0.023448 1.4739 2.0027 1950.6 -0.0073213 688.06 0.20502
-79.625 18159. undefined -19.668 163.11 -0.015805 685.00 0.0014599 -19.668 163.11 -0.015805 1.4765 2.0040 1952.4 -0.0073172 685.04 0.20532 685.00 0.0014599 -19.668 163.11 -0.015805 1.4765 2.0040 1952.4 -0.0073172 685.04 0.20532
-78.625 18433. undefined -18.190 167.35 -0.0081883 685.00 0.0014599 -18.190 167.35 -0.0081883 1.4792 2.0053 1954.2 -0.0073131 682.07 0.20561 685.00 0.0014599 -18.190 167.35 -0.0081883 1.4792 2.0053 1954.2 -0.0073131 682.07 0.20561
-77.625 18707. undefined -16.709 171.58 -0.00059654 685.00 0.0014599 -16.709 171.58 -0.00059654 1.4819 2.0066 1956.0 -0.0073088 679.15 0.20591 685.00 0.0014599 -16.709 171.58 -0.00059654 1.4819 2.0066 1956.0 -0.0073088 679.15 0.20591
-76.625 18980. undefined -15.226 175.82 0.0069704 685.00 0.0014599 -15.226 175.82 0.0069704 1.4847 2.0079 1957.8 -0.0073045 676.27 0.20620 685.00 0.0014599 -15.226 175.82 0.0069704 1.4847 2.0079 1957.8 -0.0073045 676.27 0.20620
-75.625 19253. undefined -13.740 180.05 0.014513 685.00 0.0014599 -13.740 180.05 0.014513 1.4874 2.0092 1959.6 -0.0073000 673.43 0.20650 685.00 0.0014599 -13.740 180.05 0.014513 1.4874 2.0092 1959.6 -0.0073000 673.43 0.20650
-74.625 19525. undefined -12.251 184.27 0.022031 685.00 0.0014599 -12.251 184.27 0.022031 1.4902 2.0106 1961.4 -0.0072955 670.64 0.20679 685.00 0.0014599 -12.251 184.27 0.022031 1.4902 2.0106 1961.4 -0.0072955 670.64 0.20679
-73.625 19796. undefined -10.760 188.50 0.029525 685.00 0.0014599 -10.760 188.50 0.029525 1.4929 2.0120 1963.1 -0.0072908 667.89 0.20709 685.00 0.0014599 -10.760 188.50 0.029525 1.4929 2.0120 1963.1 -0.0072908 667.89 0.20709
-72.625 20067. undefined -9.2655 192.71 0.036996 685.00 0.0014599 -9.2655 192.71 0.036996 1.4957 2.0135 1964.8 -0.0072861 665.18 0.20738 685.00 0.0014599 -9.2655 192.71 0.036996 1.4957 2.0135 1964.8 -0.0072861 665.18 0.20738
-71.625 20337. undefined -7.7684 196.93 0.044443 685.00 0.0014599 -7.7684 196.93 0.044443 1.4985 2.0149 1966.6 -0.0072813 662.51 0.20768 685.00 0.0014599 -7.7684 196.93 0.044443 1.4985 2.0149 1966.6 -0.0072813 662.51 0.20768
-70.625 20606. undefined -6.2684 201.14 0.051868 685.00 0.0014599 -6.2684 201.14 0.051868 1.5014 2.0164 1968.3 -0.0072763 659.88 0.20798 685.00 0.0014599 -6.2684 201.14 0.051868 1.5014 2.0164 1968.3 -0.0072763 659.88 0.20798
-69.625 20875. undefined -4.7657 205.35 0.059270 685.00 0.0014599 -4.7657 205.35 0.059270 1.5042 2.0179 1970.0 -0.0072713 657.29 0.20827 685.00 0.0014599 -4.7657 205.35 0.059270 1.5042 2.0179 1970.0 -0.0072713 657.29 0.20827
-68.625 21143. undefined -3.2600 209.55 0.066649 685.00 0.0014599 -3.2600 209.55 0.066649 1.5070 2.0195 1971.7 -0.0072662 654.73 0.20857 685.00 0.0014599 -3.2600 209.55 0.066649 1.5070 2.0195 1971.7 -0.0072662 654.73 0.20857
-67.625 21411. undefined -1.7516 213.76 0.074007 685.00 0.0014599 -1.7516 213.76 0.074007 1.5099 2.0211 1973.4 -0.0072610 652.22 0.20887 685.00 0.0014599 -1.7516 213.76 0.074007 1.5099 2.0211 1973.4 -0.0072610 652.22 0.20887
-66.625 21678. undefined -0.24019 217.95 0.081343 685.00 0.0014599 -0.24019 217.95 0.081343 1.5128 2.0226 1975.0 -0.0072557 649.74 0.20917 685.00 0.0014599 -0.24019 217.95 0.081343 1.5128 2.0226 1975.0 -0.0072557 649.74 0.20917
-65.625 21944. undefined 1.2741 222.15 0.088657 685.00 0.0014599 1.2741 222.15 0.088657 1.5157 2.0243 1976.7 -0.0072503 647.30 0.20947 685.00 0.0014599 1.2741 222.15 0.088657 1.5157 2.0243 1976.7 -0.0072503 647.30 0.20947
-64.625 22210. undefined 2.7912 226.34 0.095950 685.00 0.0014599 2.7912 226.34 0.095950 1.5186 2.0259 1978.3 -0.0072448 644.89 0.20976 685.00 0.0014599 2.7912 226.34 0.095950 1.5186 2.0259 1978.3 -0.0072448 644.89 0.20976
-63.625 22475. undefined 4.3114 230.53 0.10322 685.00 0.0014599 4.3114 230.53 0.10322 1.5216 2.0276 1980.0 -0.0072392 642.52 0.21006 685.00 0.0014599 4.3114 230.53 0.10322 1.5216 2.0276 1980.0 -0.0072392 642.52 0.21006
-62.625 22739. undefined 5.8344 234.71 0.11047 685.00 0.0014599 5.8344 234.71 0.11047 1.5245 2.0293 1981.6 -0.0072336 640.18 0.21036 685.00 0.0014599 5.8344 234.71 0.11047 1.5245 2.0293 1981.6 -0.0072336 640.18 0.21036
-61.625 23003. undefined 7.3604 238.90 0.11771 685.00 0.0014599 7.3604 238.90 0.11771 1.5275 2.0310 1983.2 -0.0072278 637.87 0.21066 685.00 0.0014599 7.3604 238.90 0.11771 1.5275 2.0310 1983.2 -0.0072278 637.87 0.21066
-60.625 23267. undefined 8.8895 243.08 0.12492 685.00 0.0014599 8.8895 243.08 0.12492 1.5305 2.0328 1984.8 -0.0072220 635.60 0.21096 685.00 0.0014599 8.8895 243.08 0.12492 1.5305 2.0328 1984.8 -0.0072220 635.60 0.21096
-59.625 23529. undefined 10.421 247.25 0.13211 685.00 0.0014599 10.421 247.25 0.13211 1.5335 2.0346 1986.4 -0.0072161 633.36 0.21126 685.00 0.0014599 10.421 247.25 0.13211 1.5335 2.0346 1986.4 -0.0072161 633.36 0.21126
-58.625 23792. undefined 11.956 251.43 0.13928 685.00 0.0014599 11.956 251.43 0.13928 1.5365 2.0364 1988.0 -0.0072100 631.15 0.21156 685.00 0.0014599 11.956 251.43 0.13928 1.5365 2.0364 1988.0 -0.0072100 631.15 0.21156
-57.625 24053. undefined 13.495 255.60 0.14643 685.00 0.0014599 13.495 255.60 0.14643 1.5396 2.0382 1989.6 -0.0072039 628.97 0.21186 685.00 0.0014599 13.495 255.60 0.14643 1.5396 2.0382 1989.6 -0.0072039 628.97 0.21186
-56.625 24314. undefined 15.036 259.77 0.15357 685.00 0.0014599 15.036 259.77 0.15357 1.5426 2.0400 1991.2 -0.0071978 626.82 0.21216 685.00 0.0014599 15.036 259.77 0.15357 1.5426 2.0400 1991.2 -0.0071978 626.82 0.21216
-55.625 24575. undefined 16.580 263.93 0.16068 685.00 0.0014599 16.580 263.93 0.16068 1.5457 2.0419 1992.7 -0.0071915 624.70 0.21246 685.00 0.0014599 16.580 263.93 0.16068 1.5457 2.0419 1992.7 -0.0071915 624.70 0.21246
-54.625 24835. undefined 18.127 268.10 0.16778 685.00 0.0014599 18.127 268.10 0.16778 1.5488 2.0438 1994.3 -0.0071851 622.61 0.21276 685.00 0.0014599 18.127 268.10 0.16778 1.5488 2.0438 1994.3 -0.0071851 622.61 0.21276
-53.625 25094. undefined 19.677 272.26 0.17486 685.00 0.0014599 19.677 272.26 0.17486 1.5519 2.0458 1995.8 -0.0071787 620.54 0.21307 685.00 0.0014599 19.677 272.26 0.17486 1.5519 2.0458 1995.8 -0.0071787 620.54 0.21307
-52.625 25353. undefined 21.231 276.41 0.18192 685.00 0.0014599 21.231 276.41 0.18192 1.5551 2.0477 1997.3 -0.0071722 618.51 0.21337 685.00 0.0014599 21.231 276.41 0.18192 1.5551 2.0477 1997.3 -0.0071722 618.51 0.21337
-51.625 25611. undefined 22.788 280.57 0.18896 685.00 0.0014599 22.788 280.57 0.18896 1.5582 2.0497 1998.9 -0.0071656 616.50 0.21367 685.00 0.0014599 22.788 280.57 0.18896 1.5582 2.0497 1998.9 -0.0071656 616.50 0.21367
-50.625 25868. undefined 24.347 284.72 0.19599 685.00 0.0014599 24.347 284.72 0.19599 1.5614 2.0517 2000.4 -0.0071589 614.52 0.21397 685.00 0.0014599 24.347 284.72 0.19599 1.5614 2.0517 2000.4 -0.0071589 614.52 0.21397
-49.625 26126. undefined 25.910 288.87 0.20300 685.00 0.0014599 25.910 288.87 0.20300 1.5645 2.0537 2001.9 -0.0071522 612.57 0.21428 685.00 0.0014599 25.910 288.87 0.20300 1.5645 2.0537 2001.9 -0.0071522 612.57 0.21428
-48.625 26382. undefined 27.476 293.02 0.20999 685.00 0.0014599 27.476 293.02 0.20999 1.5677 2.0558 2003.4 -0.0071454 610.64 0.21458 685.00 0.0014599 27.476 293.02 0.20999 1.5677 2.0558 2003.4 -0.0071454 610.64 0.21458
-47.625 26638. undefined 29.046 297.17 0.21696 685.00 0.0014599 29.046 297.17 0.21696 1.5709 2.0579 2004.9 -0.0071385 608.74 0.21488 685.00 0.0014599 29.046 297.17 0.21696 1.5709 2.0579 2004.9 -0.0071385 608.74 0.21488
-46.625 26893. undefined 30.618 301.31 0.22392 685.00 0.0014599 30.618 301.31 0.22392 1.5742 2.0600 2006.3 -0.0071315 606.87 0.21519 685.00 0.0014599 30.618 301.31 0.22392 1.5742 2.0600 2006.3 -0.0071315 606.87 0.21519
-45.625 27148. undefined 32.194 305.45 0.23086 685.00 0.0014599 32.194 305.45 0.23086 1.5774 2.0621 2007.8 -0.0071244 605.01 0.21549 685.00 0.0014599 32.194 305.45 0.23086 1.5774 2.0621 2007.8 -0.0071244 605.01 0.21549
-44.625 27403. undefined 33.773 309.59 0.23778 685.00 0.0014599 33.773 309.59 0.23778 1.5807 2.0643 2009.3 -0.0071173 603.19 0.21579 685.00 0.0014599 33.773 309.59 0.23778 1.5807 2.0643 2009.3 -0.0071173 603.19 0.21579
-43.625 27657. undefined 35.355 313.73 0.24469 685.00 0.0014599 35.355 313.73 0.24469 1.5839 2.0664 2010.7 -0.0071101 601.38 0.21610 685.00 0.0014599 35.355 313.73 0.24469 1.5839 2.0664 2010.7 -0.0071101 601.38 0.21610
-42.625 27910. undefined 36.941 317.86 0.25159 685.00 0.0014599 36.941 317.86 0.25159 1.5872 2.0686 2012.2 -0.0071029 599.60 0.21640 685.00 0.0014599 36.941 317.86 0.25159 1.5872 2.0686 2012.2 -0.0071029 599.60 0.21640
-41.625 28163. undefined 38.530 322.00 0.25846 685.00 0.0014599 38.530 322.00 0.25846 1.5905 2.0709 2013.6 -0.0070955 597.85 0.21671 685.00 0.0014599 38.530 322.00 0.25846 1.5905 2.0709 2013.6 -0.0070955 597.85 0.21671
-40.625 28415. undefined 40.122 326.13 0.26533 685.00 0.0014599 40.122 326.13 0.26533 1.5939 2.0731 2015.0 -0.0070881 596.11 0.21701 685.00 0.0014599 40.122 326.13 0.26533 1.5939 2.0731 2015.0 -0.0070881 596.11 0.21701
-39.625 28667. undefined 41.718 330.26 0.27217 685.00 0.0014599 41.718 330.26 0.27217 1.5972 2.0754 2016.5 -0.0070807 594.40 0.21732 685.00 0.0014599 41.718 330.26 0.27217 1.5972 2.0754 2016.5 -0.0070807 594.40 0.21732
-38.625 28918. undefined 43.317 334.39 0.27900 685.00 0.0014599 43.317 334.39 0.27900 1.6006 2.0777 2017.9 -0.0070731 592.71 0.21763 685.00 0.0014599 43.317 334.39 0.27900 1.6006 2.0777 2017.9 -0.0070731 592.71 0.21763
-37.625 29169. undefined 44.919 338.51 0.28582 685.00 0.0014599 44.919 338.51 0.28582 1.6039 2.0800 2019.3 -0.0070655 591.04 0.21793 685.00 0.0014599 44.919 338.51 0.28582 1.6039 2.0800 2019.3 -0.0070655 591.04 0.21793
-36.625 29419. undefined 46.525 342.64 0.29262 685.00 0.0014599 46.525 342.64 0.29262 1.6073 2.0823 2020.7 -0.0070579 589.39 0.21824 685.00 0.0014599 46.525 342.64 0.29262 1.6073 2.0823 2020.7 -0.0070579 589.39 0.21824
-35.625 29669. undefined 48.134 346.76 0.29941 685.00 0.0014599 48.134 346.76 0.29941 1.6107 2.0847 2022.1 -0.0070501 587.77 0.21855 685.00 0.0014599 48.134 346.76 0.29941 1.6107 2.0847 2022.1 -0.0070501 587.77 0.21855
-34.625 29918. undefined 49.746 350.88 0.30619 685.00 0.0014599 49.746 350.88 0.30619 1.6141 2.0871 2023.5 -0.0070423 586.16 0.21885 685.00 0.0014599 49.746 350.88 0.30619 1.6141 2.0871 2023.5 -0.0070423 586.16 0.21885
-33.625 30167. undefined 51.362 355.00 0.31295 685.00 0.0014599 51.362 355.00 0.31295 1.6176 2.0895 2024.8 -0.0070345 584.58 0.21916 685.00 0.0014599 51.362 355.00 0.31295 1.6176 2.0895 2024.8 -0.0070345 584.58 0.21916
-32.625 30415. undefined 52.981 359.12 0.31969 685.00 0.0014599 52.981 359.12 0.31969 1.6210 2.0919 2026.2 -0.0070266 583.01 0.21947 685.00 0.0014599 52.981 359.12 0.31969 1.6210 2.0919 2026.2 -0.0070266 583.01 0.21947
-31.625 30662. undefined 54.604 363.23 0.32643 685.00 0.0014599 54.604 363.23 0.32643 1.6245 2.0944 2027.6 -0.0070186 581.46 0.21978 685.00 0.0014599 54.604 363.23 0.32643 1.6245 2.0944 2027.6 -0.0070186 581.46 0.21978
-30.625 30910. undefined 56.230 367.35 0.33315 685.00 0.0014599 56.230 367.35 0.33315 1.6280 2.0969 2028.9 -0.0070106 579.93 0.22008 685.00 0.0014599 56.230 367.35 0.33315 1.6280 2.0969 2028.9 -0.0070106 579.93 0.22008
-29.625 31156. undefined 57.860 371.46 0.33985 685.00 0.0014599 57.860 371.46 0.33985 1.6315 2.0994 2030.3 -0.0070025 578.43 0.22039 685.00 0.0014599 57.860 371.46 0.33985 1.6315 2.0994 2030.3 -0.0070025 578.43 0.22039
-28.625 31403. undefined 59.493 375.57 0.34655 685.00 0.0014599 59.493 375.57 0.34655 1.6350 2.1019 2031.6 -0.0069943 576.94 0.22070 685.00 0.0014599 59.493 375.57 0.34655 1.6350 2.1019 2031.6 -0.0069943 576.94 0.22070
-27.625 31648. undefined 61.130 379.68 0.35322 685.00 0.0014599 61.130 379.68 0.35322 1.6385 2.1044 2033.0 -0.0069861 575.46 0.22101 685.00 0.0014599 61.130 379.68 0.35322 1.6385 2.1044 2033.0 -0.0069861 575.46 0.22101
-26.625 31894. undefined 62.770 383.79 0.35989 685.00 0.0014599 62.770 383.79 0.35989 1.6420 2.1070 2034.3 -0.0069779 574.01 0.22132 685.00 0.0014599 62.770 383.79 0.35989 1.6420 2.1070 2034.3 -0.0069779 574.01 0.22132
-25.625 32138. undefined 64.414 387.90 0.36655 685.00 0.0014599 64.414 387.90 0.36655 1.6456 2.1095 2035.6 -0.0069696 572.57 0.22163 685.00 0.0014599 64.414 387.90 0.36655 1.6456 2.1095 2035.6 -0.0069696 572.57 0.22163
-24.625 32383. undefined 66.061 392.00 0.37319 685.00 0.0014599 66.061 392.00 0.37319 1.6491 2.1121 2037.0 -0.0069612 571.15 0.22194 685.00 0.0014599 66.061 392.00 0.37319 1.6491 2.1121 2037.0 -0.0069612 571.15 0.22194
-23.625 32627. undefined 67.712 396.11 0.37982 685.00 0.0014599 67.712 396.11 0.37982 1.6527 2.1148 2038.3 -0.0069528 569.75 0.22225 685.00 0.0014599 67.712 396.11 0.37982 1.6527 2.1148 2038.3 -0.0069528 569.75 0.22225
-22.625 32870. undefined 69.367 400.21 0.38644 685.00 0.0014599 69.367 400.21 0.38644 1.6563 2.1174 2039.6 -0.0069444 568.36 0.22256 685.00 0.0014599 69.367 400.21 0.38644 1.6563 2.1174 2039.6 -0.0069444 568.36 0.22256
-21.625 33113. undefined 71.025 404.32 0.39304 685.00 0.0014599 71.025 404.32 0.39304 1.6599 2.1201 2040.9 -0.0069359 567.00 0.22287 685.00 0.0014599 71.025 404.32 0.39304 1.6599 2.1201 2040.9 -0.0069359 567.00 0.22287
-20.625 33355. undefined 72.686 408.42 0.39963 685.00 0.0014599 72.686 408.42 0.39963 1.6635 2.1227 2042.2 -0.0069273 565.64 0.22318 685.00 0.0014599 72.686 408.42 0.39963 1.6635 2.1227 2042.2 -0.0069273 565.64 0.22318
-19.625 33597. undefined 74.352 412.52 0.40622 685.00 0.0014599 74.352 412.52 0.40622 1.6672 2.1254 2043.5 -0.0069187 564.31 0.22350 685.00 0.0014599 74.352 412.52 0.40622 1.6672 2.1254 2043.5 -0.0069187 564.31 0.22350
-18.625 33839. undefined 76.021 416.62 0.41279 685.00 0.0014599 76.021 416.62 0.41279 1.6708 2.1282 2044.8 -0.0069101 562.98 0.22381 685.00 0.0014599 76.021 416.62 0.41279 1.6708 2.1282 2044.8 -0.0069101 562.98 0.22381
-17.625 34080. undefined 77.693 420.72 0.41934 685.00 0.0014599 77.693 420.72 0.41934 1.6745 2.1309 2046.1 -0.0069014 561.68 0.22412 685.00 0.0014599 77.693 420.72 0.41934 1.6745 2.1309 2046.1 -0.0069014 561.68 0.22412
-16.625 34320. undefined 79.370 424.82 0.42589 685.00 0.0014599 79.370 424.82 0.42589 1.6781 2.1337 2047.3 -0.0068927 560.39 0.22443 685.00 0.0014599 79.370 424.82 0.42589 1.6781 2.1337 2047.3 -0.0068927 560.39 0.22443
-15.625 34561. undefined 81.050 428.91 0.43243 685.00 0.0014599 81.050 428.91 0.43243 1.6818 2.1364 2048.6 -0.0068839 559.11 0.22474 685.00 0.0014599 81.050 428.91 0.43243 1.6818 2.1364 2048.6 -0.0068839 559.11 0.22474
-14.625 34800. undefined 82.733 433.01 0.43895 685.00 0.0014599 82.733 433.01 0.43895 1.6855 2.1392 2049.9 -0.0068751 557.85 0.22506 685.00 0.0014599 82.733 433.01 0.43895 1.6855 2.1392 2049.9 -0.0068751 557.85 0.22506
-13.625 35040. undefined 84.421 437.11 0.44547 685.00 0.0014599 84.421 437.11 0.44547 1.6892 2.1420 2051.1 -0.0068662 556.61 0.22537 685.00 0.0014599 84.421 437.11 0.44547 1.6892 2.1420 2051.1 -0.0068662 556.61 0.22537
-12.625 35278. undefined 86.112 441.20 0.45197 685.00 0.0014599 86.112 441.20 0.45197 1.6929 2.1449 2052.4 -0.0068573 555.38 0.22568 685.00 0.0014599 86.112 441.20 0.45197 1.6929 2.1449 2052.4 -0.0068573 555.38 0.22568
-11.625 35517. undefined 87.806 445.29 0.45846 685.00 0.0014599 87.806 445.29 0.45846 1.6967 2.1477 2053.6 -0.0068484 554.16 0.22600 685.00 0.0014599 87.806 445.29 0.45846 1.6967 2.1477 2053.6 -0.0068484 554.16 0.22600
-10.625 35755. undefined 89.505 449.39 0.46495 685.00 0.0014599 89.505 449.39 0.46495 1.7004 2.1506 2054.9 -0.0068394 552.96 0.22631 685.00 0.0014599 89.505 449.39 0.46495 1.7004 2.1506 2054.9 -0.0068394 552.96 0.22631
-9.6250 35992. undefined 91.207 453.48 0.47142 685.00 0.0014599 91.207 453.48 0.47142 1.7042 2.1535 2056.1 -0.0068304 551.77 0.22663 685.00 0.0014599 91.207 453.48 0.47142 1.7042 2.1535 2056.1 -0.0068304 551.77 0.22663
-8.6250 36229. undefined 92.913 457.57 0.47788 685.00 0.0014599 92.913 457.57 0.47788 1.7079 2.1564 2057.4 -0.0068214 550.59 0.22694 685.00 0.0014599 92.913 457.57 0.47788 1.7079 2.1564 2057.4 -0.0068214 550.59 0.22694
-7.6250 36466. undefined 94.623 461.66 0.48433 685.00 0.0014599 94.623 461.66 0.48433 1.7117 2.1593 2058.6 -0.0068124 549.43 0.22726 685.00 0.0014599 94.623 461.66 0.48433 1.7117 2.1593 2058.6 -0.0068124 549.43 0.22726
-6.6250 36702. undefined 96.337 465.76 0.49077 685.00 0.0014599 96.337 465.76 0.49077 1.7155 2.1622 2059.8 -0.0068033 548.28 0.22757 685.00 0.0014599 96.337 465.76 0.49077 1.7155 2.1622 2059.8 -0.0068033 548.28 0.22757
-5.6250 36938. undefined 98.054 469.85 0.49720 685.00 0.0014599 98.054 469.85 0.49720 1.7193 2.1652 2061.0 -0.0067941 547.14 0.22789 685.00 0.0014599 98.054 469.85 0.49720 1.7193 2.1652 2061.0 -0.0067941 547.14 0.22789
-4.6250 37173. undefined 99.775 473.94 0.50363 685.00 0.0014599 99.775 473.94 0.50363 1.7231 2.1681 2062.3 -0.0067850 546.02 0.22820 685.00 0.0014599 99.775 473.94 0.50363 1.7231 2.1681 2062.3 -0.0067850 546.02 0.22820
-3.6250 37408. undefined 101.50 478.03 0.51004 685.00 0.0014599 101.50 478.03 0.51004 1.7269 2.1711 2063.5 -0.0067758 544.90 0.22852 685.00 0.0014599 101.50 478.03 0.51004 1.7269 2.1711 2063.5 -0.0067758 544.90 0.22852
-2.6250 37643. undefined 103.23 482.12 0.51644 685.00 0.0014599 103.23 482.12 0.51644 1.7307 2.1741 2064.7 -0.0067666 543.80 0.22884 685.00 0.0014599 103.23 482.12 0.51644 1.7307 2.1741 2064.7 -0.0067666 543.80 0.22884
-1.6250 37877. undefined 104.96 486.20 0.52283 685.00 0.0014599 104.96 486.20 0.52283 1.7346 2.1771 2065.9 -0.0067573 542.72 0.22915 685.00 0.0014599 104.96 486.20 0.52283 1.7346 2.1771 2065.9 -0.0067573 542.72 0.22915
-0.62500 38111. undefined 106.70 490.29 0.52922 685.00 0.0014599 106.70 490.29 0.52922 1.7384 2.1802 2067.1 -0.0067481 541.64 0.22947 685.00 0.0014599 106.70 490.29 0.52922 1.7384 2.1802 2067.1 -0.0067481 541.64 0.22947
0.37500 38344. undefined 108.44 494.38 0.53559 685.00 0.0014599 108.44 494.38 0.53559 1.7423 2.1832 2068.3 -0.0067388 540.58 0.22979 685.00 0.0014599 108.44 494.38 0.53559 1.7423 2.1832 2068.3 -0.0067388 540.58 0.22979
1.3750 38577. undefined 110.18 498.47 0.54196 685.00 0.0014599 110.18 498.47 0.54196 1.7462 2.1863 2069.5 -0.0067294 539.53 0.23011 685.00 0.0014599 110.18 498.47 0.54196 1.7462 2.1863 2069.5 -0.0067294 539.53 0.23011
2.3750 38809. undefined 111.93 502.56 0.54831 685.00 0.0014599 111.93 502.56 0.54831 1.7501 2.1894 2070.7 -0.0067201 538.49 0.23042 685.00 0.0014599 111.93 502.56 0.54831 1.7501 2.1894 2070.7 -0.0067201 538.49 0.23042
3.3750 39041. undefined 113.68 506.65 0.55466 685.00 0.0014599 113.68 506.65 0.55466 1.7539 2.1925 2071.9 -0.0067107 537.46 0.23074 685.00 0.0014599 113.68 506.65 0.55466 1.7539 2.1925 2071.9 -0.0067107 537.46 0.23074
4.3750 39273. undefined 115.44 510.73 0.56100 685.00 0.0014599 115.44 510.73 0.56100 1.7578 2.1956 2073.1 -0.0067013 536.44 0.23106 685.00 0.0014599 115.44 510.73 0.56100 1.7578 2.1956 2073.1 -0.0067013 536.44 0.23106
5.3750 39504. undefined 117.20 514.82 0.56733 685.00 0.0014599 117.20 514.82 0.56733 1.7618 2.1987 2074.2 -0.0066919 535.43 0.23138 685.00 0.0014599 117.20 514.82 0.56733 1.7618 2.1987 2074.2 -0.0066919 535.43 0.23138
6.3750 39735. undefined 118.96 518.91 0.57365 685.00 0.0014599 118.96 518.91 0.57365 1.7657 2.2018 2075.4 -0.0066825 534.44 0.23170 685.00 0.0014599 118.96 518.91 0.57365 1.7657 2.2018 2075.4 -0.0066825 534.44 0.23170
7.3750 39965. undefined 120.73 522.99 0.57996 685.00 0.0014599 120.73 522.99 0.57996 1.7696 2.2050 2076.6 -0.0066731 533.45 0.23202 685.00 0.0014599 120.73 522.99 0.57996 1.7696 2.2050 2076.6 -0.0066731 533.45 0.23202
8.3750 40195. undefined 122.50 527.08 0.58627 685.00 0.0014599 122.50 527.08 0.58627 1.7735 2.2082 2077.7 -0.0066636 532.48 0.23234 685.00 0.0014599 122.50 527.08 0.58627 1.7735 2.2082 2077.7 -0.0066636 532.48 0.23234
9.3750 40425. undefined 124.28 531.17 0.59256 685.00 0.0014599 124.28 531.17 0.59256 1.7775 2.2113 2078.9 -0.0066541 531.52 0.23266 685.00 0.0014599 124.28 531.17 0.59256 1.7775 2.2113 2078.9 -0.0066541 531.52 0.23266
10.375 40654. undefined 126.06 535.26 0.59885 685.00 0.0014599 126.06 535.26 0.59885 1.7814 2.2145 2080.1 -0.0066446 530.56 0.23298 685.00 0.0014599 126.06 535.26 0.59885 1.7814 2.2145 2080.1 -0.0066446 530.56 0.23298
11.375 40883. undefined 127.84 539.34 0.60513 685.00 0.0014599 127.84 539.34 0.60513 1.7854 2.2177 2081.2 -0.0066351 529.62 0.23330 685.00 0.0014599 127.84 539.34 0.60513 1.7854 2.2177 2081.2 -0.0066351 529.62 0.23330
12.375 41112. undefined 129.63 543.43 0.61140 685.00 0.0014599 129.63 543.43 0.61140 1.7894 2.2210 2082.4 -0.0066256 528.68 0.23362 685.00 0.0014599 129.63 543.43 0.61140 1.7894 2.2210 2082.4 -0.0066256 528.68 0.23362
13.375 41340. undefined 131.42 547.52 0.61766 685.00 0.0014599 131.42 547.52 0.61766 1.7934 2.2242 2083.5 -0.0066160 527.76 0.23394 685.00 0.0014599 131.42 547.52 0.61766 1.7934 2.2242 2083.5 -0.0066160 527.76 0.23394
14.375 41568. undefined 133.21 551.61 0.62392 685.00 0.0014599 133.21 551.61 0.62392 1.7973 2.2274 2084.7 -0.0066065 526.85 0.23426 685.00 0.0014599 133.21 551.61 0.62392 1.7973 2.2274 2084.7 -0.0066065 526.85 0.23426
15.375 41795. undefined 135.01 555.69 0.63016 685.00 0.0014599 135.01 555.69 0.63016 1.8013 2.2307 2085.8 -0.0065969 525.94 0.23458 685.00 0.0014599 135.01 555.69 0.63016 1.8013 2.2307 2085.8 -0.0065969 525.94 0.23458
16.375 42022. undefined 136.82 559.78 0.63640 685.00 0.0014599 136.82 559.78 0.63640 1.8053 2.2340 2087.0 -0.0065873 525.05 0.23491 685.00 0.0014599 136.82 559.78 0.63640 1.8053 2.2340 2087.0 -0.0065873 525.05 0.23491
17.375 42248. undefined 138.62 563.87 0.64263 685.00 0.0014599 138.62 563.87 0.64263 1.8094 2.2372 2088.1 -0.0065777 524.16 0.23523 685.00 0.0014599 138.62 563.87 0.64263 1.8094 2.2372 2088.1 -0.0065777 524.16 0.23523
18.375 42475. undefined 140.44 567.96 0.64886 685.00 0.0014599 140.44 567.96 0.64886 1.8134 2.2405 2089.2 -0.0065681 523.28 0.23555 685.00 0.0014599 140.44 567.96 0.64886 1.8134 2.2405 2089.2 -0.0065681 523.28 0.23555
19.375 42701. undefined 142.25 572.05 0.65508 685.00 0.0014599 142.25 572.05 0.65508 1.8174 2.2438 2090.4 -0.0065585 522.41 0.23587 685.00 0.0014599 142.25 572.05 0.65508 1.8174 2.2438 2090.4 -0.0065585 522.41 0.23587
20.375 42926. undefined 144.07 576.14 0.66128 685.00 0.0014599 144.07 576.14 0.66128 1.8214 2.2472 2091.5 -0.0065489 521.56 0.23620 685.00 0.0014599 144.07 576.14 0.66128 1.8214 2.2472 2091.5 -0.0065489 521.56 0.23620
21.375 43151. undefined 145.89 580.22 0.66749 685.00 0.0014599 145.89 580.22 0.66749 1.8255 2.2505 2092.6 -0.0065393 520.71 0.23652 685.00 0.0014599 145.89 580.22 0.66749 1.8255 2.2505 2092.6 -0.0065393 520.71 0.23652
22.375 43376. undefined 147.72 584.31 0.67368 685.00 0.0014599 147.72 584.31 0.67368 1.8295 2.2538 2093.7 -0.0065296 519.86 0.23685 685.00 0.0014599 147.72 584.31 0.67368 1.8295 2.2538 2093.7 -0.0065296 519.86 0.23685
23.375 43600. undefined 149.55 588.40 0.67987 685.00 0.0014599 149.55 588.40 0.67987 1.8336 2.2572 2094.9 -0.0065200 519.03 0.23717 685.00 0.0014599 149.55 588.40 0.67987 1.8336 2.2572 2094.9 -0.0065200 519.03 0.23717
24.375 43824. undefined 151.39 592.50 0.68605 685.00 0.0014599 151.39 592.50 0.68605 1.8376 2.2605 2096.0 -0.0065103 518.21 0.23749 685.00 0.0014599 151.39 592.50 0.68605 1.8376 2.2605 2096.0 -0.0065103 518.21 0.23749
25.375 44048. undefined 153.23 596.59 0.69222 685.00 0.0014599 153.23 596.59 0.69222 1.8417 2.2639 2097.1 -0.0065007 517.39 0.23782 685.00 0.0014599 153.23 596.59 0.69222 1.8417 2.2639 2097.1 -0.0065007 517.39 0.23782
26.375 44271. undefined 155.07 600.68 0.69839 685.00 0.0014599 155.07 600.68 0.69839 1.8458 2.2673 2098.2 -0.0064910 516.58 0.23814 685.00 0.0014599 155.07 600.68 0.69839 1.8458 2.2673 2098.2 -0.0064910 516.58 0.23814
27.375 44494. undefined 156.92 604.77 0.70455 685.00 0.0014599 156.92 604.77 0.70455 1.8499 2.2707 2099.3 -0.0064814 515.78 0.23847 685.00 0.0014599 156.92 604.77 0.70455 1.8499 2.2707 2099.3 -0.0064814 515.78 0.23847
28.375 44717. undefined 158.77 608.86 0.71070 685.00 0.0014599 158.77 608.86 0.71070 1.8539 2.2741 2100.4 -0.0064717 514.99 0.23879 685.00 0.0014599 158.77 608.86 0.71070 1.8539 2.2741 2100.4 -0.0064717 514.99 0.23879
29.375 44939. undefined 160.63 612.95 0.71684 685.00 0.0014599 160.63 612.95 0.71684 1.8580 2.2775 2101.5 -0.0064620 514.21 0.23912 685.00 0.0014599 160.63 612.95 0.71684 1.8580 2.2775 2101.5 -0.0064620 514.21 0.23912
30.375 45161. undefined 162.49 617.05 0.72298 685.00 0.0014599 162.49 617.05 0.72298 1.8621 2.2809 2102.6 -0.0064524 513.43 0.23945 685.00 0.0014599 162.49 617.05 0.72298 1.8621 2.2809 2102.6 -0.0064524 513.43 0.23945
31.375 45382. undefined 164.35 621.14 0.72911 685.00 0.0014599 164.35 621.14 0.72911 1.8662 2.2844 2103.7 -0.0064427 512.66 0.23977 685.00 0.0014599 164.35 621.14 0.72911 1.8662 2.2844 2103.7 -0.0064427 512.66 0.23977
32.375 45604. undefined 166.22 625.24 0.73524 685.00 0.0014599 166.22 625.24 0.73524 1.8703 2.2878 2104.8 -0.0064330 511.90 0.24010 685.00 0.0014599 166.22 625.24 0.73524 1.8703 2.2878 2104.8 -0.0064330 511.90 0.24010
33.375 45825. undefined 168.09 629.33 0.74136 685.00 0.0014599 168.09 629.33 0.74136 1.8745 2.2913 2105.9 -0.0064234 511.15 0.24043 685.00 0.0014599 168.09 629.33 0.74136 1.8745 2.2913 2105.9 -0.0064234 511.15 0.24043
34.375 46045. undefined 169.97 633.43 0.74747 685.00 0.0014599 169.97 633.43 0.74747 1.8786 2.2947 2107.0 -0.0064137 510.41 0.24075 685.00 0.0014599 169.97 633.43 0.74747 1.8786 2.2947 2107.0 -0.0064137 510.41 0.24075
35.375 46265. undefined 171.85 637.52 0.75357 685.00 0.0014599 171.85 637.52 0.75357 1.8827 2.2982 2108.1 -0.0064040 509.67 0.24108 685.00 0.0014599 171.85 637.52 0.75357 1.8827 2.2982 2108.1 -0.0064040 509.67 0.24108
36.375 46485. undefined 173.73 641.62 0.75967 685.00 0.0014599 173.73 641.62 0.75967 1.8868 2.3017 2109.2 -0.0063944 508.94 0.24141 685.00 0.0014599 173.73 641.62 0.75967 1.8868 2.3017 2109.2 -0.0063944 508.94 0.24141
37.375 46704. undefined 175.62 645.72 0.76577 685.00 0.0014599 175.62 645.72 0.76577 1.8910 2.3052 2110.3 -0.0063847 508.21 0.24174 685.00 0.0014599 175.62 645.72 0.76577 1.8910 2.3052 2110.3 -0.0063847 508.21 0.24174
38.375 46924. undefined 177.52 649.82 0.77185 685.00 0.0014599 177.52 649.82 0.77185 1.8951 2.3087 2111.3 -0.0063751 507.50 0.24207 685.00 0.0014599 177.52 649.82 0.77185 1.8951 2.3087 2111.3 -0.0063751 507.50 0.24207
39.375 47142. undefined 179.41 653.92 0.77793 685.00 0.0014599 179.41 653.92 0.77793 1.8992 2.3122 2112.4 -0.0063654 506.79 0.24240 685.00 0.0014599 179.41 653.92 0.77793 1.8992 2.3122 2112.4 -0.0063654 506.79 0.24240
40.375 47361. undefined 181.31 658.02 0.78401 685.00 0.0014599 181.31 658.02 0.78401 1.9034 2.3157 2113.5 -0.0063558 506.08 0.24272 685.00 0.0014599 181.31 658.02 0.78401 1.9034 2.3157 2113.5 -0.0063558 506.08 0.24272
41.375 47579. undefined 183.22 662.12 0.79007 685.00 0.0014599 183.22 662.12 0.79007 1.9075 2.3192 2114.6 -0.0063461 505.39 0.24305 685.00 0.0014599 183.22 662.12 0.79007 1.9075 2.3192 2114.6 -0.0063461 505.39 0.24305
42.375 47797. undefined 185.13 666.22 0.79614 685.00 0.0014599 185.13 666.22 0.79614 1.9117 2.3228 2115.6 -0.0063365 504.70 0.24338 685.00 0.0014599 185.13 666.22 0.79614 1.9117 2.3228 2115.6 -0.0063365 504.70 0.24338
43.375 48014. undefined 187.04 670.32 0.80219 685.00 0.0014599 187.04 670.32 0.80219 1.9159 2.3263 2116.7 -0.0063269 504.01 0.24371 685.00 0.0014599 187.04 670.32 0.80219 1.9159 2.3263 2116.7 -0.0063269 504.01 0.24371
44.375 48232. undefined 188.96 674.43 0.80824 685.00 0.0014599 188.96 674.43 0.80824 1.9200 2.3298 2117.8 -0.0063172 503.34 0.24404 685.00 0.0014599 188.96 674.43 0.80824 1.9200 2.3298 2117.8 -0.0063172 503.34 0.24404
45.375 48448. undefined 190.88 678.53 0.81429 685.00 0.0014599 190.88 678.53 0.81429 1.9242 2.3334 2118.8 -0.0063076 502.67 0.24437 685.00 0.0014599 190.88 678.53 0.81429 1.9242 2.3334 2118.8 -0.0063076 502.67 0.24437
46.375 48665. undefined 192.81 682.64 0.82032 685.00 0.0014599 192.81 682.64 0.82032 1.9284 2.3370 2119.9 -0.0062980 502.00 0.24471 685.00 0.0014599 192.81 682.64 0.82032 1.9284 2.3370 2119.9 -0.0062980 502.00 0.24471
47.375 48881. undefined 194.74 686.74 0.82636 685.00 0.0014599 194.74 686.74 0.82636 1.9325 2.3405 2121.0 -0.0062884 501.35 0.24504 685.00 0.0014599 194.74 686.74 0.82636 1.9325 2.3405 2121.0 -0.0062884 501.35 0.24504
48.375 49097. undefined 196.68 690.85 0.83238 685.00 0.0014599 196.68 690.85 0.83238 1.9367 2.3441 2122.0 -0.0062788 500.70 0.24537 685.00 0.0014599 196.68 690.85 0.83238 1.9367 2.3441 2122.0 -0.0062788 500.70 0.24537
49.375 49312. undefined 198.61 694.96 0.83840 685.00 0.0014599 198.61 694.96 0.83840 1.9409 2.3477 2123.1 -0.0062692 500.05 0.24570 685.00 0.0014599 198.61 694.96 0.83840 1.9409 2.3477 2123.1 -0.0062692 500.05 0.24570
50.375 49528. undefined 200.56 699.07 0.84442 685.00 0.0014599 200.56 699.07 0.84442 1.9451 2.3513 2124.1 -0.0062597 499.41 0.24603 685.00 0.0014599 200.56 699.07 0.84442 1.9451 2.3513 2124.1 -0.0062597 499.41 0.24603
51.375 49743. undefined 202.50 703.18 0.85043 685.00 0.0014599 202.50 703.18 0.85043 1.9493 2.3549 2125.2 -0.0062501 498.78 0.24636 685.00 0.0014599 202.50 703.18 0.85043 1.9493 2.3549 2125.2 -0.0062501 498.78 0.24636
52.375 49957. undefined 204.46 707.29 0.85643 685.00 0.0014599 204.46 707.29 0.85643 1.9535 2.3585 2126.2 -0.0062405 498.15 0.24670 685.00 0.0014599 204.46 707.29 0.85643 1.9535 2.3585 2126.2 -0.0062405 498.15 0.24670
53.375 50171. undefined 206.41 711.40 0.86243 685.00 0.0014599 206.41 711.40 0.86243 1.9577 2.3621 2127.3 -0.0062310 497.53 0.24703 685.00 0.0014599 206.41 711.40 0.86243 1.9577 2.3621 2127.3 -0.0062310 497.53 0.24703
54.375 50385. undefined 208.37 715.52 0.86842 685.00 0.0014599 208.37 715.52 0.86842 1.9619 2.3657 2128.3 -0.0062215 496.92 0.24736 685.00 0.0014599 208.37 715.52 0.86842 1.9619 2.3657 2128.3 -0.0062215 496.92 0.24736
55.375 50599. undefined 210.33 719.63 0.87441 685.00 0.0014599 210.33 719.63 0.87441 1.9661 2.3693 2129.4 -0.0062119 496.31 0.24770 685.00 0.0014599 210.33 719.63 0.87441 1.9661 2.3693 2129.4 -0.0062119 496.31 0.24770
56.375 50812. undefined 212.30 723.75 0.88039 685.00 0.0014599 212.30 723.75 0.88039 1.9703 2.3729 2130.4 -0.0062024 495.70 0.24803 685.00 0.0014599 212.30 723.75 0.88039 1.9703 2.3729 2130.4 -0.0062024 495.70 0.24803
57.375 51025. undefined 214.28 727.86 0.88637 685.00 0.0014599 214.28 727.86 0.88637 1.9745 2.3766 2131.4 -0.0061929 495.10 0.24836 685.00 0.0014599 214.28 727.86 0.88637 1.9745 2.3766 2131.4 -0.0061929 495.10 0.24836
58.375 51238. undefined 216.25 731.98 0.89234 685.00 0.0014599 216.25 731.98 0.89234 1.9787 2.3802 2132.5 -0.0061834 494.51 0.24870 685.00 0.0014599 216.25 731.98 0.89234 1.9787 2.3802 2132.5 -0.0061834 494.51 0.24870
59.375 51451. undefined 218.23 736.10 0.89830 685.00 0.0014599 218.23 736.10 0.89830 1.9829 2.3838 2133.5 -0.0061740 493.92 0.24903 685.00 0.0014599 218.23 736.10 0.89830 1.9829 2.3838 2133.5 -0.0061740 493.92 0.24903
60.375 51663. undefined 220.22 740.22 0.90426 685.00 0.0014599 220.22 740.22 0.90426 1.9871 2.3875 2134.6 -0.0061645 493.34 0.24937 685.00 0.0014599 220.22 740.22 0.90426 1.9871 2.3875 2134.6 -0.0061645 493.34 0.24937
61.375 51875. undefined 222.21 744.34 0.91022 685.00 0.0014599 222.21 744.34 0.91022 1.9913 2.3911 2135.6 -0.0061551 492.76 0.24970 685.00 0.0014599 222.21 744.34 0.91022 1.9913 2.3911 2135.6 -0.0061551 492.76 0.24970
62.375 52086. undefined 224.20 748.47 0.91617 685.00 0.0014599 224.20 748.47 0.91617 1.9955 2.3948 2136.6 -0.0061456 492.19 0.25004 685.00 0.0014599 224.20 748.47 0.91617 1.9955 2.3948 2136.6 -0.0061456 492.19 0.25004
63.375 52297. undefined 226.20 752.59 0.92211 685.00 0.0014599 226.20 752.59 0.92211 1.9998 2.3985 2137.6 -0.0061362 491.63 0.25037 685.00 0.0014599 226.20 752.59 0.92211 1.9998 2.3985 2137.6 -0.0061362 491.63 0.25037
64.375 52508. undefined 228.20 756.71 0.92805 685.00 0.0014599 228.20 756.71 0.92805 2.0040 2.4021 2138.7 -0.0061268 491.06 0.25071 685.00 0.0014599 228.20 756.71 0.92805 2.0040 2.4021 2138.7 -0.0061268 491.06 0.25071
65.375 52719. undefined 230.21 760.84 0.93399 685.00 0.0014599 230.21 760.84 0.93399 2.0082 2.4058 2139.7 -0.0061174 490.51 0.25105 685.00 0.0014599 230.21 760.84 0.93399 2.0082 2.4058 2139.7 -0.0061174 490.51 0.25105
66.375 52929. undefined 232.22 764.97 0.93992 685.00 0.0014599 232.22 764.97 0.93992 2.0124 2.4095 2140.7 -0.0061081 489.96 0.25138 685.00 0.0014599 232.22 764.97 0.93992 2.0124 2.4095 2140.7 -0.0061081 489.96 0.25138
67.375 53139. undefined 234.23 769.10 0.94584 685.00 0.0014599 234.23 769.10 0.94584 2.0166 2.4132 2141.7 -0.0060987 489.41 0.25172 685.00 0.0014599 234.23 769.10 0.94584 2.0166 2.4132 2141.7 -0.0060987 489.41 0.25172
68.375 53349. undefined 236.25 773.23 0.95176 685.00 0.0014599 236.25 773.23 0.95176 2.0209 2.4169 2142.8 -0.0060894 488.87 0.25206 685.00 0.0014599 236.25 773.23 0.95176 2.0209 2.4169 2142.8 -0.0060894 488.87 0.25206
69.375 53559. undefined 238.27 777.36 0.95768 685.00 0.0014599 238.27 777.36 0.95768 2.0251 2.4205 2143.8 -0.0060800 488.33 0.25240 685.00 0.0014599 238.27 777.36 0.95768 2.0251 2.4205 2143.8 -0.0060800 488.33 0.25240
70.375 53768. undefined 240.30 781.49 0.96359 685.00 0.0014599 240.30 781.49 0.96359 2.0293 2.4242 2144.8 -0.0060707 487.80 0.25273 685.00 0.0014599 240.30 781.49 0.96359 2.0293 2.4242 2144.8 -0.0060707 487.80 0.25273
71.375 53977. undefined 242.33 785.62 0.96949 685.00 0.0014599 242.33 785.62 0.96949 2.0336 2.4279 2145.8 -0.0060615 487.28 0.25307 685.00 0.0014599 242.33 785.62 0.96949 2.0336 2.4279 2145.8 -0.0060615 487.28 0.25307
72.375 54185. undefined 244.37 789.76 0.97539 685.00 0.0014599 244.37 789.76 0.97539 2.0378 2.4316 2146.8 -0.0060522 486.75 0.25341 685.00 0.0014599 244.37 789.76 0.97539 2.0378 2.4316 2146.8 -0.0060522 486.75 0.25341
73.375 54394. undefined 246.41 793.90 0.98129 685.00 0.0014599 246.41 793.90 0.98129 2.0420 2.4354 2147.8 -0.0060429 486.24 0.25375 685.00 0.0014599 246.41 793.90 0.98129 2.0420 2.4354 2147.8 -0.0060429 486.24 0.25375
74.375 54602. undefined 248.45 798.03 0.98718 685.00 0.0014599 248.45 798.03 0.98718 2.0463 2.4391 2148.8 -0.0060337 485.72 0.25409 685.00 0.0014599 248.45 798.03 0.98718 2.0463 2.4391 2148.8 -0.0060337 485.72 0.25409
75.375 54809. undefined 250.50 802.17 0.99306 685.00 0.0014599 250.50 802.17 0.99306 2.0505 2.4428 2149.8 -0.0060245 485.21 0.25443 685.00 0.0014599 250.50 802.17 0.99306 2.0505 2.4428 2149.8 -0.0060245 485.21 0.25443
76.375 55017. undefined 252.55 806.31 0.99895 685.00 0.0014599 252.55 806.31 0.99895 2.0547 2.4465 2150.9 -0.0060153 484.71 0.25477 685.00 0.0014599 252.55 806.31 0.99895 2.0547 2.4465 2150.9 -0.0060153 484.71 0.25477
77.375 55224. undefined 254.61 810.46 1.0048 685.00 0.0014599 254.61 810.46 1.0048 2.0590 2.4502 2151.9 -0.0060061 484.21 0.25511 685.00 0.0014599 254.61 810.46 1.0048 2.0590 2.4502 2151.9 -0.0060061 484.21 0.25511
78.375 55431. undefined 256.67 814.60 1.0107 685.00 0.0014599 256.67 814.60 1.0107 2.0632 2.4539 2152.9 -0.0059969 483.71 0.25545 685.00 0.0014599 256.67 814.60 1.0107 2.0632 2.4539 2152.9 -0.0059969 483.71 0.25545
79.375 55638. undefined 258.74 818.75 1.0166 685.00 0.0014599 258.74 818.75 1.0166 2.0674 2.4577 2153.9 -0.0059878 483.22 0.25579 685.00 0.0014599 258.74 818.75 1.0166 2.0674 2.4577 2153.9 -0.0059878 483.22 0.25579
80.375 55844. undefined 260.80 822.89 1.0224 685.00 0.0014599 260.80 822.89 1.0224 2.0717 2.4614 2154.9 -0.0059787 482.74 0.25613 685.00 0.0014599 260.80 822.89 1.0224 2.0717 2.4614 2154.9 -0.0059787 482.74 0.25613
81.375 56050. undefined 262.88 827.04 1.0283 685.00 0.0014599 262.88 827.04 1.0283 2.0759 2.4651 2155.9 -0.0059696 482.25 0.25647 685.00 0.0014599 262.88 827.04 1.0283 2.0759 2.4651 2155.9 -0.0059696 482.25 0.25647
82.375 56256. undefined 264.96 831.19 1.0341 685.00 0.0014599 264.96 831.19 1.0341 2.0801 2.4689 2156.9 -0.0059605 481.78 0.25681 685.00 0.0014599 264.96 831.19 1.0341 2.0801 2.4689 2156.9 -0.0059605 481.78 0.25681
83.375 56461. undefined 267.04 835.34 1.0400 685.00 0.0014599 267.04 835.34 1.0400 2.0844 2.4726 2157.9 -0.0059514 481.30 0.25715 685.00 0.0014599 267.04 835.34 1.0400 2.0844 2.4726 2157.9 -0.0059514 481.30 0.25715
84.375 56667. undefined 269.13 839.49 1.0458 685.00 0.0014599 269.13 839.49 1.0458 2.0886 2.4763 2158.8 -0.0059424 480.83 0.25749 685.00 0.0014599 269.13 839.49 1.0458 2.0886 2.4763 2158.8 -0.0059424 480.83 0.25749
85.375 56872. undefined 271.22 843.65 1.0517 685.00 0.0014599 271.22 843.65 1.0517 2.0928 2.4801 2159.8 -0.0059334 480.37 0.25784 685.00 0.0014599 271.22 843.65 1.0517 2.0928 2.4801 2159.8 -0.0059334 480.37 0.25784
86.375 57076. undefined 273.31 847.80 1.0575 685.00 0.0014599 273.31 847.80 1.0575 2.0971 2.4838 2160.8 -0.0059244 479.90 0.25818 685.00 0.0014599 273.31 847.80 1.0575 2.0971 2.4838 2160.8 -0.0059244 479.90 0.25818
87.375 57281. undefined 275.41 851.96 1.0633 685.00 0.0014599 275.41 851.96 1.0633 2.1013 2.4876 2161.8 -0.0059154 479.44 0.25852 685.00 0.0014599 275.41 851.96 1.0633 2.1013 2.4876 2161.8 -0.0059154 479.44 0.25852
88.375 57485. undefined 277.51 856.12 1.0692 685.00 0.0014599 277.51 856.12 1.0692 2.1055 2.4913 2162.8 -0.0059064 478.99 0.25886 685.00 0.0014599 277.51 856.12 1.0692 2.1055 2.4913 2162.8 -0.0059064 478.99 0.25886
89.375 57689. undefined 279.62 860.28 1.0750 685.00 0.0014599 279.62 860.28 1.0750 2.1098 2.4951 2163.8 -0.0058975 478.54 0.25921 685.00 0.0014599 279.62 860.28 1.0750 2.1098 2.4951 2163.8 -0.0058975 478.54 0.25921
90.375 57893. undefined 281.73 864.44 1.0808 685.00 0.0014599 281.73 864.44 1.0808 2.1140 2.4988 2164.8 -0.0058886 478.09 0.25955 685.00 0.0014599 281.73 864.44 1.0808 2.1140 2.4988 2164.8 -0.0058886 478.09 0.25955
91.375 58096. undefined 283.85 868.60 1.0866 685.00 0.0014599 283.85 868.60 1.0866 2.1182 2.5026 2165.8 -0.0058797 477.65 0.25990 685.00 0.0014599 283.85 868.60 1.0866 2.1182 2.5026 2165.8 -0.0058797 477.65 0.25990
92.375 58299. undefined 285.97 872.77 1.0924 685.00 0.0014599 285.97 872.77 1.0924 2.1225 2.5063 2166.7 -0.0058708 477.21 0.26024 685.00 0.0014599 285.97 872.77 1.0924 2.1225 2.5063 2166.7 -0.0058708 477.21 0.26024
93.375 58502. undefined 288.09 876.94 1.0982 685.00 0.0014599 288.09 876.94 1.0982 2.1267 2.5101 2167.7 -0.0058620 476.78 0.26058 685.00 0.0014599 288.09 876.94 1.0982 2.1267 2.5101 2167.7 -0.0058620 476.78 0.26058
94.375 58705. undefined 290.22 881.10 1.1040 685.00 0.0014599 290.22 881.10 1.1040 2.1309 2.5138 2168.7 -0.0058531 476.34 0.26093 685.00 0.0014599 290.22 881.10 1.1040 2.1309 2.5138 2168.7 -0.0058531 476.34 0.26093
95.375 58907. undefined 292.36 885.27 1.1098 685.00 0.0014599 292.36 885.27 1.1098 2.1352 2.5176 2169.7 -0.0058443 475.92 0.26128 685.00 0.0014599 292.36 885.27 1.1098 2.1352 2.5176 2169.7 -0.0058443 475.92 0.26128
96.375 59109. undefined 294.49 889.45 1.1156 685.00 0.0014599 294.49 889.45 1.1156 2.1394 2.5213 2170.7 -0.0058355 475.49 0.26162 685.00 0.0014599 294.49 889.45 1.1156 2.1394 2.5213 2170.7 -0.0058355 475.49 0.26162
97.375 59311. undefined 296.63 893.62 1.1214 685.00 0.0014599 296.63 893.62 1.1214 2.1436 2.5251 2171.6 -0.0058268 475.07 0.26197 685.00 0.0014599 296.63 893.62 1.1214 2.1436 2.5251 2171.6 -0.0058268 475.07 0.26197
98.375 59512. undefined 298.78 897.79 1.1272 685.00 0.0014599 298.78 897.79 1.1272 2.1478 2.5289 2172.6 -0.0058180 474.65 0.26231 685.00 0.0014599 298.78 897.79 1.1272 2.1478 2.5289 2172.6 -0.0058180 474.65 0.26231
99.375 59714. undefined 300.93 901.97 1.1330 685.00 0.0014599 300.93 901.97 1.1330 2.1521 2.5326 2173.6 -0.0058093 474.24 0.26266 685.00 0.0014599 300.93 901.97 1.1330 2.1521 2.5326 2173.6 -0.0058093 474.24 0.26266
100.38 59915. undefined 303.08 906.15 1.1387 685.00 0.0014599 303.08 906.15 1.1387 2.1563 2.5364 2174.6 -0.0058006 473.83 0.26301 685.00 0.0014599 303.08 906.15 1.1387 2.1563 2.5364 2174.6 -0.0058006 473.83 0.26301
101.38 60116. undefined 305.24 910.33 1.1445 685.00 0.0014599 305.24 910.33 1.1445 2.1605 2.5402 2175.5 -0.0057920 473.42 0.26335 685.00 0.0014599 305.24 910.33 1.1445 2.1605 2.5402 2175.5 -0.0057920 473.42 0.26335
102.38 60316. undefined 307.41 914.51 1.1503 685.00 0.0014599 307.41 914.51 1.1503 2.1647 2.5439 2176.5 -0.0057833 473.02 0.26370 685.00 0.0014599 307.41 914.51 1.1503 2.1647 2.5439 2176.5 -0.0057833 473.02 0.26370
103.38 60517. undefined 309.57 918.69 1.1560 685.00 0.0014599 309.57 918.69 1.1560 2.1689 2.5477 2177.5 -0.0057747 472.62 0.26405 685.00 0.0014599 309.57 918.69 1.1560 2.1689 2.5477 2177.5 -0.0057747 472.62 0.26405
104.38 60717. undefined 311.74 922.88 1.1618 685.00 0.0014599 311.74 922.88 1.1618 2.1732 2.5515 2178.4 -0.0057661 472.22 0.26439 685.00 0.0014599 311.74 922.88 1.1618 2.1732 2.5515 2178.4 -0.0057661 472.22 0.26439
105.38 60916. undefined 313.92 927.06 1.1675 685.00 0.0014599 313.92 927.06 1.1675 2.1774 2.5552 2179.4 -0.0057575 471.83 0.26474 685.00 0.0014599 313.92 927.06 1.1675 2.1774 2.5552 2179.4 -0.0057575 471.83 0.26474
106.38 61116. undefined 316.10 931.25 1.1733 685.00 0.0014599 316.10 931.25 1.1733 2.1816 2.5590 2180.4 -0.0057489 471.44 0.26509 685.00 0.0014599 316.10 931.25 1.1733 2.1816 2.5590 2180.4 -0.0057489 471.44 0.26509
107.38 61315. undefined 318.28 935.44 1.1790 685.00 0.0014599 318.28 935.44 1.1790 2.1858 2.5628 2181.3 -0.0057404 471.05 0.26544 685.00 0.0014599 318.28 935.44 1.1790 2.1858 2.5628 2181.3 -0.0057404 471.05 0.26544
108.38 61514. undefined 320.47 939.63 1.1848 685.00 0.0014599 320.47 939.63 1.1848 2.1900 2.5665 2182.3 -0.0057319 470.66 0.26579 685.00 0.0014599 320.47 939.63 1.1848 2.1900 2.5665 2182.3 -0.0057319 470.66 0.26579
109.38 61713. undefined 322.66 943.83 1.1905 685.00 0.0014599 322.66 943.83 1.1905 2.1942 2.5703 2183.2 -0.0057234 470.28 0.26614 685.00 0.0014599 322.66 943.83 1.1905 2.1942 2.5703 2183.2 -0.0057234 470.28 0.26614
110.38 61912. undefined 324.86 948.02 1.1963 685.00 0.0014599 324.86 948.02 1.1963 2.1984 2.5741 2184.2 -0.0057150 469.90 0.26649 685.00 0.0014599 324.86 948.02 1.1963 2.1984 2.5741 2184.2 -0.0057150 469.90 0.26649
111.38 62110. undefined 327.06 952.22 1.2020 685.00 0.0014599 327.06 952.22 1.2020 2.2026 2.5778 2185.1 -0.0057065 469.53 0.26684 685.00 0.0014599 327.06 952.22 1.2020 2.2026 2.5778 2185.1 -0.0057065 469.53 0.26684
112.38 62308. undefined 329.26 956.42 1.2077 685.00 0.0014599 329.26 956.42 1.2077 2.2068 2.5816 2186.1 -0.0056981 469.16 0.26719 685.00 0.0014599 329.26 956.42 1.2077 2.2068 2.5816 2186.1 -0.0056981 469.16 0.26719
113.38 62506. undefined 331.47 960.62 1.2134 685.00 0.0014599 331.47 960.62 1.2134 2.2110 2.5854 2187.1 -0.0056897 468.79 0.26754 685.00 0.0014599 331.47 960.62 1.2134 2.2110 2.5854 2187.1 -0.0056897 468.79 0.26754
114.38 62704. undefined 333.69 964.82 1.2192 685.00 0.0014599 333.69 964.82 1.2192 2.2152 2.5891 2188.0 -0.0056814 468.42 0.26789 685.00 0.0014599 333.69 964.82 1.2192 2.2152 2.5891 2188.0 -0.0056814 468.42 0.26789
115.38 62901. undefined 335.90 969.02 1.2249 685.00 0.0014599 335.90 969.02 1.2249 2.2194 2.5929 2189.0 -0.0056730 468.06 0.26824 685.00 0.0014599 335.90 969.02 1.2249 2.2194 2.5929 2189.0 -0.0056730 468.06 0.26824
116.38 63098. undefined 338.12 973.23 1.2306 685.00 0.0014599 338.12 973.23 1.2306 2.2236 2.5967 2189.9 -0.0056647 467.70 0.26859 685.00 0.0014599 338.12 973.23 1.2306 2.2236 2.5967 2189.9 -0.0056647 467.70 0.26859
117.38 63295. undefined 340.35 977.44 1.2363 685.00 0.0014599 340.35 977.44 1.2363 2.2278 2.6004 2190.9 -0.0056564 467.34 0.26894 685.00 0.0014599 340.35 977.44 1.2363 2.2278 2.6004 2190.9 -0.0056564 467.34 0.26894
118.38 63492. undefined 342.58 981.65 1.2420 685.00 0.0014599 342.58 981.65 1.2420 2.2320 2.6042 2191.8 -0.0056482 466.99 0.26929 685.00 0.0014599 342.58 981.65 1.2420 2.2320 2.6042 2191.8 -0.0056482 466.99 0.26929
119.38 63688. undefined 344.81 985.86 1.2477 685.00 0.0014599 344.81 985.86 1.2477 2.2362 2.6080 2192.8 -0.0056399 466.63 0.26965 685.00 0.0014599 344.81 985.86 1.2477 2.2362 2.6080 2192.8 -0.0056399 466.63 0.26965
120.38 63885. undefined 347.05 990.07 1.2534 685.00 0.0014599 347.05 990.07 1.2534 2.2404 2.6117 2193.7 -0.0056317 466.28 0.27000 685.00 0.0014599 347.05 990.07 1.2534 2.2404 2.6117 2193.7 -0.0056317 466.28 0.27000
121.38 64081. undefined 349.29 994.29 1.2591 685.00 0.0014599 349.29 994.29 1.2591 2.2445 2.6155 2194.7 -0.0056235 465.94 0.27035 685.00 0.0014599 349.29 994.29 1.2591 2.2445 2.6155 2194.7 -0.0056235 465.94 0.27035
122.38 64276. undefined 351.54 998.50 1.2648 685.00 0.0014599 351.54 998.50 1.2648 2.2487 2.6193 2195.6 -0.0056153 465.59 0.27070 685.00 0.0014599 351.54 998.50 1.2648 2.2487 2.6193 2195.6 -0.0056153 465.59 0.27070
123.38 64472. undefined 353.79 1002.7 1.2704 685.00 0.0014599 353.79 1002.7 1.2704 2.2529 2.6230 2196.5 -0.0056072 465.25 0.27106 685.00 0.0014599 353.79 1002.7 1.2704 2.2529 2.6230 2196.5 -0.0056072 465.25 0.27106
124.38 64667. undefined 356.05 1006.9 1.2761 685.00 0.0014599 356.05 1006.9 1.2761 2.2571 2.6268 2197.5 -0.0055991 464.92 0.27141 685.00 0.0014599 356.05 1006.9 1.2761 2.2571 2.6268 2197.5 -0.0055991 464.92 0.27141
125.38 64862. undefined 358.31 1011.2 1.2818 685.00 0.0014599 358.31 1011.2 1.2818 2.2612 2.6306 2198.4 -0.0055910 464.58 0.27177 685.00 0.0014599 358.31 1011.2 1.2818 2.2612 2.6306 2198.4 -0.0055910 464.58 0.27177
126.38 65057. undefined 360.57 1015.4 1.2875 685.00 0.0014599 360.57 1015.4 1.2875 2.2654 2.6343 2199.4 -0.0055829 464.25 0.27212 685.00 0.0014599 360.57 1015.4 1.2875 2.2654 2.6343 2199.4 -0.0055829 464.25 0.27212
127.38 65252. undefined 362.84 1019.6 1.2931 685.00 0.0014599 362.84 1019.6 1.2931 2.2695 2.6381 2200.3 -0.0055749 463.92 0.27247 685.00 0.0014599 362.84 1019.6 1.2931 2.2695 2.6381 2200.3 -0.0055749 463.92 0.27247
128.38 65446. undefined 365.11 1023.8 1.2988 685.00 0.0014599 365.11 1023.8 1.2988 2.2737 2.6418 2201.2 -0.0055669 463.59 0.27283 685.00 0.0014599 365.11 1023.8 1.2988 2.2737 2.6418 2201.2 -0.0055669 463.59 0.27283
129.38 65640. undefined 367.38 1028.1 1.3045 685.00 0.0014599 367.38 1028.1 1.3045 2.2779 2.6456 2202.2 -0.0055589 463.26 0.27318 685.00 0.0014599 367.38 1028.1 1.3045 2.2779 2.6456 2202.2 -0.0055589 463.26 0.27318
130.38 65834. undefined 369.66 1032.3 1.3101 685.00 0.0014599 369.66 1032.3 1.3101 2.2820 2.6493 2203.1 -0.0055509 462.94 0.27354 685.00 0.0014599 369.66 1032.3 1.3101 2.2820 2.6493 2203.1 -0.0055509 462.94 0.27354
131.38 66028. undefined 371.95 1036.5 1.3158 685.00 0.0014599 371.95 1036.5 1.3158 2.2862 2.6531 2204.0 -0.0055429 462.62 0.27390 685.00 0.0014599 371.95 1036.5 1.3158 2.2862 2.6531 2204.0 -0.0055429 462.62 0.27390
132.38 66221. undefined 374.24 1040.8 1.3214 685.00 0.0014599 374.24 1040.8 1.3214 2.2903 2.6568 2205.0 -0.0055350 462.30 0.27425 685.00 0.0014599 374.24 1040.8 1.3214 2.2903 2.6568 2205.0 -0.0055350 462.30 0.27425
133.38 66415. undefined 376.53 1045.0 1.3271 685.00 0.0014599 376.53 1045.0 1.3271 2.2945 2.6606 2205.9 -0.0055271 461.99 0.27461 685.00 0.0014599 376.53 1045.0 1.3271 2.2945 2.6606 2205.9 -0.0055271 461.99 0.27461
134.38 66608. undefined 378.83 1049.3 1.3327 685.00 0.0014599 378.83 1049.3 1.3327 2.2986 2.6643 2206.8 -0.0055193 461.68 0.27496 685.00 0.0014599 378.83 1049.3 1.3327 2.2986 2.6643 2206.8 -0.0055193 461.68 0.27496
135.38 66800. undefined 381.13 1053.5 1.3384 685.00 0.0014599 381.13 1053.5 1.3384 2.3027 2.6681 2207.8 -0.0055114 461.37 0.27532 685.00 0.0014599 381.13 1053.5 1.3384 2.3027 2.6681 2207.8 -0.0055114 461.37 0.27532
136.38 66993. undefined 383.43 1057.7 1.3440 685.00 0.0014599 383.43 1057.7 1.3440 2.3069 2.6718 2208.7 -0.0055036 461.06 0.27568 685.00 0.0014599 383.43 1057.7 1.3440 2.3069 2.6718 2208.7 -0.0055036 461.06 0.27568
137.38 67185. undefined 385.74 1062.0 1.3496 685.00 0.0014599 385.74 1062.0 1.3496 2.3110 2.6756 2209.6 -0.0054958 460.75 0.27604 685.00 0.0014599 385.74 1062.0 1.3496 2.3110 2.6756 2209.6 -0.0054958 460.75 0.27604
138.38 67378. undefined 388.05 1066.2 1.3552 685.00 0.0014599 388.05 1066.2 1.3552 2.3151 2.6793 2210.5 -0.0054880 460.45 0.27639 685.00 0.0014599 388.05 1066.2 1.3552 2.3151 2.6793 2210.5 -0.0054880 460.45 0.27639
139.38 67570. undefined 390.37 1070.5 1.3609 685.00 0.0014599 390.37 1070.5 1.3609 2.3193 2.6831 2211.5 -0.0054803 460.15 0.27675 685.00 0.0014599 390.37 1070.5 1.3609 2.3193 2.6831 2211.5 -0.0054803 460.15 0.27675
140.38 67761. undefined 392.69 1074.7 1.3665 685.00 0.0014599 392.69 1074.7 1.3665 2.3234 2.6868 2212.4 -0.0054726 459.85 0.27711 685.00 0.0014599 392.69 1074.7 1.3665 2.3234 2.6868 2212.4 -0.0054726 459.85 0.27711
141.38 67953. undefined 395.02 1079.0 1.3721 685.00 0.0014599 395.02 1079.0 1.3721 2.3275 2.6905 2213.3 -0.0054649 459.55 0.27747 685.00 0.0014599 395.02 1079.0 1.3721 2.3275 2.6905 2213.3 -0.0054649 459.55 0.27747
142.38 68144. undefined 397.35 1083.2 1.3777 685.00 0.0014599 397.35 1083.2 1.3777 2.3316 2.6943 2214.2 -0.0054572 459.26 0.27783 685.00 0.0014599 397.35 1083.2 1.3777 2.3316 2.6943 2214.2 -0.0054572 459.26 0.27783
143.38 68335. undefined 399.68 1087.5 1.3833 685.00 0.0014599 399.68 1087.5 1.3833 2.3357 2.6980 2215.2 -0.0054495 458.97 0.27819 685.00 0.0014599 399.68 1087.5 1.3833 2.3357 2.6980 2215.2 -0.0054495 458.97 0.27819
144.38 68526. undefined 402.02 1091.8 1.3889 685.00 0.0014599 402.02 1091.8 1.3889 2.3398 2.7017 2216.1 -0.0054419 458.68 0.27855 685.00 0.0014599 402.02 1091.8 1.3889 2.3398 2.7017 2216.1 -0.0054419 458.68 0.27855
145.38 68717. undefined 404.36 1096.0 1.3945 685.00 0.0014599 404.36 1096.0 1.3945 2.3439 2.7055 2217.0 -0.0054343 458.39 0.27891 685.00 0.0014599 404.36 1096.0 1.3945 2.3439 2.7055 2217.0 -0.0054343 458.39 0.27891
146.38 68907. undefined 406.71 1100.3 1.4001 685.00 0.0014599 406.71 1100.3 1.4001 2.3480 2.7092 2217.9 -0.0054267 458.10 0.27927 685.00 0.0014599 406.71 1100.3 1.4001 2.3480 2.7092 2217.9 -0.0054267 458.10 0.27927
147.38 69097. undefined 409.06 1104.5 1.4057 685.00 0.0014599 409.06 1104.5 1.4057 2.3521 2.7129 2218.8 -0.0054192 457.82 0.27963 685.00 0.0014599 409.06 1104.5 1.4057 2.3521 2.7129 2218.8 -0.0054192 457.82 0.27963
148.38 69287. undefined 411.41 1108.8 1.4113 685.00 0.0014599 411.41 1108.8 1.4113 2.3562 2.7166 2219.7 -0.0054117 457.54 0.27999 685.00 0.0014599 411.41 1108.8 1.4113 2.3562 2.7166 2219.7 -0.0054117 457.54 0.27999
149.38 69477. undefined 413.77 1113.1 1.4169 685.00 0.0014599 413.77 1113.1 1.4169 2.3603 2.7203 2220.7 -0.0054042 457.26 0.28035 685.00 0.0014599 413.77 1113.1 1.4169 2.3603 2.7203 2220.7 -0.0054042 457.26 0.28035
150.38 69667. undefined 416.13 1117.3 1.4225 685.00 0.0014599 416.13 1117.3 1.4225 2.3644 2.7241 2221.6 -0.0053967 456.98 0.28071 685.00 0.0014599 416.13 1117.3 1.4225 2.3644 2.7241 2221.6 -0.0053967 456.98 0.28071
151.38 69856. undefined 418.50 1121.6 1.4281 685.00 0.0014599 418.50 1121.6 1.4281 2.3684 2.7278 2222.5 -0.0053893 456.71 0.28107 685.00 0.0014599 418.50 1121.6 1.4281 2.3684 2.7278 2222.5 -0.0053893 456.71 0.28107
152.38 70045. undefined 420.87 1125.9 1.4337 685.00 0.0014599 420.87 1125.9 1.4337 2.3725 2.7315 2223.4 -0.0053818 456.44 0.28143 685.00 0.0014599 420.87 1125.9 1.4337 2.3725 2.7315 2223.4 -0.0053818 456.44 0.28143
153.38 70234. undefined 423.24 1130.2 1.4392 685.00 0.0014599 423.24 1130.2 1.4392 2.3766 2.7352 2224.3 -0.0053744 456.16 0.28179 685.00 0.0014599 423.24 1130.2 1.4392 2.3766 2.7352 2224.3 -0.0053744 456.16 0.28179
154.38 70423. undefined 425.62 1134.5 1.4448 685.00 0.0014599 425.62 1134.5 1.4448 2.3807 2.7389 2225.2 -0.0053671 455.90 0.28216 685.00 0.0014599 425.62 1134.5 1.4448 2.3807 2.7389 2225.2 -0.0053671 455.90 0.28216
155.38 70612. undefined 428.00 1138.7 1.4504 685.00 0.0014599 428.00 1138.7 1.4504 2.3847 2.7426 2226.1 -0.0053597 455.63 0.28252 685.00 0.0014599 428.00 1138.7 1.4504 2.3847 2.7426 2226.1 -0.0053597 455.63 0.28252
156.38 70800. undefined 430.39 1143.0 1.4559 685.00 0.0014599 430.39 1143.0 1.4559 2.3888 2.7463 2227.0 -0.0053524 455.36 0.28288 685.00 0.0014599 430.39 1143.0 1.4559 2.3888 2.7463 2227.0 -0.0053524 455.36 0.28288
157.38 70988. undefined 432.78 1147.3 1.4615 685.00 0.0014599 432.78 1147.3 1.4615 2.3928 2.7500 2227.9 -0.0053451 455.10 0.28325 685.00 0.0014599 432.78 1147.3 1.4615 2.3928 2.7500 2227.9 -0.0053451 455.10 0.28325
158.38 71176. undefined 435.18 1151.6 1.4670 685.00 0.0014599 435.18 1151.6 1.4670 2.3969 2.7537 2228.8 -0.0053378 454.84 0.28361 685.00 0.0014599 435.18 1151.6 1.4670 2.3969 2.7537 2228.8 -0.0053378 454.84 0.28361
159.38 71364. undefined 437.57 1155.9 1.4726 685.00 0.0014599 437.57 1155.9 1.4726 2.4009 2.7574 2229.7 -0.0053306 454.58 0.28397 685.00 0.0014599 437.57 1155.9 1.4726 2.4009 2.7574 2229.7 -0.0053306 454.58 0.28397
160.38 71551. undefined 439.98 1160.2 1.4781 685.00 0.0014599 439.98 1160.2 1.4781 2.4050 2.7611 2230.6 -0.0053233 454.32 0.28434 685.00 0.0014599 439.98 1160.2 1.4781 2.4050 2.7611 2230.6 -0.0053233 454.32 0.28434
161.38 71739. undefined 442.38 1164.5 1.4837 685.00 0.0014599 442.38 1164.5 1.4837 2.4090 2.7648 2231.6 -0.0053161 454.07 0.28470 685.00 0.0014599 442.38 1164.5 1.4837 2.4090 2.7648 2231.6 -0.0053161 454.07 0.28470
162.38 71926. undefined 444.80 1168.8 1.4892 685.00 0.0014599 444.80 1168.8 1.4892 2.4130 2.7685 2232.5 -0.0053089 453.81 0.28507 685.00 0.0014599 444.80 1168.8 1.4892 2.4130 2.7685 2232.5 -0.0053089 453.81 0.28507
163.38 72113. undefined 447.21 1173.1 1.4948 685.00 0.0014599 447.21 1173.1 1.4948 2.4171 2.7721 2233.4 -0.0053018 453.56 0.28543 685.00 0.0014599 447.21 1173.1 1.4948 2.4171 2.7721 2233.4 -0.0053018 453.56 0.28543
164.38 72300. undefined 449.63 1177.4 1.5003 685.00 0.0014599 449.63 1177.4 1.5003 2.4211 2.7758 2234.3 -0.0052947 453.31 0.28580 685.00 0.0014599 449.63 1177.4 1.5003 2.4211 2.7758 2234.3 -0.0052947 453.31 0.28580
165.38 72486. undefined 452.05 1181.7 1.5058 685.00 0.0014599 452.05 1181.7 1.5058 2.4251 2.7795 2235.2 -0.0052875 453.07 0.28616 685.00 0.0014599 452.05 1181.7 1.5058 2.4251 2.7795 2235.2 -0.0052875 453.07 0.28616
166.38 72673. undefined 454.48 1186.0 1.5114 685.00 0.0014599 454.48 1186.0 1.5114 2.4291 2.7832 2236.0 -0.0052805 452.82 0.28653 685.00 0.0014599 454.48 1186.0 1.5114 2.4291 2.7832 2236.0 -0.0052805 452.82 0.28653
167.38 72859. undefined 456.91 1190.3 1.5169 685.00 0.0014599 456.91 1190.3 1.5169 2.4331 2.7868 2236.9 -0.0052734 452.57 0.28689 685.00 0.0014599 456.91 1190.3 1.5169 2.4331 2.7868 2236.9 -0.0052734 452.57 0.28689
168.38 73045. undefined 459.35 1194.6 1.5224 685.00 0.0014599 459.35 1194.6 1.5224 2.4372 2.7905 2237.8 -0.0052664 452.33 0.28726 685.00 0.0014599 459.35 1194.6 1.5224 2.4372 2.7905 2237.8 -0.0052664 452.33 0.28726
169.38 73231. undefined 461.79 1198.9 1.5279 685.00 0.0014599 461.79 1198.9 1.5279 2.4412 2.7942 2238.7 -0.0052594 452.09 0.28763 685.00 0.0014599 461.79 1198.9 1.5279 2.4412 2.7942 2238.7 -0.0052594 452.09 0.28763
170.38 73416. undefined 464.23 1203.2 1.5334 685.00 0.0014599 464.23 1203.2 1.5334 2.4452 2.7978 2239.6 -0.0052524 451.85 0.28799 685.00 0.0014599 464.23 1203.2 1.5334 2.4452 2.7978 2239.6 -0.0052524 451.85 0.28799
171.38 73602. undefined 466.68 1207.5 1.5390 685.00 0.0014599 466.68 1207.5 1.5390 2.4491 2.8015 2240.5 -0.0052454 451.61 0.28836 685.00 0.0014599 466.68 1207.5 1.5390 2.4491 2.8015 2240.5 -0.0052454 451.61 0.28836
172.38 73787. undefined 469.13 1211.8 1.5445 685.00 0.0014599 469.13 1211.8 1.5445 2.4531 2.8051 2241.4 -0.0052385 451.38 0.28873 685.00 0.0014599 469.13 1211.8 1.5445 2.4531 2.8051 2241.4 -0.0052385 451.38 0.28873
173.38 73972. undefined 471.58 1216.1 1.5500 685.00 0.0014599 471.58 1216.1 1.5500 2.4571 2.8088 2242.3 -0.0052315 451.14 0.28910 685.00 0.0014599 471.58 1216.1 1.5500 2.4571 2.8088 2242.3 -0.0052315 451.14 0.28910
174.38 74157. undefined 474.04 1220.5 1.5555 685.00 0.0014599 474.04 1220.5 1.5555 2.4611 2.8124 2243.2 -0.0052247 450.91 0.28947 685.00 0.0014599 474.04 1220.5 1.5555 2.4611 2.8124 2243.2 -0.0052247 450.91 0.28947
175.38 74341. undefined 476.50 1224.8 1.5610 685.00 0.0014599 476.50 1224.8 1.5610 2.4651 2.8161 2244.1 -0.0052178 450.68 0.28983 685.00 0.0014599 476.50 1224.8 1.5610 2.4651 2.8161 2244.1 -0.0052178 450.68 0.28983
176.38 74526. undefined 478.97 1229.1 1.5665 685.00 0.0014599 478.97 1229.1 1.5665 2.4690 2.8197 2245.0 -0.0052109 450.45 0.29020 685.00 0.0014599 478.97 1229.1 1.5665 2.4690 2.8197 2245.0 -0.0052109 450.45 0.29020
177.38 74710. undefined 481.44 1233.4 1.5720 685.00 0.0014599 481.44 1233.4 1.5720 2.4730 2.8234 2245.9 -0.0052041 450.23 0.29057 685.00 0.0014599 481.44 1233.4 1.5720 2.4730 2.8234 2245.9 -0.0052041 450.23 0.29057
178.38 74894. undefined 483.92 1237.8 1.5774 685.00 0.0014599 483.92 1237.8 1.5774 2.4770 2.8270 2246.7 -0.0051973 450.00 0.29094 685.00 0.0014599 483.92 1237.8 1.5774 2.4770 2.8270 2246.7 -0.0051973 450.00 0.29094
179.38 75078. undefined 486.40 1242.1 1.5829 685.00 0.0014599 486.40 1242.1 1.5829 2.4809 2.8306 2247.6 -0.0051905 449.78 0.29131 685.00 0.0014599 486.40 1242.1 1.5829 2.4809 2.8306 2247.6 -0.0051905 449.78 0.29131
180.38 75261. undefined 488.88 1246.4 1.5884 685.00 0.0014599 488.88 1246.4 1.5884 2.4849 2.8343 2248.5 -0.0051838 449.55 0.29168 685.00 0.0014599 488.88 1246.4 1.5884 2.4849 2.8343 2248.5 -0.0051838 449.55 0.29168
181.38 75445. undefined 491.37 1250.7 1.5939 685.00 0.0014599 491.37 1250.7 1.5939 2.4888 2.8379 2249.4 -0.0051771 449.33 0.29205 685.00 0.0014599 491.37 1250.7 1.5939 2.4888 2.8379 2249.4 -0.0051771 449.33 0.29205
182.38 75628. undefined 493.86 1255.1 1.5994 685.00 0.0014599 493.86 1255.1 1.5994 2.4928 2.8415 2250.3 -0.0051704 449.11 0.29242 685.00 0.0014599 493.86 1255.1 1.5994 2.4928 2.8415 2250.3 -0.0051704 449.11 0.29242
183.38 75811. undefined 496.35 1259.4 1.6048 685.00 0.0014599 496.35 1259.4 1.6048 2.4967 2.8451 2251.2 -0.0051637 448.89 0.29279 685.00 0.0014599 496.35 1259.4 1.6048 2.4967 2.8451 2251.2 -0.0051637 448.89 0.29279
184.38 75994. undefined 498.85 1263.8 1.6103 685.00 0.0014599 498.85 1263.8 1.6103 2.5006 2.8487 2252.0 -0.0051570 448.68 0.29316 685.00 0.0014599 498.85 1263.8 1.6103 2.5006 2.8487 2252.0 -0.0051570 448.68 0.29316
185.38 76177. undefined 501.35 1268.1 1.6158 685.00 0.0014599 501.35 1268.1 1.6158 2.5046 2.8523 2252.9 -0.0051504 448.46 0.29354 685.00 0.0014599 501.35 1268.1 1.6158 2.5046 2.8523 2252.9 -0.0051504 448.46 0.29354
186.38 76360. undefined 503.86 1272.4 1.6212 685.00 0.0014599 503.86 1272.4 1.6212 2.5085 2.8559 2253.8 -0.0051438 448.25 0.29391 685.00 0.0014599 503.86 1272.4 1.6212 2.5085 2.8559 2253.8 -0.0051438 448.25 0.29391
187.38 76542. undefined 506.37 1276.8 1.6267 685.00 0.0014599 506.37 1276.8 1.6267 2.5124 2.8595 2254.7 -0.0051372 448.04 0.29428 685.00 0.0014599 506.37 1276.8 1.6267 2.5124 2.8595 2254.7 -0.0051372 448.04 0.29428
188.38 76724. undefined 508.88 1281.1 1.6321 685.00 0.0014599 508.88 1281.1 1.6321 2.5163 2.8631 2255.6 -0.0051306 447.83 0.29465 685.00 0.0014599 508.88 1281.1 1.6321 2.5163 2.8631 2255.6 -0.0051306 447.83 0.29465
189.38 76906. undefined 511.40 1285.5 1.6376 685.00 0.0014599 511.40 1285.5 1.6376 2.5202 2.8667 2256.4 -0.0051241 447.62 0.29502 685.00 0.0014599 511.40 1285.5 1.6376 2.5202 2.8667 2256.4 -0.0051241 447.62 0.29502
190.38 77088. undefined 513.92 1289.8 1.6430 685.00 0.0014599 513.92 1289.8 1.6430 2.5241 2.8703 2257.3 -0.0051175 447.41 0.29540 685.00 0.0014599 513.92 1289.8 1.6430 2.5241 2.8703 2257.3 -0.0051175 447.41 0.29540
191.38 77270. undefined 516.45 1294.2 1.6485 685.00 0.0014599 516.45 1294.2 1.6485 2.5280 2.8739 2258.2 -0.0051110 447.20 0.29577 685.00 0.0014599 516.45 1294.2 1.6485 2.5280 2.8739 2258.2 -0.0051110 447.20 0.29577
192.38 77451. undefined 518.98 1298.6 1.6539 685.00 0.0014599 518.98 1298.6 1.6539 2.5319 2.8775 2259.1 -0.0051046 447.00 0.29614 685.00 0.0014599 518.98 1298.6 1.6539 2.5319 2.8775 2259.1 -0.0051046 447.00 0.29614
193.38 77633. undefined 521.51 1302.9 1.6594 685.00 0.0014599 521.51 1302.9 1.6594 2.5358 2.8811 2259.9 -0.0050981 446.80 0.29652 685.00 0.0014599 521.51 1302.9 1.6594 2.5358 2.8811 2259.9 -0.0050981 446.80 0.29652
194.38 77814. undefined 524.05 1307.3 1.6648 685.00 0.0014599 524.05 1307.3 1.6648 2.5397 2.8847 2260.8 -0.0050917 446.59 0.29689 685.00 0.0014599 524.05 1307.3 1.6648 2.5397 2.8847 2260.8 -0.0050917 446.59 0.29689
195.38 77995. undefined 526.59 1311.6 1.6702 685.00 0.0014599 526.59 1311.6 1.6702 2.5436 2.8882 2261.7 -0.0050853 446.39 0.29727 685.00 0.0014599 526.59 1311.6 1.6702 2.5436 2.8882 2261.7 -0.0050853 446.39 0.29727
196.38 78175. undefined 529.14 1316.0 1.6756 685.00 0.0014599 529.14 1316.0 1.6756 2.5475 2.8918 2262.5 -0.0050789 446.19 0.29764 685.00 0.0014599 529.14 1316.0 1.6756 2.5475 2.8918 2262.5 -0.0050789 446.19 0.29764
197.38 78356. undefined 531.69 1320.4 1.6811 685.00 0.0014599 531.69 1320.4 1.6811 2.5513 2.8954 2263.4 -0.0050725 446.00 0.29802 685.00 0.0014599 531.69 1320.4 1.6811 2.5513 2.8954 2263.4 -0.0050725 446.00 0.29802
198.38 78536. undefined 534.24 1324.7 1.6865 685.00 0.0014599 534.24 1324.7 1.6865 2.5552 2.8989 2264.3 -0.0050662 445.80 0.29839 685.00 0.0014599 534.24 1324.7 1.6865 2.5552 2.8989 2264.3 -0.0050662 445.80 0.29839
199.38 78717. undefined 536.80 1329.1 1.6919 685.00 0.0014599 536.80 1329.1 1.6919 2.5591 2.9025 2265.2 -0.0050598 445.61 0.29877 685.00 0.0014599 536.80 1329.1 1.6919 2.5591 2.9025 2265.2 -0.0050598 445.61 0.29877
200.38 78897. undefined 539.36 1333.5 1.6973 685.00 0.0014599 539.36 1333.5 1.6973 2.5629 2.9060 2266.0 -0.0050535 445.41 0.29914 685.00 0.0014599 539.36 1333.5 1.6973 2.5629 2.9060 2266.0 -0.0050535 445.41 0.29914
201.38 79077. undefined 541.93 1337.9 1.7027 685.00 0.0014599 541.93 1337.9 1.7027 2.5668 2.9096 2266.9 -0.0050473 445.22 0.29952 685.00 0.0014599 541.93 1337.9 1.7027 2.5668 2.9096 2266.9 -0.0050473 445.22 0.29952
202.38 79256. undefined 544.49 1342.2 1.7081 685.00 0.0014599 544.49 1342.2 1.7081 2.5706 2.9131 2267.7 -0.0050410 445.03 0.29990 685.00 0.0014599 544.49 1342.2 1.7081 2.5706 2.9131 2267.7 -0.0050410 445.03 0.29990
203.38 79436. undefined 547.07 1346.6 1.7135 685.00 0.0014599 547.07 1346.6 1.7135 2.5745 2.9167 2268.6 -0.0050348 444.84 0.30027 685.00 0.0014599 547.07 1346.6 1.7135 2.5745 2.9167 2268.6 -0.0050348 444.84 0.30027
204.38 79615. undefined 549.64 1351.0 1.7189 685.00 0.0014599 549.64 1351.0 1.7189 2.5783 2.9202 2269.5 -0.0050286 444.65 0.30065 685.00 0.0014599 549.64 1351.0 1.7189 2.5783 2.9202 2269.5 -0.0050286 444.65 0.30065
205.38 79794. undefined 552.22 1355.4 1.7243 685.00 0.0014599 552.22 1355.4 1.7243 2.5821 2.9238 2270.3 -0.0050224 444.46 0.30103 685.00 0.0014599 552.22 1355.4 1.7243 2.5821 2.9238 2270.3 -0.0050224 444.46 0.30103
206.38 79973. undefined 554.81 1359.8 1.7297 685.00 0.0014599 554.81 1359.8 1.7297 2.5859 2.9273 2271.2 -0.0050162 444.28 0.30140 685.00 0.0014599 554.81 1359.8 1.7297 2.5859 2.9273 2271.2 -0.0050162 444.28 0.30140
207.38 80152. undefined 557.39 1364.2 1.7351 685.00 0.0014599 557.39 1364.2 1.7351 2.5898 2.9308 2272.1 -0.0050100 444.09 0.30178 685.00 0.0014599 557.39 1364.2 1.7351 2.5898 2.9308 2272.1 -0.0050100 444.09 0.30178
208.38 80331. undefined 559.99 1368.5 1.7405 685.00 0.0014599 559.99 1368.5 1.7405 2.5936 2.9343 2272.9 -0.0050039 443.91 0.30216 685.00 0.0014599 559.99 1368.5 1.7405 2.5936 2.9343 2272.9 -0.0050039 443.91 0.30216
209.38 80509. undefined 562.58 1372.9 1.7459 685.00 0.0014599 562.58 1372.9 1.7459 2.5974 2.9379 2273.8 -0.0049978 443.73 0.30254 685.00 0.0014599 562.58 1372.9 1.7459 2.5974 2.9379 2273.8 -0.0049978 443.73 0.30254
210.38 80688. undefined 565.18 1377.3 1.7513 685.00 0.0014599 565.18 1377.3 1.7513 2.6012 2.9414 2274.6 -0.0049917 443.55 0.30292 685.00 0.0014599 565.18 1377.3 1.7513 2.6012 2.9414 2274.6 -0.0049917 443.55 0.30292
211.38 80866. undefined 567.78 1381.7 1.7567 685.00 0.0014599 567.78 1381.7 1.7567 2.6050 2.9449 2275.5 -0.0049857 443.37 0.30330 685.00 0.0014599 567.78 1381.7 1.7567 2.6050 2.9449 2275.5 -0.0049857 443.37 0.30330
212.38 81044. undefined 570.39 1386.1 1.7620 685.00 0.0014599 570.39 1386.1 1.7620 2.6088 2.9484 2276.4 -0.0049796 443.19 0.30368 685.00 0.0014599 570.39 1386.1 1.7620 2.6088 2.9484 2276.4 -0.0049796 443.19 0.30368
213.38 81222. undefined 573.00 1390.5 1.7674 685.00 0.0014599 573.00 1390.5 1.7674 2.6126 2.9519 2277.2 -0.0049736 443.01 0.30405 685.00 0.0014599 573.00 1390.5 1.7674 2.6126 2.9519 2277.2 -0.0049736 443.01 0.30405
214.38 81399. undefined 575.62 1394.9 1.7728 685.00 0.0014599 575.62 1394.9 1.7728 2.6164 2.9554 2278.1 -0.0049676 442.83 0.30443 685.00 0.0014599 575.62 1394.9 1.7728 2.6164 2.9554 2278.1 -0.0049676 442.83 0.30443
215.38 81577. undefined 578.23 1399.3 1.7781 685.00 0.0014599 578.23 1399.3 1.7781 2.6201 2.9589 2278.9 -0.0049616 442.66 0.30482 685.00 0.0014599 578.23 1399.3 1.7781 2.6201 2.9589 2278.9 -0.0049616 442.66 0.30482
216.38 81754. undefined 580.86 1403.7 1.7835 685.00 0.0014599 580.86 1403.7 1.7835 2.6239 2.9624 2279.8 -0.0049557 442.49 0.30520 685.00 0.0014599 580.86 1403.7 1.7835 2.6239 2.9624 2279.8 -0.0049557 442.49 0.30520
217.38 81931. undefined 583.48 1408.2 1.7889 685.00 0.0014599 583.48 1408.2 1.7889 2.6277 2.9659 2280.6 -0.0049497 442.31 0.30558 685.00 0.0014599 583.48 1408.2 1.7889 2.6277 2.9659 2280.6 -0.0049497 442.31 0.30558
218.38 82108. undefined 586.11 1412.6 1.7942 685.00 0.0014599 586.11 1412.6 1.7942 2.6315 2.9693 2281.5 -0.0049438 442.14 0.30596 685.00 0.0014599 586.11 1412.6 1.7942 2.6315 2.9693 2281.5 -0.0049438 442.14 0.30596
219.38 82285. undefined 588.75 1417.0 1.7996 685.00 0.0014599 588.75 1417.0 1.7996 2.6352 2.9728 2282.3 -0.0049379 441.97 0.30634 685.00 0.0014599 588.75 1417.0 1.7996 2.6352 2.9728 2282.3 -0.0049379 441.97 0.30634
220.38 82462. undefined 591.38 1421.4 1.8049 685.00 0.0014599 591.38 1421.4 1.8049 2.6390 2.9763 2283.2 -0.0049320 441.80 0.30672 685.00 0.0014599 591.38 1421.4 1.8049 2.6390 2.9763 2283.2 -0.0049320 441.80 0.30672
221.38 82638. undefined 594.02 1425.8 1.8103 685.00 0.0014599 594.02 1425.8 1.8103 2.6427 2.9798 2284.0 -0.0049262 441.63 0.30710 685.00 0.0014599 594.02 1425.8 1.8103 2.6427 2.9798 2284.0 -0.0049262 441.63 0.30710
222.38 82815. undefined 596.67 1430.2 1.8156 685.00 0.0014599 596.67 1430.2 1.8156 2.6465 2.9832 2284.9 -0.0049203 441.47 0.30748 685.00 0.0014599 596.67 1430.2 1.8156 2.6465 2.9832 2284.9 -0.0049203 441.47 0.30748
223.38 82991. undefined 599.32 1434.6 1.8209 685.00 0.0014599 599.32 1434.6 1.8209 2.6502 2.9867 2285.7 -0.0049145 441.30 0.30787 685.00 0.0014599 599.32 1434.6 1.8209 2.6502 2.9867 2285.7 -0.0049145 441.30 0.30787
224.38 83167. undefined 601.97 1439.1 1.8263 685.00 0.0014599 601.97 1439.1 1.8263 2.6539 2.9901 2286.6 -0.0049087 441.14 0.30825 685.00 0.0014599 601.97 1439.1 1.8263 2.6539 2.9901 2286.6 -0.0049087 441.14 0.30825
225.38 83343. undefined 604.62 1443.5 1.8316 685.00 0.0014599 604.62 1443.5 1.8316 2.6577 2.9936 2287.4 -0.0049029 440.97 0.30863 685.00 0.0014599 604.62 1443.5 1.8316 2.6577 2.9936 2287.4 -0.0049029 440.97 0.30863
226.38 83519. undefined 607.28 1447.9 1.8369 685.00 0.0014599 607.28 1447.9 1.8369 2.6614 2.9971 2288.3 -0.0048972 440.81 0.30902 685.00 0.0014599 607.28 1447.9 1.8369 2.6614 2.9971 2288.3 -0.0048972 440.81 0.30902
227.38 83694. undefined 609.95 1452.4 1.8423 685.00 0.0014599 609.95 1452.4 1.8423 2.6651 3.0005 2289.1 -0.0048914 440.65 0.30940 685.00 0.0014599 609.95 1452.4 1.8423 2.6651 3.0005 2289.1 -0.0048914 440.65 0.30940
228.38 83869. undefined 612.61 1456.8 1.8476 685.00 0.0014599 612.61 1456.8 1.8476 2.6688 3.0039 2289.9 -0.0048857 440.49 0.30978 685.00 0.0014599 612.61 1456.8 1.8476 2.6688 3.0039 2289.9 -0.0048857 440.49 0.30978
229.38 84045. undefined 615.28 1461.2 1.8529 685.00 0.0014599 615.28 1461.2 1.8529 2.6725 3.0074 2290.8 -0.0048800 440.33 0.31017 685.00 0.0014599 615.28 1461.2 1.8529 2.6725 3.0074 2290.8 -0.0048800 440.33 0.31017
230.38 84220. undefined 617.96 1465.7 1.8582 685.00 0.0014599 617.96 1465.7 1.8582 2.6762 3.0108 2291.6 -0.0048743 440.17 0.31055 685.00 0.0014599 617.96 1465.7 1.8582 2.6762 3.0108 2291.6 -0.0048743 440.17 0.31055
231.38 84395. undefined 620.64 1470.1 1.8635 685.00 0.0014599 620.64 1470.1 1.8635 2.6799 3.0142 2292.5 -0.0048687 440.01 0.31094 685.00 0.0014599 620.64 1470.1 1.8635 2.6799 3.0142 2292.5 -0.0048687 440.01 0.31094
232.38 84569. undefined 623.32 1474.5 1.8688 685.00 0.0014599 623.32 1474.5 1.8688 2.6836 3.0177 2293.3 -0.0048631 439.86 0.31132 685.00 0.0014599 623.32 1474.5 1.8688 2.6836 3.0177 2293.3 -0.0048631 439.86 0.31132
233.38 84744. undefined 626.00 1479.0 1.8742 685.00 0.0014599 626.00 1479.0 1.8742 2.6873 3.0211 2294.1 -0.0048574 439.70 0.31171 685.00 0.0014599 626.00 1479.0 1.8742 2.6873 3.0211 2294.1 -0.0048574 439.70 0.31171
234.38 84918. undefined 628.69 1483.4 1.8795 685.00 0.0014599 628.69 1483.4 1.8795 2.6910 3.0245 2295.0 -0.0048518 439.55 0.31209 685.00 0.0014599 628.69 1483.4 1.8795 2.6910 3.0245 2295.0 -0.0048518 439.55 0.31209
235.38 85093. undefined 631.39 1487.9 1.8848 685.00 0.0014599 631.39 1487.9 1.8848 2.6947 3.0279 2295.8 -0.0048462 439.39 0.31248 685.00 0.0014599 631.39 1487.9 1.8848 2.6947 3.0279 2295.8 -0.0048462 439.39 0.31248
236.38 85267. undefined 634.08 1492.3 1.8901 685.00 0.0014599 634.08 1492.3 1.8901 2.6983 3.0313 2296.7 -0.0048407 439.24 0.31287 685.00 0.0014599 634.08 1492.3 1.8901 2.6983 3.0313 2296.7 -0.0048407 439.24 0.31287
237.38 85441. undefined 636.78 1496.8 1.8954 685.00 0.0014599 636.78 1496.8 1.8954 2.7020 3.0347 2297.5 -0.0048351 439.09 0.31325 685.00 0.0014599 636.78 1496.8 1.8954 2.7020 3.0347 2297.5 -0.0048351 439.09 0.31325
238.38 85614. undefined 639.49 1501.2 1.9006 685.00 0.0014599 639.49 1501.2 1.9006 2.7057 3.0381 2298.3 -0.0048296 438.94 0.31364 685.00 0.0014599 639.49 1501.2 1.9006 2.7057 3.0381 2298.3 -0.0048296 438.94 0.31364
239.38 85788. undefined 642.19 1505.7 1.9059 685.00 0.0014599 642.19 1505.7 1.9059 2.7093 3.0415 2299.2 -0.0048241 438.79 0.31403 685.00 0.0014599 642.19 1505.7 1.9059 2.7093 3.0415 2299.2 -0.0048241 438.79 0.31403
240.38 85962. undefined 644.91 1510.1 1.9112 685.00 0.0014599 644.91 1510.1 1.9112 2.7130 3.0449 2300.0 -0.0048186 438.64 0.31441 685.00 0.0014599 644.91 1510.1 1.9112 2.7130 3.0449 2300.0 -0.0048186 438.64 0.31441
241.38 86135. undefined 647.62 1514.6 1.9165 685.00 0.0014599 647.62 1514.6 1.9165 2.7166 3.0483 2300.8 -0.0048132 438.49 0.31480 685.00 0.0014599 647.62 1514.6 1.9165 2.7166 3.0483 2300.8 -0.0048132 438.49 0.31480
242.38 86308. undefined 650.34 1519.1 1.9218 685.00 0.0014599 650.34 1519.1 1.9218 2.7203 3.0517 2301.7 -0.0048077 438.35 0.31519 685.00 0.0014599 650.34 1519.1 1.9218 2.7203 3.0517 2301.7 -0.0048077 438.35 0.31519
243.38 86481. undefined 653.06 1523.5 1.9270 685.00 0.0014599 653.06 1523.5 1.9270 2.7239 3.0550 2302.5 -0.0048023 438.20 0.31558 685.00 0.0014599 653.06 1523.5 1.9270 2.7239 3.0550 2302.5 -0.0048023 438.20 0.31558
244.38 86654. undefined 655.79 1528.0 1.9323 685.00 0.0014599 655.79 1528.0 1.9323 2.7275 3.0584 2303.3 -0.0047969 438.06 0.31597 685.00 0.0014599 655.79 1528.0 1.9323 2.7275 3.0584 2303.3 -0.0047969 438.06 0.31597
245.38 86827. undefined 658.52 1532.5 1.9376 685.00 0.0014599 658.52 1532.5 1.9376 2.7312 3.0618 2304.2 -0.0047915 437.91 0.31636 685.00 0.0014599 658.52 1532.5 1.9376 2.7312 3.0618 2304.2 -0.0047915 437.91 0.31636
246.38 86999. undefined 661.25 1536.9 1.9429 685.00 0.0014599 661.25 1536.9 1.9429 2.7348 3.0651 2305.0 -0.0047861 437.77 0.31675 685.00 0.0014599 661.25 1536.9 1.9429 2.7348 3.0651 2305.0 -0.0047861 437.77 0.31675
247.38 87172. undefined 663.99 1541.4 1.9481 685.00 0.0014599 663.99 1541.4 1.9481 2.7384 3.0685 2305.8 -0.0047807 437.63 0.31714 685.00 0.0014599 663.99 1541.4 1.9481 2.7384 3.0685 2305.8 -0.0047807 437.63 0.31714
248.38 87344. undefined 666.73 1545.9 1.9534 685.00 0.0014599 666.73 1545.9 1.9534 2.7420 3.0719 2306.6 -0.0047754 437.49 0.31753 685.00 0.0014599 666.73 1545.9 1.9534 2.7420 3.0719 2306.6 -0.0047754 437.49 0.31753
249.38 87516. undefined 669.47 1550.3 1.9586 685.00 0.0014599 669.47 1550.3 1.9586 2.7456 3.0752 2307.5 -0.0047701 437.35 0.31792 685.00 0.0014599 669.47 1550.3 1.9586 2.7456 3.0752 2307.5 -0.0047701 437.35 0.31792
250.38 87688. undefined 672.22 1554.8 1.9639 685.00 0.0014599 672.22 1554.8 1.9639 2.7492 3.0786 2308.3 -0.0047648 437.21 0.31831 685.00 0.0014599 672.22 1554.8 1.9639 2.7492 3.0786 2308.3 -0.0047648 437.21 0.31831
251.38 87860. undefined 674.97 1559.3 1.9691 685.00 0.0014599 674.97 1559.3 1.9691 2.7528 3.0819 2309.1 -0.0047595 437.07 0.31870 685.00 0.0014599 674.97 1559.3 1.9691 2.7528 3.0819 2309.1 -0.0047595 437.07 0.31870
252.38 88032. undefined 677.72 1563.8 1.9744 685.00 0.0014599 677.72 1563.8 1.9744 2.7564 3.0852 2309.9 -0.0047542 436.93 0.31909 685.00 0.0014599 677.72 1563.8 1.9744 2.7564 3.0852 2309.9 -0.0047542 436.93 0.31909
253.38 88203. undefined 680.48 1568.3 1.9796 685.00 0.0014599 680.48 1568.3 1.9796 2.7600 3.0886 2310.8 -0.0047490 436.80 0.31948 685.00 0.0014599 680.48 1568.3 1.9796 2.7600 3.0886 2310.8 -0.0047490 436.80 0.31948
254.38 88374. undefined 683.24 1572.8 1.9849 685.00 0.0014599 683.24 1572.8 1.9849 2.7636 3.0919 2311.6 -0.0047438 436.66 0.31987 685.00 0.0014599 683.24 1572.8 1.9849 2.7636 3.0919 2311.6 -0.0047438 436.66 0.31987
255.38 88546. undefined 686.01 1577.2 1.9901 685.00 0.0014599 686.01 1577.2 1.9901 2.7671 3.0952 2312.4 -0.0047385 436.53 0.32026 685.00 0.0014599 686.01 1577.2 1.9901 2.7671 3.0952 2312.4 -0.0047385 436.53 0.32026
256.38 88717. undefined 688.78 1581.7 1.9953 685.00 0.0014599 688.78 1581.7 1.9953 2.7707 3.0986 2313.2 -0.0047333 436.39 0.32065 685.00 0.0014599 688.78 1581.7 1.9953 2.7707 3.0986 2313.2 -0.0047333 436.39 0.32065
257.38 88888. undefined 691.55 1586.2 2.0006 685.00 0.0014599 691.55 1586.2 2.0006 2.7743 3.1019 2314.0 -0.0047282 436.26 0.32105 685.00 0.0014599 691.55 1586.2 2.0006 2.7743 3.1019 2314.0 -0.0047282 436.26 0.32105
258.38 89058. undefined 694.33 1590.7 2.0058 685.00 0.0014599 694.33 1590.7 2.0058 2.7778 3.1052 2314.9 -0.0047230 436.13 0.32144 685.00 0.0014599 694.33 1590.7 2.0058 2.7778 3.1052 2314.9 -0.0047230 436.13 0.32144
259.38 89229. undefined 697.10 1595.2 2.0110 685.00 0.0014599 697.10 1595.2 2.0110 2.7814 3.1085 2315.7 -0.0047179 435.99 0.32183 685.00 0.0014599 697.10 1595.2 2.0110 2.7814 3.1085 2315.7 -0.0047179 435.99 0.32183
260.38 89400. undefined 699.89 1599.7 2.0162 685.00 0.0014599 699.89 1599.7 2.0162 2.7849 3.1118 2316.5 -0.0047127 435.86 0.32223 685.00 0.0014599 699.89 1599.7 2.0162 2.7849 3.1118 2316.5 -0.0047127 435.86 0.32223
261.38 89570. undefined 702.67 1604.2 2.0215 685.00 0.0014599 702.67 1604.2 2.0215 2.7885 3.1151 2317.3 -0.0047076 435.73 0.32262 685.00 0.0014599 702.67 1604.2 2.0215 2.7885 3.1151 2317.3 -0.0047076 435.73 0.32262
262.38 89740. undefined 705.46 1608.7 2.0267 685.00 0.0014599 705.46 1608.7 2.0267 2.7920 3.1184 2318.1 -0.0047025 435.61 0.32301 685.00 0.0014599 705.46 1608.7 2.0267 2.7920 3.1184 2318.1 -0.0047025 435.61 0.32301
263.38 89910. undefined 708.26 1613.2 2.0319 685.00 0.0014599 708.26 1613.2 2.0319 2.7955 3.1217 2319.0 -0.0046975 435.48 0.32341 685.00 0.0014599 708.26 1613.2 2.0319 2.7955 3.1217 2319.0 -0.0046975 435.48 0.32341
264.38 90080. undefined 711.06 1617.7 2.0371 685.00 0.0014599 711.06 1617.7 2.0371 2.7991 3.1250 2319.8 -0.0046924 435.35 0.32380 685.00 0.0014599 711.06 1617.7 2.0371 2.7991 3.1250 2319.8 -0.0046924 435.35 0.32380
265.38 90250. undefined 713.86 1622.3 2.0423 685.00 0.0014599 713.86 1622.3 2.0423 2.8026 3.1283 2320.6 -0.0046874 435.22 0.32420 685.00 0.0014599 713.86 1622.3 2.0423 2.8026 3.1283 2320.6 -0.0046874 435.22 0.32420
266.38 90419. undefined 716.66 1626.8 2.0475 685.00 0.0014599 716.66 1626.8 2.0475 2.8061 3.1315 2321.4 -0.0046823 435.10 0.32459 685.00 0.0014599 716.66 1626.8 2.0475 2.8061 3.1315 2321.4 -0.0046823 435.10 0.32459
267.38 90589. undefined 719.47 1631.3 2.0527 685.00 0.0014599 719.47 1631.3 2.0527 2.8096 3.1348 2322.2 -0.0046773 434.97 0.32499 685.00 0.0014599 719.47 1631.3 2.0527 2.8096 3.1348 2322.2 -0.0046773 434.97 0.32499
268.38 90758. undefined 722.28 1635.8 2.0579 685.00 0.0014599 722.28 1635.8 2.0579 2.8131 3.1381 2323.0 -0.0046723 434.85 0.32538 685.00 0.0014599 722.28 1635.8 2.0579 2.8131 3.1381 2323.0 -0.0046723 434.85 0.32538
269.38 90928. undefined 725.10 1640.3 2.0631 685.00 0.0014599 725.10 1640.3 2.0631 2.8166 3.1414 2323.8 -0.0046674 434.72 0.32578 685.00 0.0014599 725.10 1640.3 2.0631 2.8166 3.1414 2323.8 -0.0046674 434.72 0.32578
270.38 91097. undefined 727.91 1644.8 2.0683 685.00 0.0014599 727.91 1644.8 2.0683 2.8201 3.1446 2324.6 -0.0046624 434.60 0.32618 685.00 0.0014599 727.91 1644.8 2.0683 2.8201 3.1446 2324.6 -0.0046624 434.60 0.32618
271.38 91265. undefined 730.74 1649.4 2.0735 685.00 0.0014599 730.74 1649.4 2.0735 2.8236 3.1479 2325.4 -0.0046575 434.48 0.32657 685.00 0.0014599 730.74 1649.4 2.0735 2.8236 3.1479 2325.4 -0.0046575 434.48 0.32657
272.38 91434. undefined 733.56 1653.9 2.0787 685.00 0.0014599 733.56 1653.9 2.0787 2.8271 3.1511 2326.3 -0.0046525 434.36 0.32697 685.00 0.0014599 733.56 1653.9 2.0787 2.8271 3.1511 2326.3 -0.0046525 434.36 0.32697
273.38 91603. undefined 736.39 1658.4 2.0838 685.00 0.0014599 736.39 1658.4 2.0838 2.8306 3.1544 2327.1 -0.0046476 434.24 0.32737 685.00 0.0014599 736.39 1658.4 2.0838 2.8306 3.1544 2327.1 -0.0046476 434.24 0.32737
274.38 91771. undefined 739.22 1662.9 2.0890 685.00 0.0014599 739.22 1662.9 2.0890 2.8341 3.1576 2327.9 -0.0046427 434.12 0.32776 685.00 0.0014599 739.22 1662.9 2.0890 2.8341 3.1576 2327.9 -0.0046427 434.12 0.32776
275.38 91940. undefined 742.06 1667.5 2.0942 685.00 0.0014599 742.06 1667.5 2.0942 2.8376 3.1609 2328.7 -0.0046379 434.00 0.32816 685.00 0.0014599 742.06 1667.5 2.0942 2.8376 3.1609 2328.7 -0.0046379 434.00 0.32816
276.38 92108. undefined 744.90 1672.0 2.0994 685.00 0.0014599 744.90 1672.0 2.0994 2.8410 3.1641 2329.5 -0.0046330 433.88 0.32856 685.00 0.0014599 744.90 1672.0 2.0994 2.8410 3.1641 2329.5 -0.0046330 433.88 0.32856
277.38 92276. undefined 747.74 1676.5 2.1045 685.00 0.0014599 747.74 1676.5 2.1045 2.8445 3.1673 2330.3 -0.0046282 433.76 0.32896 685.00 0.0014599 747.74 1676.5 2.1045 2.8445 3.1673 2330.3 -0.0046282 433.76 0.32896
278.38 92444. undefined 750.59 1681.1 2.1097 685.00 0.0014599 750.59 1681.1 2.1097 2.8480 3.1706 2331.1 -0.0046233 433.65 0.32936 685.00 0.0014599 750.59 1681.1 2.1097 2.8480 3.1706 2331.1 -0.0046233 433.65 0.32936
279.38 92612. undefined 753.44 1685.6 2.1149 685.00 0.0014599 753.44 1685.6 2.1149 2.8514 3.1738 2331.9 -0.0046185 433.53 0.32975 685.00 0.0014599 753.44 1685.6 2.1149 2.8514 3.1738 2331.9 -0.0046185 433.53 0.32975
280.38 92779. undefined 756.29 1690.1 2.1200 685.00 0.0014599 756.29 1690.1 2.1200 2.8549 3.1770 2332.7 -0.0046137 433.42 0.33015 685.00 0.0014599 756.29 1690.1 2.1200 2.8549 3.1770 2332.7 -0.0046137 433.42 0.33015
281.38 92947. undefined 759.15 1694.7 2.1252 685.00 0.0014599 759.15 1694.7 2.1252 2.8583 3.1802 2333.5 -0.0046090 433.30 0.33055 685.00 0.0014599 759.15 1694.7 2.1252 2.8583 3.1802 2333.5 -0.0046090 433.30 0.33055
282.38 93114. undefined 762.01 1699.2 2.1303 685.00 0.0014599 762.01 1699.2 2.1303 2.8617 3.1834 2334.3 -0.0046042 433.19 0.33085 685.00 0.0014599 762.01 1699.2 2.1303 2.8617 3.1834 2334.3 -0.0046042 433.19 0.33085
283.38 93282. undefined 764.87 1703.8 2.1355 685.00 0.0014599 764.87 1703.8 2.1355 2.8652 3.1866 2335.1 -0.0045994 433.07 0.33125 685.00 0.0014599 764.87 1703.8 2.1355 2.8652 3.1866 2335.1 -0.0045994 433.07 0.33125
284.38 93449. undefined 767.74 1708.3 2.1406 685.00 0.0014599 767.74 1708.3 2.1406 2.8686 3.1898 2335.9 -0.0045947 432.96 0.33165 685.00 0.0014599 767.74 1708.3 2.1406 2.8686 3.1898 2335.9 -0.0045947 432.96 0.33165
285.38 93616. undefined 770.61 1712.9 2.1458 685.00 0.0014599 770.61 1712.9 2.1458 2.8720 3.1930 2336.7 -0.0045900 432.85 0.33205 685.00 0.0014599 770.61 1712.9 2.1458 2.8720 3.1930 2336.7 -0.0045900 432.85 0.33205
286.38 93783. undefined 773.48 1717.4 2.1509 685.00 0.0014599 773.48 1717.4 2.1509 2.8754 3.1962 2337.5 -0.0045853 432.74 0.33245 685.00 0.0014599 773.48 1717.4 2.1509 2.8754 3.1962 2337.5 -0.0045853 432.74 0.33245
287.38 93949. undefined 776.36 1722.0 2.1560 685.00 0.0014599 776.36 1722.0 2.1560 2.8789 3.1994 2338.3 -0.0045806 432.63 0.33285 685.00 0.0014599 776.36 1722.0 2.1560 2.8789 3.1994 2338.3 -0.0045806 432.63 0.33285
288.38 94116. undefined 779.24 1726.5 2.1612 685.00 0.0014599 779.24 1726.5 2.1612 2.8823 3.2026 2339.1 -0.0045759 432.52 0.33325 685.00 0.0014599 779.24 1726.5 2.1612 2.8823 3.2026 2339.1 -0.0045759 432.52 0.33325
289.38 94282. undefined 782.12 1731.1 2.1663 685.00 0.0014599 782.12 1731.1 2.1663 2.8857 3.2058 2339.9 -0.0045713 432.41 0.33365 685.00 0.0014599 782.12 1731.1 2.1663 2.8857 3.2058 2339.9 -0.0045713 432.41 0.33365
290.38 94449. undefined 785.01 1735.7 2.1714 685.00 0.0014599 785.01 1735.7 2.1714 2.8891 3.2090 2340.7 -0.0045666 432.30 0.33405 685.00 0.0014599 785.01 1735.7 2.1714 2.8891 3.2090 2340.7 -0.0045666 432.30 0.33405
291.38 94615. undefined 787.90 1740.2 2.1766 685.00 0.0014599 787.90 1740.2 2.1766 2.8925 3.2121 2341.5 -0.0045620 432.19 0.33445 685.00 0.0014599 787.90 1740.2 2.1766 2.8925 3.2121 2341.5 -0.0045620 432.19 0.33445
292.38 94781. undefined 790.79 1744.8 2.1817 685.00 0.0014599 790.79 1744.8 2.1817 2.8959 3.2153 2342.3 -0.0045574 432.09 0.33486 685.00 0.0014599 790.79 1744.8 2.1817 2.8959 3.2153 2342.3 -0.0045574 432.09 0.33486
293.38 94947. undefined 793.69 1749.4 2.1868 685.00 0.0014599 793.69 1749.4 2.1868 2.8992 3.2185 2343.1 -0.0045528 431.98 0.33526 685.00 0.0014599 793.69 1749.4 2.1868 2.8992 3.2185 2343.1 -0.0045528 431.98 0.33526
294.38 95113. undefined 796.59 1753.9 2.1919 685.00 0.0014599 796.59 1753.9 2.1919 2.9026 3.2216 2343.9 -0.0045482 431.87 0.33566 685.00 0.0014599 796.59 1753.9 2.1919 2.9026 3.2216 2343.9 -0.0045482 431.87 0.33566
295.38 95278. undefined 799.50 1758.5 2.1970 685.00 0.0014599 799.50 1758.5 2.1970 2.9060 3.2248 2344.7 -0.0045437 431.77 0.33607 685.00 0.0014599 799.50 1758.5 2.1970 2.9060 3.2248 2344.7 -0.0045437 431.77 0.33607
296.38 95444. undefined 802.40 1763.1 2.2021 685.00 0.0014599 802.40 1763.1 2.2021 2.9094 3.2279 2345.5 -0.0045391 431.66 0.33647 685.00 0.0014599 802.40 1763.1 2.2021 2.9094 3.2279 2345.5 -0.0045391 431.66 0.33647
297.38 95609. undefined 805.32 1767.7 2.2072 685.00 0.0014599 805.32 1767.7 2.2072 2.9127 3.2311 2346.2 -0.0045346 431.56 0.33687 685.00 0.0014599 805.32 1767.7 2.2072 2.9127 3.2311 2346.2 -0.0045346 431.56 0.33687
298.38 95774. undefined 808.23 1772.2 2.2124 685.00 0.0014599 808.23 1772.2 2.2124 2.9161 3.2342 2347.0 -0.0045301 431.46 0.33728 685.00 0.0014599 808.23 1772.2 2.2124 2.9161 3.2342 2347.0 -0.0045301 431.46 0.33728
299.38 95940. undefined 811.15 1776.8 2.2175 685.00 0.0014599 811.15 1776.8 2.2175 2.9194 3.2374 2347.8 -0.0045255 431.35 0.33768 685.00 0.0014599 811.15 1776.8 2.2175 2.9194 3.2374 2347.8 -0.0045255 431.35 0.33768
300.38 96105. undefined 814.07 1781.4 2.2226 685.00 0.0014599 814.07 1781.4 2.2226 2.9228 3.2405 2348.6 -0.0045211 431.25 0.33809 685.00 0.0014599 814.07 1781.4 2.2226 2.9228 3.2405 2348.6 -0.0045211 431.25 0.33809