Temperature (C) Pressure (psia) Quality (l+v) Internal Energy (l+v, kJ/kg) Enthalpy (l+v, kJ/kg) Entropy (l+v, J/g*K) Density (l, kg/m3) Volume (l, m3/kg) Internal Energy (l, kJ/kg) Enthalpy (l, kJ/kg) Entropy (l, J/g*K) Cv (l, J/g*K) Cp (l, J/g*K) Sound Spd. (l, m/s) Joule-Thomson (l, F/psia) Viscosity (l, uPa*s) Therm. Cond. (l, W/m*K) Density (v, kg/m3) Volume (v, m3/kg) Internal Energy (v, kJ/kg) Enthalpy (v, kJ/kg) Entropy (v, J/g*K) Cv (v, J/g*K) Cp (v, J/g*K) Sound Spd. (v, m/s) Joule-Thomson (v, F/psia) Viscosity (v, uPa*s) Therm. Cond. (v, W/m*K)
-187.62 2.4953e-08 9.0953e-13 -196.64 -196.64 -1.3959 733.13 0.0013640 -196.64 -196.64 -1.3959 1.3553 1.9158 2136.4 -0.0077592 10960. 0.20792 1.0669e-08 9.3732e+07 350.13 366.26 5.1858 0.69067 0.87923 143.28 6.1051 2.3259 0.0017061
-186.62 3.7339e-08 1.3146e-12 -194.73 -194.73 -1.3736 732.08 0.0013660 -194.73 -194.73 -1.3736 1.3539 1.9166 2129.6 -0.0077546 10073. 0.20765 1.5780e-08 6.3371e+07 350.82 367.14 5.1200 0.69462 0.88317 144.03 5.9178 2.3534 0.0017533
-185.62 5.5322e-08 1.8804e-12 -192.81 -192.81 -1.3516 731.04 0.0013679 -192.81 -192.81 -1.3516 1.3525 1.9174 2122.9 -0.0077498 9276.1 0.20737 2.3112e-08 4.3267e+07 351.52 368.02 5.0561 0.69857 0.88713 144.77 5.7383 2.3808 0.0018007
-184.62 8.1182e-08 2.6628e-12 -190.89 -190.89 -1.3298 730.00 0.0013699 -190.89 -190.89 -1.3298 1.3513 1.9182 2116.1 -0.0077448 8557.8 0.20708 3.3533e-08 2.9821e+07 352.22 368.91 4.9939 0.70253 0.89108 145.51 5.5662 2.4083 0.0018485
-183.62 1.1803e-07 3.7342e-12 -188.97 -188.97 -1.3083 728.96 0.0013718 -188.97 -188.97 -1.3083 1.3501 1.9191 2109.3 -0.0077395 7909.8 0.20678 4.8211e-08 2.0742e+07 352.92 369.81 4.9333 0.70648 0.89504 146.24 5.4011 2.4357 0.0018965
-182.62 1.7009e-07 5.1871e-12 -187.05 -187.05 -1.2869 727.92 0.0013738 -187.05 -187.05 -1.2869 1.3490 1.9201 2102.5 -0.0077340 7324.3 0.20647 6.8704e-08 1.4555e+07 353.63 370.70 4.8744 0.71043 0.89899 146.97 5.2426 2.4632 0.0019448
-181.62 2.4299e-07 7.1392e-12 -185.13 -185.13 -1.2658 726.88 0.0013757 -185.13 -185.13 -1.2658 1.3480 1.9210 2095.7 -0.0077283 6794.5 0.20616 9.7079e-08 1.0301e+07 354.35 371.60 4.8170 0.71438 0.90294 147.69 5.0904 2.4906 0.0019934
-180.62 3.4425e-07 9.7380e-12 -183.21 -183.21 -1.2450 725.85 0.0013777 -183.21 -183.21 -1.2450 1.3470 1.9220 2088.9 -0.0077225 6314.4 0.20584 1.3605e-07 7.3504e+06 355.06 372.51 4.7612 0.71833 0.90688 148.41 4.9442 2.5181 0.0020423
-179.62 4.8378e-07 1.3167e-11 -181.29 -181.29 -1.2243 724.81 0.0013797 -181.29 -181.29 -1.2243 1.3461 1.9231 2082.0 -0.0077164 5878.8 0.20551 1.8915e-07 5.2868e+06 355.78 373.42 4.7068 0.72227 0.91082 149.13 4.8038 2.5456 0.0020915
-178.62 6.7459e-07 1.7652e-11 -179.37 -179.37 -1.2038 723.78 0.0013816 -179.37 -179.37 -1.2038 1.3453 1.9241 2075.2 -0.0077102 5482.9 0.20517 2.6096e-07 3.8320e+06 356.51 374.33 4.6538 0.72620 0.91475 149.84 4.6688 2.5731 0.0021410
-177.62 9.3358e-07 2.3469e-11 -177.44 -177.44 -1.1836 722.75 0.0013836 -177.44 -177.44 -1.1836 1.3445 1.9252 2068.4 -0.0077039 5122.6 0.20483 3.5737e-07 2.7982e+06 357.23 375.25 4.6022 0.73012 0.91867 150.54 4.5390 2.6005 0.0021907
-176.62 1.2826e-06 3.0949e-11 -175.52 -175.52 -1.1635 721.72 0.0013856 -175.52 -175.52 -1.1635 1.3437 1.9263 2061.5 -0.0076973 4794.1 0.20447 4.8588e-07 2.0581e+06 357.97 376.17 4.5519 0.73403 0.92258 151.25 4.4142 2.6280 0.0022408
-175.62 1.7496e-06 4.0487e-11 -173.59 -173.59 -1.1437 720.69 0.0013876 -173.59 -173.59 -1.1437 1.3430 1.9274 2054.7 -0.0076907 4494.3 0.20411 6.5601e-07 1.5244e+06 358.70 377.09 4.5029 0.73792 0.92648 151.95 4.2941 2.6555 0.0022912
-174.62 2.3705e-06 5.2553e-11 -171.66 -171.66 -1.1240 719.66 0.0013895 -171.66 -171.66 -1.1240 1.3423 1.9286 2047.9 -0.0076838 4220.2 0.20375 8.7976e-07 1.1367e+06 359.44 378.02 4.4551 0.74181 0.93036 152.64 4.1784 2.6830 0.0023418
-173.62 3.1903e-06 6.7690e-11 -169.73 -169.73 -1.1045 718.64 0.0013915 -169.73 -169.73 -1.1045 1.3417 1.9298 2041.0 -0.0076769 3969.3 0.20338 1.1721e-06 8.5314e+05 360.19 378.95 4.4085 0.74568 0.93423 153.33 4.0671 2.7105 0.0023928
-172.62 4.2661e-06 8.6529e-11 -167.80 -167.80 -1.0852 717.61 0.0013935 -167.80 -167.80 -1.0852 1.3411 1.9310 2034.2 -0.0076698 3739.3 0.20300 1.5518e-06 6.4441e+05 360.93 379.89 4.3631 0.74953 0.93809 154.02 3.9599 2.7379 0.0024440
-171.62 5.6692e-06 1.0979e-10 -165.87 -165.87 -1.0661 716.58 0.0013955 -165.87 -165.87 -1.0661 1.3405 1.9322 2027.3 -0.0076625 3528.0 0.20261 2.0419e-06 4.8974e+05 361.69 380.83 4.3188 0.75337 0.94193 154.71 3.8566 2.7654 0.0024955
-170.62 7.4884e-06 1.3827e-10 -163.94 -163.94 -1.0472 715.56 0.0013975 -163.94 -163.94 -1.0472 1.3400 1.9334 2020.5 -0.0076552 3333.8 0.20222 2.6708e-06 3.7442e+05 362.44 381.77 4.2755 0.75720 0.94575 155.39 3.7570 2.7929 0.0025473
-169.62 9.8334e-06 1.7286e-10 -162.00 -162.00 -1.0284 714.54 0.0013995 -162.00 -162.00 -1.0284 1.3395 1.9347 2013.6 -0.0076477 3154.9 0.20182 3.4733e-06 2.8791e+05 363.20 382.72 4.2334 0.76100 0.94956 156.07 3.6609 2.8204 0.0025994
-168.62 1.2839e-05 2.1454e-10 -160.07 -160.07 -1.0098 713.52 0.0014015 -160.07 -160.07 -1.0098 1.3390 1.9359 2006.8 -0.0076401 2989.9 0.20141 4.4917e-06 2.2263e+05 363.96 383.67 4.1922 0.76479 0.95335 156.74 3.5683 2.8479 0.0026518
-167.62 1.6672e-05 2.6434e-10 -158.13 -158.13 -0.99134 712.49 0.0014035 -158.13 -158.13 -0.99134 1.3386 1.9372 2000.0 -0.0076323 2837.5 0.20100 5.7771e-06 1.7310e+05 364.73 384.63 4.1521 0.76856 0.95712 157.41 3.4790 2.8754 0.0027045
-166.62 2.1533e-05 3.2332e-10 -156.19 -156.19 -0.97306 711.47 0.0014055 -156.19 -156.19 -0.97306 1.3382 1.9385 1993.1 -0.0076245 2696.5 0.20058 7.3914e-06 1.3529e+05 365.50 385.59 4.1129 0.77232 0.96087 158.08 3.3927 2.9029 0.0027575
-165.62 2.7666e-05 3.9258e-10 -154.25 -154.25 -0.95494 710.45 0.0014075 -154.25 -154.25 -0.95494 1.3378 1.9398 1986.3 -0.0076165 2566.0 0.20016 9.4084e-06 1.0629e+05 366.27 386.55 4.0746 0.77605 0.96460 158.75 3.3095 2.9304 0.0028108
-164.62 3.5367e-05 4.7314e-10 -152.31 -152.31 -0.93698 709.44 0.0014096 -152.31 -152.31 -0.93698 1.3375 1.9411 1979.4 -0.0076084 2444.9 0.19973 1.1916e-05 83918. 367.05 387.52 4.0372 0.77976 0.96832 159.41 3.2291 2.9579 0.0028643
-163.62 4.4989e-05 5.6595e-10 -150.37 -150.37 -0.91917 708.42 0.0014116 -150.37 -150.37 -0.91917 1.3371 1.9424 1972.6 -0.0076002 2332.3 0.19930 1.5020e-05 66577. 367.83 388.49 4.0008 0.78346 0.97201 160.07 3.1514 2.9854 0.0029182
-162.62 5.6956e-05 6.7177e-10 -148.43 -148.43 -0.90151 707.40 0.0014136 -148.43 -148.43 -0.90151 1.3368 1.9437 1965.8 -0.0075919 2227.7 0.19886 1.8844e-05 53068. 368.62 389.46 3.9651 0.78713 0.97569 160.72 3.0764 3.0129 0.0029723
-161.62 7.1773e-05 7.9106e-10 -146.48 -146.48 -0.88400 706.38 0.0014157 -146.48 -146.48 -0.88400 1.3365 1.9451 1959.0 -0.0075834 2130.2 0.19841 2.3533e-05 42494. 369.41 390.44 3.9304 0.79079 0.97935 161.38 3.0038 3.0404 0.0030268
-160.62 9.0036e-05 9.2389e-10 -144.54 -144.54 -0.86663 705.37 0.0014177 -144.54 -144.54 -0.86663 1.3363 1.9465 1952.1 -0.0075748 2039.2 0.19796 2.9258e-05 34178. 370.20 391.42 3.8964 0.79443 0.98298 162.03 2.9337 3.0679 0.0030815
-159.62 0.00011245 1.0697e-09 -142.59 -142.59 -0.84940 704.35 0.0014197 -142.59 -142.59 -0.84940 1.3360 1.9478 1945.3 -0.0075661 1954.2 0.19751 3.6221e-05 27609. 371.00 392.40 3.8632 0.79805 0.98660 162.68 2.8658 3.0955 0.0031365
-158.62 0.00013985 1.2273e-09 -140.64 -140.64 -0.83231 703.34 0.0014218 -140.64 -140.64 -0.83231 1.3358 1.9492 1938.5 -0.0075573 1874.8 0.19705 4.4652e-05 22395. 371.80 393.39 3.8307 0.80164 0.99020 163.32 2.8002 3.1230 0.0031918
-157.62 0.00017320 1.3942e-09 -138.69 -138.69 -0.81536 702.32 0.0014238 -138.69 -138.69 -0.81536 1.3356 1.9506 1931.7 -0.0075484 1800.3 0.19658 5.4822e-05 18241. 372.60 394.38 3.7990 0.80522 0.99378 163.96 2.7367 3.1505 0.0032474
-156.62 0.00021364 1.5670e-09 -136.74 -136.74 -0.79854 701.31 0.0014259 -136.74 -136.74 -0.79854 1.3354 1.9520 1924.9 -0.0075393 1730.5 0.19611 6.7040e-05 14916. 373.41 395.38 3.7680 0.80878 0.99734 164.60 2.6752 3.1780 0.0033033
-155.62 0.00026248 1.7405e-09 -134.79 -134.79 -0.78185 700.30 0.0014280 -134.79 -134.79 -0.78185 1.3352 1.9534 1918.1 -0.0075302 1664.9 0.19564 8.1666e-05 12245. 374.22 396.38 3.7377 0.81232 1.0009 165.24 2.6157 3.2055 0.0033595
-154.62 0.00032125 1.9073e-09 -132.83 -132.83 -0.76530 699.29 0.0014300 -132.83 -132.83 -0.76530 1.3350 1.9548 1911.3 -0.0075209 1603.3 0.19516 9.9109e-05 10090. 375.03 397.38 3.7081 0.81585 1.0044 165.87 2.5580 3.2330 0.0034160
-153.62 0.00039171 2.0577e-09 -130.88 -130.88 -0.74887 698.27 0.0014321 -130.88 -130.88 -0.74887 1.3349 1.9563 1904.5 -0.0075114 1545.3 0.19468 0.00011984 8344.6 375.85 398.39 3.6792 0.81935 1.0079 166.50 2.5022 3.2606 0.0034727
-152.62 0.00047590 2.1792e-09 -128.92 -128.92 -0.73256 697.26 0.0014342 -128.92 -128.92 -0.73256 1.3348 1.9577 1897.8 -0.0075019 1490.6 0.19419 0.00014439 6925.9 376.67 399.40 3.6509 0.82284 1.0114 167.13 2.4481 3.2881 0.0035298
-151.62 0.00057613 2.2553e-09 -126.96 -126.96 -0.71638 696.25 0.0014363 -126.96 -126.96 -0.71638 1.3346 1.9592 1891.0 -0.0074922 1438.9 0.19370 0.00017336 5768.4 377.49 400.41 3.6232 0.82631 1.0149 167.76 2.3957 3.3156 0.0035872
-150.62 0.00069507 2.2653e-09 -125.00 -125.00 -0.70032 695.24 0.0014384 -125.00 -125.00 -0.70032 1.3345 1.9606 1884.2 -0.0074824 1390.2 0.19320 0.00020744 4820.7 378.32 401.42 3.5962 0.82976 1.0183 168.38 2.3448 3.3431 0.0036448
-149.62 0.00083574 2.1836e-09 -123.04 -123.04 -0.68438 694.23 0.0014404 -123.04 -123.04 -0.68438 1.3345 1.9621 1877.4 -0.0074724 1344.0 0.19270 0.00024740 4042.0 379.15 402.44 3.5697 0.83319 1.0218 169.00 2.2956 3.3706 0.0037027
-148.62 0.0010016 1.9783e-09 -121.08 -121.08 -0.66855 693.22 0.0014425 -121.08 -121.08 -0.66855 1.3344 1.9636 1870.7 -0.0074623 1300.3 0.19220 0.00029412 3400.0 379.99 403.47 3.5438 0.83661 1.0252 169.62 2.2478 3.3982 0.0037610
-147.62 0.0011965 1.6105e-09 -119.11 -119.11 -0.65284 692.21 0.0014447 -119.11 -119.11 -0.65284 1.3343 1.9651 1863.9 -0.0074521 1258.9 0.19169 0.00034856 2869.0 380.83 404.49 3.5185 0.84001 1.0286 170.24 2.2014 3.4257 0.0038195
-146.62 0.0014249 1.0333e-09 -117.15 -117.15 -0.63724 691.20 0.0014468 -117.15 -117.15 -0.63724 1.3343 1.9666 1857.2 -0.0074417 1219.6 0.19117 0.00041181 2428.3 381.67 405.52 3.4938 0.84340 1.0320 170.85 2.1565 3.4532 0.0038783
-145.62 0.0016917 1.9013e-10 -115.18 -115.18 -0.62175 690.19 0.0014489 -115.18 -115.18 -0.62175 1.3343 1.9682 1850.4 -0.0074312 1182.3 0.19066 0.00048510 2061.4 382.51 406.56 3.4695 0.84677 1.0353 171.46 2.1128 3.4807 0.0039374
-144.62 276.38 undefined -113.73 -110.97 -0.61040 690.00 0.0014493 -113.73 -110.97 -0.61040 1.3361 1.9683 1851.4 -0.0074305 1165.1 0.19080 690.00 0.0014493 -113.73 -110.97 -0.61040 1.3361 1.9683 1851.4 -0.0074305 1165.1 0.19080
-143.62 614.34 undefined -112.39 -106.25 -0.60004 690.00 0.0014493 -112.39 -106.25 -0.60004 1.3383 1.9680 1854.0 -0.0074319 1152.5 0.19109 690.00 0.0014493 -112.39 -106.25 -0.60004 1.3383 1.9680 1854.0 -0.0074319 1152.5 0.19109
-142.62 951.13 undefined -111.05 -101.55 -0.58974 690.00 0.0014493 -111.05 -101.55 -0.58974 1.3405 1.9678 1856.7 -0.0074333 1140.3 0.19138 690.00 0.0014493 -111.05 -101.55 -0.58974 1.3405 1.9678 1856.7 -0.0074333 1140.3 0.19138
-141.62 1286.8 undefined -109.71 -96.853 -0.57950 690.00 0.0014493 -109.71 -96.853 -0.57950 1.3427 1.9677 1859.4 -0.0074345 1128.4 0.19167 690.00 0.0014493 -109.71 -96.853 -0.57950 1.3427 1.9677 1859.4 -0.0074345 1128.4 0.19167
-140.62 1621.3 undefined -108.37 -92.167 -0.56932 690.00 0.0014493 -108.37 -92.167 -0.56932 1.3448 1.9675 1862.0 -0.0074357 1116.8 0.19196 690.00 0.0014493 -108.37 -92.167 -0.56932 1.3448 1.9675 1862.0 -0.0074357 1116.8 0.19196
-139.62 1954.7 undefined -107.02 -87.490 -0.55920 690.00 0.0014493 -107.02 -87.490 -0.55920 1.3470 1.9674 1864.6 -0.0074367 1105.5 0.19225 690.00 0.0014493 -107.02 -87.490 -0.55920 1.3470 1.9674 1864.6 -0.0074367 1105.5 0.19225
-138.62 2286.9 undefined -105.67 -82.822 -0.54915 690.00 0.0014493 -105.67 -82.822 -0.54915 1.3492 1.9673 1867.3 -0.0074377 1094.5 0.19255 690.00 0.0014493 -105.67 -82.822 -0.54915 1.3492 1.9673 1867.3 -0.0074377 1094.5 0.19255
-137.62 2618.1 undefined -104.32 -78.162 -0.53915 690.00 0.0014493 -104.32 -78.162 -0.53915 1.3513 1.9672 1869.9 -0.0074386 1083.8 0.19284 690.00 0.0014493 -104.32 -78.162 -0.53915 1.3513 1.9672 1869.9 -0.0074386 1083.8 0.19284
-136.62 2948.2 undefined -102.97 -73.511 -0.52920 690.00 0.0014493 -102.97 -73.511 -0.52920 1.3535 1.9672 1872.5 -0.0074393 1073.3 0.19313 690.00 0.0014493 -102.97 -73.511 -0.52920 1.3535 1.9672 1872.5 -0.0074393 1073.3 0.19313
-135.62 3277.2 undefined -101.62 -68.869 -0.51932 690.00 0.0014493 -101.62 -68.869 -0.51932 1.3556 1.9671 1875.1 -0.0074400 1063.1 0.19342 690.00 0.0014493 -101.62 -68.869 -0.51932 1.3556 1.9671 1875.1 -0.0074400 1063.1 0.19342
-134.62 3605.2 undefined -100.26 -64.235 -0.50949 690.00 0.0014493 -100.26 -64.235 -0.50949 1.3578 1.9671 1877.7 -0.0074406 1053.2 0.19372 690.00 0.0014493 -100.26 -64.235 -0.50949 1.3578 1.9671 1877.7 -0.0074406 1053.2 0.19372
-133.62 3932.1 undefined -98.901 -59.610 -0.49971 690.00 0.0014493 -98.901 -59.610 -0.49971 1.3599 1.9671 1880.2 -0.0074411 1043.5 0.19401 690.00 0.0014493 -98.901 -59.610 -0.49971 1.3599 1.9671 1880.2 -0.0074411 1043.5 0.19401
-132.62 4257.9 undefined -97.540 -54.993 -0.48999 690.00 0.0014493 -97.540 -54.993 -0.48999 1.3621 1.9672 1882.8 -0.0074415 1034.0 0.19430 690.00 0.0014493 -97.540 -54.993 -0.48999 1.3621 1.9672 1882.8 -0.0074415 1034.0 0.19430
-131.62 4582.7 undefined -96.176 -50.384 -0.48033 690.00 0.0014493 -96.176 -50.384 -0.48033 1.3642 1.9672 1885.3 -0.0074418 1024.8 0.19460 690.00 0.0014493 -96.176 -50.384 -0.48033 1.3642 1.9672 1885.3 -0.0074418 1024.8 0.19460
-130.62 4906.6 undefined -94.811 -45.783 -0.47071 690.00 0.0014493 -94.811 -45.783 -0.47071 1.3664 1.9673 1887.8 -0.0074421 1015.7 0.19489 690.00 0.0014493 -94.811 -45.783 -0.47071 1.3664 1.9673 1887.8 -0.0074421 1015.7 0.19489
-129.62 5229.3 undefined -93.444 -41.190 -0.46115 690.00 0.0014493 -93.444 -41.190 -0.46115 1.3685 1.9674 1890.3 -0.0074422 1006.9 0.19519 690.00 0.0014493 -93.444 -41.190 -0.46115 1.3685 1.9674 1890.3 -0.0074422 1006.9 0.19519
-128.62 5551.1 undefined -92.074 -36.605 -0.45164 690.00 0.0014493 -92.074 -36.605 -0.45164 1.3707 1.9675 1892.8 -0.0074423 998.30 0.19548 690.00 0.0014493 -92.074 -36.605 -0.45164 1.3707 1.9675 1892.8 -0.0074423 998.30 0.19548
-127.62 5871.9 undefined -90.702 -32.028 -0.44219 690.00 0.0014493 -90.702 -32.028 -0.44219 1.3728 1.9676 1895.3 -0.0074423 989.87 0.19578 690.00 0.0014493 -90.702 -32.028 -0.44219 1.3728 1.9676 1895.3 -0.0074423 989.87 0.19578
-126.62 6191.8 undefined -89.328 -27.458 -0.43278 690.00 0.0014493 -89.328 -27.458 -0.43278 1.3750 1.9678 1897.8 -0.0074421 981.64 0.19607 690.00 0.0014493 -89.328 -27.458 -0.43278 1.3750 1.9678 1897.8 -0.0074421 981.64 0.19607
-125.62 6510.6 undefined -87.952 -22.896 -0.42342 690.00 0.0014493 -87.952 -22.896 -0.42342 1.3771 1.9680 1900.2 -0.0074419 973.59 0.19637 690.00 0.0014493 -87.952 -22.896 -0.42342 1.3771 1.9680 1900.2 -0.0074419 973.59 0.19637
-124.62 6828.5 undefined -86.574 -18.341 -0.41411 690.00 0.0014493 -86.574 -18.341 -0.41411 1.3793 1.9682 1902.7 -0.0074416 965.72 0.19666 690.00 0.0014493 -86.574 -18.341 -0.41411 1.3793 1.9682 1902.7 -0.0074416 965.72 0.19666
-123.62 7145.4 undefined -85.194 -13.794 -0.40484 690.00 0.0014493 -85.194 -13.794 -0.40484 1.3815 1.9684 1905.1 -0.0074413 958.02 0.19696 690.00 0.0014493 -85.194 -13.794 -0.40484 1.3815 1.9684 1905.1 -0.0074413 958.02 0.19696
-122.62 7461.4 undefined -83.811 -9.2542 -0.39563 690.00 0.0014493 -83.811 -9.2542 -0.39563 1.3836 1.9687 1907.5 -0.0074408 950.49 0.19726 690.00 0.0014493 -83.811 -9.2542 -0.39563 1.3836 1.9687 1907.5 -0.0074408 950.49 0.19726
-121.62 7776.4 undefined -82.426 -4.7215 -0.38646 690.00 0.0014493 -82.426 -4.7215 -0.38646 1.3858 1.9690 1909.9 -0.0074402 943.12 0.19755 690.00 0.0014493 -82.426 -4.7215 -0.38646 1.3858 1.9690 1909.9 -0.0074402 943.12 0.19755
-120.62 8090.5 undefined -81.040 -0.19602 -0.37734 690.00 0.0014493 -81.040 -0.19602 -0.37734 1.3880 1.9692 1912.2 -0.0074396 935.91 0.19785 690.00 0.0014493 -81.040 -0.19602 -0.37734 1.3880 1.9692 1912.2 -0.0074396 935.91 0.19785
-119.62 8403.7 undefined -79.651 4.3224 -0.36826 690.00 0.0014493 -79.651 4.3224 -0.36826 1.3902 1.9696 1914.6 -0.0074388 928.85 0.19815 690.00 0.0014493 -79.651 4.3224 -0.36826 1.3902 1.9696 1914.6 -0.0074388 928.85 0.19815
-118.62 8715.9 undefined -78.259 8.8339 -0.35923 690.00 0.0014493 -78.259 8.8339 -0.35923 1.3924 1.9699 1916.9 -0.0074380 921.94 0.19845 690.00 0.0014493 -78.259 8.8339 -0.35923 1.3924 1.9699 1916.9 -0.0074380 921.94 0.19845
-117.62 9027.3 undefined -76.866 13.339 -0.35024 690.00 0.0014493 -76.866 13.339 -0.35024 1.3946 1.9703 1919.2 -0.0074371 915.17 0.19874 690.00 0.0014493 -76.866 13.339 -0.35024 1.3946 1.9703 1919.2 -0.0074371 915.17 0.19874
-116.62 9337.7 undefined -75.470 17.836 -0.34129 690.00 0.0014493 -75.470 17.836 -0.34129 1.3968 1.9707 1921.5 -0.0074361 908.54 0.19904 690.00 0.0014493 -75.470 17.836 -0.34129 1.3968 1.9707 1921.5 -0.0074361 908.54 0.19904
-115.62 9647.3 undefined -74.072 22.327 -0.33239 690.00 0.0014493 -74.072 22.327 -0.33239 1.3990 1.9711 1923.8 -0.0074349 902.04 0.19934 690.00 0.0014493 -74.072 22.327 -0.33239 1.3990 1.9711 1923.8 -0.0074349 902.04 0.19934
-114.62 9956.0 undefined -72.672 26.812 -0.32353 690.00 0.0014493 -72.672 26.812 -0.32353 1.4012 1.9715 1926.1 -0.0074337 895.68 0.19964 690.00 0.0014493 -72.672 26.812 -0.32353 1.4012 1.9715 1926.1 -0.0074337 895.68 0.19964
-113.62 10264. undefined -71.270 31.290 -0.31471 690.00 0.0014493 -71.270 31.290 -0.31471 1.4034 1.9720 1928.4 -0.0074325 889.45 0.19994 690.00 0.0014493 -71.270 31.290 -0.31471 1.4034 1.9720 1928.4 -0.0074325 889.45 0.19994
-112.62 10571. undefined -69.865 35.761 -0.30593 690.00 0.0014493 -69.865 35.761 -0.30593 1.4057 1.9725 1930.6 -0.0074311 883.34 0.20024 690.00 0.0014493 -69.865 35.761 -0.30593 1.4057 1.9725 1930.6 -0.0074311 883.34 0.20024
-111.62 10877. undefined -68.459 40.226 -0.29720 690.00 0.0014493 -68.459 40.226 -0.29720 1.4079 1.9730 1932.8 -0.0074296 877.35 0.20054 690.00 0.0014493 -68.459 40.226 -0.29720 1.4079 1.9730 1932.8 -0.0074296 877.35 0.20054
-110.62 11182. undefined -67.050 44.684 -0.28850 690.00 0.0014493 -67.050 44.684 -0.28850 1.4102 1.9735 1935.0 -0.0074280 871.47 0.20084 690.00 0.0014493 -67.050 44.684 -0.28850 1.4102 1.9735 1935.0 -0.0074280 871.47 0.20084
-109.62 11486. undefined -65.638 49.137 -0.27985 690.00 0.0014493 -65.638 49.137 -0.27985 1.4124 1.9740 1937.2 -0.0074264 865.72 0.20114 690.00 0.0014493 -65.638 49.137 -0.27985 1.4124 1.9740 1937.2 -0.0074264 865.72 0.20114
-108.62 11790. undefined -64.225 53.583 -0.27123 690.00 0.0014493 -64.225 53.583 -0.27123 1.4147 1.9746 1939.4 -0.0074246 860.07 0.20144 690.00 0.0014493 -64.225 53.583 -0.27123 1.4147 1.9746 1939.4 -0.0074246 860.07 0.20144
-107.62 12092. undefined -62.809 58.023 -0.26265 690.00 0.0014493 -62.809 58.023 -0.26265 1.4170 1.9752 1941.6 -0.0074227 854.53 0.20174 690.00 0.0014493 -62.809 58.023 -0.26265 1.4170 1.9752 1941.6 -0.0074227 854.53 0.20174
-106.62 12394. undefined -61.391 62.457 -0.25411 690.00 0.0014493 -61.391 62.457 -0.25411 1.4193 1.9758 1943.7 -0.0074208 849.10 0.20204 690.00 0.0014493 -61.391 62.457 -0.25411 1.4193 1.9758 1943.7 -0.0074208 849.10 0.20204
-105.62 12695. undefined -59.970 66.885 -0.24560 690.00 0.0014493 -59.970 66.885 -0.24560 1.4216 1.9765 1945.9 -0.0074187 843.77 0.20234 690.00 0.0014493 -59.970 66.885 -0.24560 1.4216 1.9765 1945.9 -0.0074187 843.77 0.20234
-104.62 12995. undefined -58.548 71.307 -0.23713 690.00 0.0014493 -58.548 71.307 -0.23713 1.4239 1.9772 1948.0 -0.0074166 838.53 0.20264 690.00 0.0014493 -58.548 71.307 -0.23713 1.4239 1.9772 1948.0 -0.0074166 838.53 0.20264
-103.62 13295. undefined -57.123 75.723 -0.22870 690.00 0.0014493 -57.123 75.723 -0.22870 1.4262 1.9779 1950.1 -0.0074144 833.40 0.20295 690.00 0.0014493 -57.123 75.723 -0.22870 1.4262 1.9779 1950.1 -0.0074144 833.40 0.20295
-102.62 13593. undefined -55.695 80.134 -0.22031 690.00 0.0014493 -55.695 80.134 -0.22031 1.4286 1.9786 1952.2 -0.0074120 828.36 0.20325 690.00 0.0014493 -55.695 80.134 -0.22031 1.4286 1.9786 1952.2 -0.0074120 828.36 0.20325
-101.62 13891. undefined -54.266 84.539 -0.21195 690.00 0.0014493 -54.266 84.539 -0.21195 1.4309 1.9793 1954.2 -0.0074096 823.41 0.20355 690.00 0.0014493 -54.266 84.539 -0.21195 1.4309 1.9793 1954.2 -0.0074096 823.41 0.20355
-100.62 14188. undefined -52.833 88.938 -0.20362 690.00 0.0014493 -52.833 88.938 -0.20362 1.4333 1.9801 1956.3 -0.0074071 818.56 0.20385 690.00 0.0014493 -52.833 88.938 -0.20362 1.4333 1.9801 1956.3 -0.0074071 818.56 0.20385
-99.625 14484. undefined -51.399 93.332 -0.19533 690.00 0.0014493 -51.399 93.332 -0.19533 1.4356 1.9809 1958.3 -0.0074045 813.79 0.20416 690.00 0.0014493 -51.399 93.332 -0.19533 1.4356 1.9809 1958.3 -0.0074045 813.79 0.20416
-98.625 14779. undefined -49.962 97.720 -0.18708 690.00 0.0014493 -49.962 97.720 -0.18708 1.4380 1.9817 1960.4 -0.0074018 809.10 0.20446 690.00 0.0014493 -49.962 97.720 -0.18708 1.4380 1.9817 1960.4 -0.0074018 809.10 0.20446
-97.625 15074. undefined -48.523 102.10 -0.17885 690.00 0.0014493 -48.523 102.10 -0.17885 1.4404 1.9826 1962.4 -0.0073990 804.50 0.20477 690.00 0.0014493 -48.523 102.10 -0.17885 1.4404 1.9826 1962.4 -0.0073990 804.50 0.20477
-96.625 15368. undefined -47.081 106.48 -0.17066 690.00 0.0014493 -47.081 106.48 -0.17066 1.4428 1.9835 1964.4 -0.0073961 799.98 0.20507 690.00 0.0014493 -47.081 106.48 -0.17066 1.4428 1.9835 1964.4 -0.0073961 799.98 0.20507
-95.625 15661. undefined -45.637 110.85 -0.16251 690.00 0.0014493 -45.637 110.85 -0.16251 1.4453 1.9844 1966.4 -0.0073931 795.54 0.20537 690.00 0.0014493 -45.637 110.85 -0.16251 1.4453 1.9844 1966.4 -0.0073931 795.54 0.20537
-94.625 15953. undefined -44.191 115.22 -0.15438 690.00 0.0014493 -44.191 115.22 -0.15438 1.4477 1.9853 1968.4 -0.0073900 791.18 0.20568 690.00 0.0014493 -44.191 115.22 -0.15438 1.4477 1.9853 1968.4 -0.0073900 791.18 0.20568
-93.625 16245. undefined -42.742 119.58 -0.14629 690.00 0.0014493 -42.742 119.58 -0.14629 1.4502 1.9862 1970.3 -0.0073868 786.89 0.20598 690.00 0.0014493 -42.742 119.58 -0.14629 1.4502 1.9862 1970.3 -0.0073868 786.89 0.20598
-92.625 16535. undefined -41.290 123.94 -0.13823 690.00 0.0014493 -41.290 123.94 -0.13823 1.4526 1.9872 1972.3 -0.0073835 782.68 0.20629 690.00 0.0014493 -41.290 123.94 -0.13823 1.4526 1.9872 1972.3 -0.0073835 782.68 0.20629
-91.625 16825. undefined -39.837 128.29 -0.13019 690.00 0.0014493 -39.837 128.29 -0.13019 1.4551 1.9882 1974.2 -0.0073801 778.54 0.20659 690.00 0.0014493 -39.837 128.29 -0.13019 1.4551 1.9882 1974.2 -0.0073801 778.54 0.20659
-90.625 17115. undefined -38.380 132.64 -0.12219 690.00 0.0014493 -38.380 132.64 -0.12219 1.4576 1.9893 1976.1 -0.0073766 774.47 0.20690 690.00 0.0014493 -38.380 132.64 -0.12219 1.4576 1.9893 1976.1 -0.0073766 774.47 0.20690
-89.625 17403. undefined -36.921 136.98 -0.11422 690.00 0.0014493 -36.921 136.98 -0.11422 1.4601 1.9903 1978.0 -0.0073731 770.47 0.20721 690.00 0.0014493 -36.921 136.98 -0.11422 1.4601 1.9903 1978.0 -0.0073731 770.47 0.20721
-88.625 17691. undefined -35.460 141.32 -0.10628 690.00 0.0014493 -35.460 141.32 -0.10628 1.4626 1.9914 1979.9 -0.0073694 766.53 0.20751 690.00 0.0014493 -35.460 141.32 -0.10628 1.4626 1.9914 1979.9 -0.0073694 766.53 0.20751
-87.625 17978. undefined -33.996 145.65 -0.098370 690.00 0.0014493 -33.996 145.65 -0.098370 1.4652 1.9925 1981.8 -0.0073656 762.66 0.20782 690.00 0.0014493 -33.996 145.65 -0.098370 1.4652 1.9925 1981.8 -0.0073656 762.66 0.20782
-86.625 18265. undefined -32.530 149.98 -0.090487 690.00 0.0014493 -32.530 149.98 -0.090487 1.4677 1.9936 1983.6 -0.0073618 758.86 0.20813 690.00 0.0014493 -32.530 149.98 -0.090487 1.4677 1.9936 1983.6 -0.0073618 758.86 0.20813
-85.625 18550. undefined -31.061 154.30 -0.082632 690.00 0.0014493 -31.061 154.30 -0.082632 1.4703 1.9948 1985.5 -0.0073578 755.11 0.20843 690.00 0.0014493 -31.061 154.30 -0.082632 1.4703 1.9948 1985.5 -0.0073578 755.11 0.20843
-84.625 18835. undefined -29.589 158.62 -0.074805 690.00 0.0014493 -29.589 158.62 -0.074805 1.4729 1.9960 1987.3 -0.0073538 751.43 0.20874 690.00 0.0014493 -29.589 158.62 -0.074805 1.4729 1.9960 1987.3 -0.0073538 751.43 0.20874
-83.625 19119. undefined -28.115 162.93 -0.067007 690.00 0.0014493 -28.115 162.93 -0.067007 1.4755 1.9972 1989.2 -0.0073496 747.81 0.20905 690.00 0.0014493 -28.115 162.93 -0.067007 1.4755 1.9972 1989.2 -0.0073496 747.81 0.20905
-82.625 19403. undefined -26.638 167.24 -0.059235 690.00 0.0014493 -26.638 167.24 -0.059235 1.4781 1.9984 1991.0 -0.0073454 744.25 0.20936 690.00 0.0014493 -26.638 167.24 -0.059235 1.4781 1.9984 1991.0 -0.0073454 744.25 0.20936
-81.625 19686. undefined -25.159 171.55 -0.051490 690.00 0.0014493 -25.159 171.55 -0.051490 1.4807 1.9997 1992.8 -0.0073411 740.74 0.20967 690.00 0.0014493 -25.159 171.55 -0.051490 1.4807 1.9997 1992.8 -0.0073411 740.74 0.20967
-80.625 19968. undefined -23.677 175.85 -0.043772 690.00 0.0014493 -23.677 175.85 -0.043772 1.4834 2.0009 1994.6 -0.0073367 737.29 0.20998 690.00 0.0014493 -23.677 175.85 -0.043772 1.4834 2.0009 1994.6 -0.0073367 737.29 0.20998
-79.625 20249. undefined -22.192 180.15 -0.036081 690.00 0.0014493 -22.192 180.15 -0.036081 1.4860 2.0023 1996.3 -0.0073321 733.89 0.21028 690.00 0.0014493 -22.192 180.15 -0.036081 1.4860 2.0023 1996.3 -0.0073321 733.89 0.21028
-78.625 20530. undefined -20.704 184.44 -0.028415 690.00 0.0014493 -20.704 184.44 -0.028415 1.4887 2.0036 1998.1 -0.0073275 730.55 0.21059 690.00 0.0014493 -20.704 184.44 -0.028415 1.4887 2.0036 1998.1 -0.0073275 730.55 0.21059
-77.625 20810. undefined -19.214 188.73 -0.020774 690.00 0.0014493 -19.214 188.73 -0.020774 1.4914 2.0050 1999.9 -0.0073228 727.26 0.21090 690.00 0.0014493 -19.214 188.73 -0.020774 1.4914 2.0050 1999.9 -0.0073228 727.26 0.21090
-76.625 21090. undefined -17.722 193.01 -0.013159 690.00 0.0014493 -17.722 193.01 -0.013159 1.4941 2.0063 2001.6 -0.0073180 724.03 0.21121 690.00 0.0014493 -17.722 193.01 -0.013159 1.4941 2.0063 2001.6 -0.0073180 724.03 0.21121
-75.625 21368. undefined -16.226 197.29 -0.0055688 690.00 0.0014493 -16.226 197.29 -0.0055688 1.4968 2.0078 2003.3 -0.0073132 720.84 0.21152 690.00 0.0014493 -16.226 197.29 -0.0055688 1.4968 2.0078 2003.3 -0.0073132 720.84 0.21152
-74.625 21646. undefined -14.728 201.57 0.0019970 690.00 0.0014493 -14.728 201.57 0.0019970 1.4996 2.0092 2005.0 -0.0073082 717.70 0.21183 690.00 0.0014493 -14.728 201.57 0.0019970 1.4996 2.0092 2005.0 -0.0073082 717.70 0.21183
-73.625 21924. undefined -13.227 205.84 0.0095386 690.00 0.0014493 -13.227 205.84 0.0095386 1.5023 2.0107 2006.8 -0.0073031 714.61 0.21215 690.00 0.0014493 -13.227 205.84 0.0095386 1.5023 2.0107 2006.8 -0.0073031 714.61 0.21215
-72.625 22201. undefined -11.723 210.11 0.017056 690.00 0.0014493 -11.723 210.11 0.017056 1.5051 2.0122 2008.4 -0.0072980 711.57 0.21246 690.00 0.0014493 -11.723 210.11 0.017056 1.5051 2.0122 2008.4 -0.0072980 711.57 0.21246
-71.625 22477. undefined -10.217 214.38 0.024551 690.00 0.0014493 -10.217 214.38 0.024551 1.5079 2.0137 2010.1 -0.0072927 708.57 0.21277 690.00 0.0014493 -10.217 214.38 0.024551 1.5079 2.0137 2010.1 -0.0072927 708.57 0.21277
-70.625 22752. undefined -8.7074 218.64 0.032021 690.00 0.0014493 -8.7074 218.64 0.032021 1.5107 2.0152 2011.8 -0.0072874 705.62 0.21308 690.00 0.0014493 -8.7074 218.64 0.032021 1.5107 2.0152 2011.8 -0.0072874 705.62 0.21308
-69.625 23027. undefined -7.1953 222.90 0.039470 690.00 0.0014493 -7.1953 222.90 0.039470 1.5135 2.0168 2013.5 -0.0072820 702.71 0.21339 690.00 0.0014493 -7.1953 222.90 0.039470 1.5135 2.0168 2013.5 -0.0072820 702.71 0.21339
-68.625 23301. undefined -5.6803 227.15 0.046895 690.00 0.0014493 -5.6803 227.15 0.046895 1.5164 2.0184 2015.1 -0.0072765 699.85 0.21370 690.00 0.0014493 -5.6803 227.15 0.046895 1.5164 2.0184 2015.1 -0.0072765 699.85 0.21370
-67.625 23575. undefined -4.1625 231.40 0.054298 690.00 0.0014493 -4.1625 231.40 0.054298 1.5193 2.0200 2016.7 -0.0072709 697.02 0.21402 690.00 0.0014493 -4.1625 231.40 0.054298 1.5193 2.0200 2016.7 -0.0072709 697.02 0.21402
-66.625 23848. undefined -2.6418 235.65 0.061679 690.00 0.0014493 -2.6418 235.65 0.061679 1.5221 2.0217 2018.4 -0.0072652 694.24 0.21433 690.00 0.0014493 -2.6418 235.65 0.061679 1.5221 2.0217 2018.4 -0.0072652 694.24 0.21433
-65.625 24120. undefined -1.1182 239.90 0.069039 690.00 0.0014493 -1.1182 239.90 0.069039 1.5250 2.0233 2020.0 -0.0072594 691.50 0.21464 690.00 0.0014493 -1.1182 239.90 0.069039 1.5250 2.0233 2020.0 -0.0072594 691.50 0.21464
-64.625 24391. undefined 0.40823 244.14 0.076376 690.00 0.0014493 0.40823 244.14 0.076376 1.5279 2.0250 2021.6 -0.0072536 688.80 0.21496 690.00 0.0014493 0.40823 244.14 0.076376 1.5279 2.0250 2021.6 -0.0072536 688.80 0.21496
-63.625 24662. undefined 1.9376 248.37 0.083693 690.00 0.0014493 1.9376 248.37 0.083693 1.5309 2.0267 2023.2 -0.0072476 686.14 0.21527 690.00 0.0014493 1.9376 248.37 0.083693 1.5309 2.0267 2023.2 -0.0072476 686.14 0.21527
-62.625 24933. undefined 3.4699 252.61 0.090989 690.00 0.0014493 3.4699 252.61 0.090989 1.5338 2.0285 2024.8 -0.0072416 683.52 0.21558 690.00 0.0014493 3.4699 252.61 0.090989 1.5338 2.0285 2024.8 -0.0072416 683.52 0.21558
-61.625 25203. undefined 5.0052 256.84 0.098265 690.00 0.0014493 5.0052 256.84 0.098265 1.5368 2.0303 2026.4 -0.0072355 680.94 0.21590 690.00 0.0014493 5.0052 256.84 0.098265 1.5368 2.0303 2026.4 -0.0072355 680.94 0.21590
-60.625 25472. undefined 6.5435 261.07 0.10552 690.00 0.0014493 6.5435 261.07 0.10552 1.5397 2.0321 2027.9 -0.0072293 678.39 0.21621 690.00 0.0014493 6.5435 261.07 0.10552 1.5397 2.0321 2027.9 -0.0072293 678.39 0.21621
-59.625 25740. undefined 8.0847 265.29 0.11275 690.00 0.0014493 8.0847 265.29 0.11275 1.5427 2.0339 2029.5 -0.0072230 675.88 0.21653 690.00 0.0014493 8.0847 265.29 0.11275 1.5427 2.0339 2029.5 -0.0072230 675.88 0.21653
-58.625 26008. undefined 9.6290 269.52 0.11997 690.00 0.0014493 9.6290 269.52 0.11997 1.5457 2.0357 2031.0 -0.0072167 673.41 0.21684 690.00 0.0014493 9.6290 269.52 0.11997 1.5457 2.0357 2031.0 -0.0072167 673.41 0.21684
-57.625 26276. undefined 11.176 273.73 0.12717 690.00 0.0014493 11.176 273.73 0.12717 1.5488 2.0376 2032.6 -0.0072103 670.97 0.21716 690.00 0.0014493 11.176 273.73 0.12717 1.5488 2.0376 2032.6 -0.0072103 670.97 0.21716
-56.625 26543. undefined 12.727 277.95 0.13434 690.00 0.0014493 12.727 277.95 0.13434 1.5518 2.0395 2034.1 -0.0072037 668.56 0.21748 690.00 0.0014493 12.727 277.95 0.13434 1.5518 2.0395 2034.1 -0.0072037 668.56 0.21748
-55.625 26809. undefined 14.280 282.16 0.14150 690.00 0.0014493 14.280 282.16 0.14150 1.5549 2.0414 2035.6 -0.0071972 666.19 0.21779 690.00 0.0014493 14.280 282.16 0.14150 1.5549 2.0414 2035.6 -0.0071972 666.19 0.21779
-54.625 27074. undefined 15.836 286.37 0.14864 690.00 0.0014493 15.836 286.37 0.14864 1.5580 2.0434 2037.1 -0.0071905 663.85 0.21811 690.00 0.0014493 15.836 286.37 0.14864 1.5580 2.0434 2037.1 -0.0071905 663.85 0.21811
-53.625 27339. undefined 17.396 290.58 0.15576 690.00 0.0014493 17.396 290.58 0.15576 1.5611 2.0454 2038.6 -0.0071837 661.54 0.21842 690.00 0.0014493 17.396 290.58 0.15576 1.5611 2.0454 2038.6 -0.0071837 661.54 0.21842
-52.625 27604. undefined 18.958 294.79 0.16286 690.00 0.0014493 18.958 294.79 0.16286 1.5642 2.0474 2040.1 -0.0071769 659.27 0.21874 690.00 0.0014493 18.958 294.79 0.16286 1.5642 2.0474 2040.1 -0.0071769 659.27 0.21874
-51.625 27868. undefined 20.524 298.99 0.16994 690.00 0.0014493 20.524 298.99 0.16994 1.5673 2.0494 2041.6 -0.0071700 657.02 0.21906 690.00 0.0014493 20.524 298.99 0.16994 1.5673 2.0494 2041.6 -0.0071700 657.02 0.21906
-50.625 28131. undefined 22.093 303.19 0.17701 690.00 0.0014493 22.093 303.19 0.17701 1.5705 2.0514 2043.1 -0.0071631 654.81 0.21938 690.00 0.0014493 22.093 303.19 0.17701 1.5705 2.0514 2043.1 -0.0071631 654.81 0.21938
-49.625 28394. undefined 23.665 307.39 0.18406 690.00 0.0014493 23.665 307.39 0.18406 1.5736 2.0535 2044.5 -0.0071560 652.62 0.21969 690.00 0.0014493 23.665 307.39 0.18406 1.5736 2.0535 2044.5 -0.0071560 652.62 0.21969
-48.625 28656. undefined 25.240 311.58 0.19109 690.00 0.0014493 25.240 311.58 0.19109 1.5768 2.0556 2046.0 -0.0071489 650.47 0.22001 690.00 0.0014493 25.240 311.58 0.19109 1.5768 2.0556 2046.0 -0.0071489 650.47 0.22001
-47.625 28917. undefined 26.819 315.77 0.19811 690.00 0.0014493 26.819 315.77 0.19811 1.5800 2.0577 2047.5 -0.0071417 648.34 0.22033 690.00 0.0014493 26.819 315.77 0.19811 1.5800 2.0577 2047.5 -0.0071417 648.34 0.22033
-46.625 29179. undefined 28.400 319.96 0.20510 690.00 0.0014493 28.400 319.96 0.20510 1.5832 2.0599 2048.9 -0.0071345 646.25 0.22065 690.00 0.0014493 28.400 319.96 0.20510 1.5832 2.0599 2048.9 -0.0071345 646.25 0.22065
-45.625 29439. undefined 29.985 324.15 0.21208 690.00 0.0014493 29.985 324.15 0.21208 1.5864 2.0620 2050.3 -0.0071271 644.18 0.22097 690.00 0.0014493 29.985 324.15 0.21208 1.5864 2.0620 2050.3 -0.0071271 644.18 0.22097
-44.625 29699. undefined 31.573 328.34 0.21905 690.00 0.0014493 31.573 328.34 0.21905 1.5897 2.0642 2051.8 -0.0071197 642.14 0.22129 690.00 0.0014493 31.573 328.34 0.21905 1.5897 2.0642 2051.8 -0.0071197 642.14 0.22129
-43.625 29958. undefined 33.164 332.52 0.22600 690.00 0.0014493 33.164 332.52 0.22600 1.5929 2.0664 2053.2 -0.0071123 640.12 0.22161 690.00 0.0014493 33.164 332.52 0.22600 1.5929 2.0664 2053.2 -0.0071123 640.12 0.22161
-42.625 30217. undefined 34.759 336.70 0.23293 690.00 0.0014493 34.759 336.70 0.23293 1.5962 2.0687 2054.6 -0.0071047 638.13 0.22193 690.00 0.0014493 34.759 336.70 0.23293 1.5962 2.0687 2054.6 -0.0071047 638.13 0.22193
-41.625 30475. undefined 36.357 340.88 0.23984 690.00 0.0014493 36.357 340.88 0.23984 1.5995 2.0709 2056.0 -0.0070971 636.17 0.22225 690.00 0.0014493 36.357 340.88 0.23984 1.5995 2.0709 2056.0 -0.0070971 636.17 0.22225
-40.625 30733. undefined 37.958 345.06 0.24675 690.00 0.0014493 37.958 345.06 0.24675 1.6028 2.0732 2057.4 -0.0070895 634.24 0.22257 690.00 0.0014493 37.958 345.06 0.24675 1.6028 2.0732 2057.4 -0.0070895 634.24 0.22257
-39.625 30990. undefined 39.563 349.23 0.25363 690.00 0.0014493 39.563 349.23 0.25363 1.6061 2.0755 2058.8 -0.0070818 632.32 0.22289 690.00 0.0014493 39.563 349.23 0.25363 1.6061 2.0755 2058.8 -0.0070818 632.32 0.22289
-38.625 31247. undefined 41.170 353.40 0.26050 690.00 0.0014493 41.170 353.40 0.26050 1.6095 2.0778 2060.1 -0.0070740 630.44 0.22321 690.00 0.0014493 41.170 353.40 0.26050 1.6095 2.0778 2060.1 -0.0070740 630.44 0.22321
-37.625 31503. undefined 42.782 357.58 0.26736 690.00 0.0014493 42.782 357.58 0.26736 1.6128 2.0802 2061.5 -0.0070661 628.57 0.22353 690.00 0.0014493 42.782 357.58 0.26736 1.6128 2.0802 2061.5 -0.0070661 628.57 0.22353
-36.625 31759. undefined 44.396 361.74 0.27420 690.00 0.0014493 44.396 361.74 0.27420 1.6162 2.0826 2062.9 -0.0070582 626.73 0.22385 690.00 0.0014493 44.396 361.74 0.27420 1.6162 2.0826 2062.9 -0.0070582 626.73 0.22385
-35.625 32014. undefined 46.014 365.91 0.28102 690.00 0.0014493 46.014 365.91 0.28102 1.6196 2.0850 2064.2 -0.0070502 624.92 0.22418 690.00 0.0014493 46.014 365.91 0.28102 1.6196 2.0850 2064.2 -0.0070502 624.92 0.22418
-34.625 32269. undefined 47.635 370.08 0.28783 690.00 0.0014493 47.635 370.08 0.28783 1.6230 2.0874 2065.6 -0.0070422 623.13 0.22450 690.00 0.0014493 47.635 370.08 0.28783 1.6230 2.0874 2065.6 -0.0070422 623.13 0.22450
-33.625 32523. undefined 49.260 374.24 0.29463 690.00 0.0014493 49.260 374.24 0.29463 1.6264 2.0898 2066.9 -0.0070341 621.36 0.22482 690.00 0.0014493 49.260 374.24 0.29463 1.6264 2.0898 2066.9 -0.0070341 621.36 0.22482
-32.625 32776. undefined 50.888 378.40 0.30141 690.00 0.0014493 50.888 378.40 0.30141 1.6299 2.0923 2068.3 -0.0070260 619.61 0.22514 690.00 0.0014493 50.888 378.40 0.30141 1.6299 2.0923 2068.3 -0.0070260 619.61 0.22514
-31.625 33029. undefined 52.520 382.56 0.30818 690.00 0.0014493 52.520 382.56 0.30818 1.6333 2.0948 2069.6 -0.0070178 617.88 0.22547 690.00 0.0014493 52.520 382.56 0.30818 1.6333 2.0948 2069.6 -0.0070178 617.88 0.22547
-30.625 33282. undefined 54.155 386.72 0.31494 690.00 0.0014493 54.155 386.72 0.31494 1.6368 2.0973 2070.9 -0.0070095 616.18 0.22579 690.00 0.0014493 54.155 386.72 0.31494 1.6368 2.0973 2070.9 -0.0070095 616.18 0.22579
-29.625 33534. undefined 55.793 390.88 0.32168 690.00 0.0014493 55.793 390.88 0.32168 1.6402 2.0998 2072.3 -0.0070012 614.50 0.22611 690.00 0.0014493 55.793 390.88 0.32168 1.6402 2.0998 2072.3 -0.0070012 614.50 0.22611
-28.625 33785. undefined 57.435 395.03 0.32841 690.00 0.0014493 57.435 395.03 0.32841 1.6437 2.1023 2073.6 -0.0069929 612.83 0.22644 690.00 0.0014493 57.435 395.03 0.32841 1.6437 2.1023 2073.6 -0.0069929 612.83 0.22644
-27.625 34036. undefined 59.081 399.19 0.33513 690.00 0.0014493 59.081 399.19 0.33513 1.6472 2.1049 2074.9 -0.0069845 611.19 0.22676 690.00 0.0014493 59.081 399.19 0.33513 1.6472 2.1049 2074.9 -0.0069845 611.19 0.22676
-26.625 34287. undefined 60.730 403.34 0.34183 690.00 0.0014493 60.730 403.34 0.34183 1.6508 2.1075 2076.2 -0.0069760 609.57 0.22709 690.00 0.0014493 60.730 403.34 0.34183 1.6508 2.1075 2076.2 -0.0069760 609.57 0.22709
-25.625 34537. undefined 62.382 407.49 0.34852 690.00 0.0014493 62.382 407.49 0.34852 1.6543 2.1101 2077.5 -0.0069675 607.97 0.22741 690.00 0.0014493 62.382 407.49 0.34852 1.6543 2.1101 2077.5 -0.0069675 607.97 0.22741
-24.625 34787. undefined 64.038 411.64 0.35520 690.00 0.0014493 64.038 411.64 0.35520 1.6578 2.1127 2078.8 -0.0069589 606.38 0.22774 690.00 0.0014493 64.038 411.64 0.35520 1.6578 2.1127 2078.8 -0.0069589 606.38 0.22774
-23.625 35036. undefined 65.698 415.79 0.36186 690.00 0.0014493 65.698 415.79 0.36186 1.6614 2.1154 2080.1 -0.0069503 604.82 0.22806 690.00 0.0014493 65.698 415.79 0.36186 1.6614 2.1154 2080.1 -0.0069503 604.82 0.22806
-22.625 35284. undefined 67.361 419.94 0.36851 690.00 0.0014493 67.361 419.94 0.36851 1.6650 2.1180 2081.3 -0.0069417 603.28 0.22839 690.00 0.0014493 67.361 419.94 0.36851 1.6650 2.1180 2081.3 -0.0069417 603.28 0.22839
-21.625 35532. undefined 69.028 424.08 0.37515 690.00 0.0014493 69.028 424.08 0.37515 1.6686 2.1207 2082.6 -0.0069330 601.75 0.22871 690.00 0.0014493 69.028 424.08 0.37515 1.6686 2.1207 2082.6 -0.0069330 601.75 0.22871
-20.625 35780. undefined 70.698 428.23 0.38178 690.00 0.0014493 70.698 428.23 0.38178 1.6722 2.1234 2083.9 -0.0069242 600.24 0.22904 690.00 0.0014493 70.698 428.23 0.38178 1.6722 2.1234 2083.9 -0.0069242 600.24 0.22904
-19.625 36027. undefined 72.372 432.37 0.38840 690.00 0.0014493 72.372 432.37 0.38840 1.6758 2.1261 2085.1 -0.0069154 598.75 0.22937 690.00 0.0014493 72.372 432.37 0.38840 1.6758 2.1261 2085.1 -0.0069154 598.75 0.22937
-18.625 36274. undefined 74.050 436.51 0.39500 690.00 0.0014493 74.050 436.51 0.39500 1.6794 2.1289 2086.4 -0.0069066 597.28 0.22969 690.00 0.0014493 74.050 436.51 0.39500 1.6794 2.1289 2086.4 -0.0069066 597.28 0.22969
-17.625 36520. undefined 75.731 440.65 0.40159 690.00 0.0014493 75.731 440.65 0.40159 1.6830 2.1316 2087.6 -0.0068978 595.83 0.23002 690.00 0.0014493 75.731 440.65 0.40159 1.6830 2.1316 2087.6 -0.0068978 595.83 0.23002
-16.625 36766. undefined 77.416 444.79 0.40817 690.00 0.0014493 77.416 444.79 0.40817 1.6867 2.1344 2088.9 -0.0068889 594.39 0.23035 690.00 0.0014493 77.416 444.79 0.40817 1.6867 2.1344 2088.9 -0.0068889 594.39 0.23035
-15.625 37011. undefined 79.104 448.93 0.41474 690.00 0.0014493 79.104 448.93 0.41474 1.6904 2.1372 2090.1 -0.0068799 592.97 0.23068 690.00 0.0014493 79.104 448.93 0.41474 1.6904 2.1372 2090.1 -0.0068799 592.97 0.23068
-14.625 37256. undefined 80.797 453.07 0.42130 690.00 0.0014493 80.797 453.07 0.42130 1.6940 2.1400 2091.4 -0.0068709 591.56 0.23100 690.00 0.0014493 80.797 453.07 0.42130 1.6940 2.1400 2091.4 -0.0068709 591.56 0.23100
-13.625 37500. undefined 82.492 457.21 0.42785 690.00 0.0014493 82.492 457.21 0.42785 1.6977 2.1429 2092.6 -0.0068619 590.18 0.23133 690.00 0.0014493 82.492 457.21 0.42785 1.6977 2.1429 2092.6 -0.0068619 590.18 0.23133
-12.625 37744. undefined 84.192 461.35 0.43438 690.00 0.0014493 84.192 461.35 0.43438 1.7014 2.1457 2093.8 -0.0068529 588.80 0.23166 690.00 0.0014493 84.192 461.35 0.43438 1.7014 2.1457 2093.8 -0.0068529 588.80 0.23166
-11.625 37988. undefined 85.895 465.48 0.44091 690.00 0.0014493 85.895 465.48 0.44091 1.7051 2.1486 2095.0 -0.0068438 587.45 0.23199 690.00 0.0014493 85.895 465.48 0.44091 1.7051 2.1486 2095.0 -0.0068438 587.45 0.23199
-10.625 38231. undefined 87.602 469.62 0.44742 690.00 0.0014493 87.602 469.62 0.44742 1.7089 2.1515 2096.3 -0.0068346 586.11 0.23232 690.00 0.0014493 87.602 469.62 0.44742 1.7089 2.1515 2096.3 -0.0068346 586.11 0.23232
-9.6250 38473. undefined 89.313 473.75 0.45393 690.00 0.0014493 89.313 473.75 0.45393 1.7126 2.1544 2097.5 -0.0068255 584.78 0.23265 690.00 0.0014493 89.313 473.75 0.45393 1.7126 2.1544 2097.5 -0.0068255 584.78 0.23265
-8.6250 38715. undefined 91.027 477.89 0.46042 690.00 0.0014493 91.027 477.89 0.46042 1.7164 2.1573 2098.7 -0.0068163 583.47 0.23298 690.00 0.0014493 91.027 477.89 0.46042 1.7164 2.1573 2098.7 -0.0068163 583.47 0.23298
-7.6250 38957. undefined 92.746 482.02 0.46690 690.00 0.0014493 92.746 482.02 0.46690 1.7201 2.1602 2099.9 -0.0068071 582.18 0.23331 690.00 0.0014493 92.746 482.02 0.46690 1.7201 2.1602 2099.9 -0.0068071 582.18 0.23331
-6.6250 39198. undefined 94.468 486.15 0.47338 690.00 0.0014493 94.468 486.15 0.47338 1.7239 2.1632 2101.1 -0.0067978 580.90 0.23364 690.00 0.0014493 94.468 486.15 0.47338 1.7239 2.1632 2101.1 -0.0067978 580.90 0.23364
-5.6250 39439. undefined 96.194 490.28 0.47984 690.00 0.0014493 96.194 490.28 0.47984 1.7277 2.1662 2102.3 -0.0067885 579.63 0.23397 690.00 0.0014493 96.194 490.28 0.47984 1.7277 2.1662 2102.3 -0.0067885 579.63 0.23397
-4.6250 39679. undefined 97.923 494.41 0.48629 690.00 0.0014493 97.923 494.41 0.48629 1.7315 2.1692 2103.5 -0.0067792 578.38 0.23430 690.00 0.0014493 97.923 494.41 0.48629 1.7315 2.1692 2103.5 -0.0067792 578.38 0.23430
-3.6250 39919. undefined 99.656 498.54 0.49274 690.00 0.0014493 99.656 498.54 0.49274 1.7353 2.1722 2104.7 -0.0067699 577.14 0.23463 690.00 0.0014493 99.656 498.54 0.49274 1.7353 2.1722 2104.7 -0.0067699 577.14 0.23463
-2.6250 40159. undefined 101.39 502.67 0.49917 690.00 0.0014493 101.39 502.67 0.49917 1.7391 2.1752 2105.8 -0.0067605 575.92 0.23496 690.00 0.0014493 101.39 502.67 0.49917 1.7391 2.1752 2105.8 -0.0067605 575.92 0.23496
-1.6250 40398. undefined 103.13 506.80 0.50559 690.00 0.0014493 103.13 506.80 0.50559 1.7429 2.1782 2107.0 -0.0067512 574.71 0.23530 690.00 0.0014493 103.13 506.80 0.50559 1.7429 2.1782 2107.0 -0.0067512 574.71 0.23530
-0.62500 40636. undefined 104.88 510.93 0.51201 690.00 0.0014493 104.88 510.93 0.51201 1.7468 2.1813 2108.2 -0.0067418 573.51 0.23563 690.00 0.0014493 104.88 510.93 0.51201 1.7468 2.1813 2108.2 -0.0067418 573.51 0.23563
0.37500 40874. undefined 106.63 515.06 0.51841 690.00 0.0014493 106.63 515.06 0.51841 1.7506 2.1843 2109.4 -0.0067323 572.33 0.23596 690.00 0.0014493 106.63 515.06 0.51841 1.7506 2.1843 2109.4 -0.0067323 572.33 0.23596
1.3750 41112. undefined 108.38 519.19 0.52481 690.00 0.0014493 108.38 519.19 0.52481 1.7545 2.1874 2110.5 -0.0067229 571.16 0.23629 690.00 0.0014493 108.38 519.19 0.52481 1.7545 2.1874 2110.5 -0.0067229 571.16 0.23629
2.3750 41349. undefined 110.14 523.32 0.53120 690.00 0.0014493 110.14 523.32 0.53120 1.7583 2.1905 2111.7 -0.0067134 570.00 0.23663 690.00 0.0014493 110.14 523.32 0.53120 1.7583 2.1905 2111.7 -0.0067134 570.00 0.23663
3.3750 41586. undefined 111.90 527.45 0.53757 690.00 0.0014493 111.90 527.45 0.53757 1.7622 2.1936 2112.9 -0.0067039 568.85 0.23696 690.00 0.0014493 111.90 527.45 0.53757 1.7622 2.1936 2112.9 -0.0067039 568.85 0.23696
4.3750 41823. undefined 113.66 531.57 0.54394 690.00 0.0014493 113.66 531.57 0.54394 1.7661 2.1967 2114.0 -0.0066944 567.72 0.23729 690.00 0.0014493 113.66 531.57 0.54394 1.7661 2.1967 2114.0 -0.0066944 567.72 0.23729
5.3750 42059. undefined 115.43 535.70 0.55030 690.00 0.0014493 115.43 535.70 0.55030 1.7700 2.1999 2115.2 -0.0066849 566.60 0.23763 690.00 0.0014493 115.43 535.70 0.55030 1.7700 2.1999 2115.2 -0.0066849 566.60 0.23763
6.3750 42295. undefined 117.20 539.83 0.55665 690.00 0.0014493 117.20 539.83 0.55665 1.7739 2.2030 2116.3 -0.0066753 565.49 0.23796 690.00 0.0014493 117.20 539.83 0.55665 1.7739 2.2030 2116.3 -0.0066753 565.49 0.23796
7.3750 42530. undefined 118.98 543.95 0.56299 690.00 0.0014493 118.98 543.95 0.56299 1.7778 2.2062 2117.5 -0.0066657 564.40 0.23830 690.00 0.0014493 118.98 543.95 0.56299 1.7778 2.2062 2117.5 -0.0066657 564.40 0.23830
8.3750 42765. undefined 120.76 548.08 0.56933 690.00 0.0014493 120.76 548.08 0.56933 1.7817 2.2094 2118.6 -0.0066561 563.31 0.23863 690.00 0.0014493 120.76 548.08 0.56933 1.7817 2.2094 2118.6 -0.0066561 563.31 0.23863
9.3750 42999. undefined 122.54 552.21 0.57565 690.00 0.0014493 122.54 552.21 0.57565 1.7857 2.2126 2119.7 -0.0066465 562.24 0.23897 690.00 0.0014493 122.54 552.21 0.57565 1.7857 2.2126 2119.7 -0.0066465 562.24 0.23897
10.375 43233. undefined 124.33 556.33 0.58197 690.00 0.0014493 124.33 556.33 0.58197 1.7896 2.2158 2120.9 -0.0066369 561.18 0.23930 690.00 0.0014493 124.33 556.33 0.58197 1.7896 2.2158 2120.9 -0.0066369 561.18 0.23930
11.375 43467. undefined 126.12 560.46 0.58827 690.00 0.0014493 126.12 560.46 0.58827 1.7935 2.2190 2122.0 -0.0066273 560.13 0.23964 690.00 0.0014493 126.12 560.46 0.58827 1.7935 2.2190 2122.0 -0.0066273 560.13 0.23964
12.375 43700. undefined 127.92 564.59 0.59457 690.00 0.0014493 127.92 564.59 0.59457 1.7975 2.2222 2123.1 -0.0066177 559.09 0.23997 690.00 0.0014493 127.92 564.59 0.59457 1.7975 2.2222 2123.1 -0.0066177 559.09 0.23997
13.375 43933. undefined 129.71 568.71 0.60086 690.00 0.0014493 129.71 568.71 0.60086 1.8015 2.2255 2124.3 -0.0066080 558.06 0.24031 690.00 0.0014493 129.71 568.71 0.60086 1.8015 2.2255 2124.3 -0.0066080 558.06 0.24031
14.375 44166. undefined 131.52 572.84 0.60715 690.00 0.0014493 131.52 572.84 0.60715 1.8054 2.2287 2125.4 -0.0065983 557.04 0.24065 690.00 0.0014493 131.52 572.84 0.60715 1.8054 2.2287 2125.4 -0.0065983 557.04 0.24065
15.375 44398. undefined 133.33 576.97 0.61342 690.00 0.0014493 133.33 576.97 0.61342 1.8094 2.2320 2126.5 -0.0065887 556.04 0.24098 690.00 0.0014493 133.33 576.97 0.61342 1.8094 2.2320 2126.5 -0.0065887 556.04 0.24098
16.375 44629. undefined 135.14 581.09 0.61969 690.00 0.0014493 135.14 581.09 0.61969 1.8134 2.2353 2127.6 -0.0065790 555.04 0.24132 690.00 0.0014493 135.14 581.09 0.61969 1.8134 2.2353 2127.6 -0.0065790 555.04 0.24132
17.375 44861. undefined 136.95 585.22 0.62595 690.00 0.0014493 136.95 585.22 0.62595 1.8174 2.2386 2128.7 -0.0065693 554.06 0.24166 690.00 0.0014493 136.95 585.22 0.62595 1.8174 2.2386 2128.7 -0.0065693 554.06 0.24166
18.375 45092. undefined 138.77 589.35 0.63220 690.00 0.0014493 138.77 589.35 0.63220 1.8214 2.2419 2129.8 -0.0065596 553.08 0.24200 690.00 0.0014493 138.77 589.35 0.63220 1.8214 2.2419 2129.8 -0.0065596 553.08 0.24200
19.375 45322. undefined 140.60 593.47 0.63845 690.00 0.0014493 140.60 593.47 0.63845 1.8254 2.2452 2131.0 -0.0065499 552.12 0.24233 690.00 0.0014493 140.60 593.47 0.63845 1.8254 2.2452 2131.0 -0.0065499 552.12 0.24233
20.375 45552. undefined 142.42 597.60 0.64468 690.00 0.0014493 142.42 597.60 0.64468 1.8294 2.2486 2132.1 -0.0065401 551.16 0.24267 690.00 0.0014493 142.42 597.60 0.64468 1.8294 2.2486 2132.1 -0.0065401 551.16 0.24267
21.375 45782. undefined 144.25 601.73 0.65091 690.00 0.0014493 144.25 601.73 0.65091 1.8335 2.2519 2133.2 -0.0065304 550.21 0.24301 690.00 0.0014493 144.25 601.73 0.65091 1.8335 2.2519 2133.2 -0.0065304 550.21 0.24301
22.375 46012. undefined 146.09 605.86 0.65713 690.00 0.0014493 146.09 605.86 0.65713 1.8375 2.2553 2134.3 -0.0065207 549.28 0.24335 690.00 0.0014493 146.09 605.86 0.65713 1.8375 2.2553 2134.3 -0.0065207 549.28 0.24335
23.375 46241. undefined 147.93 609.98 0.66335 690.00 0.0014493 147.93 609.98 0.66335 1.8415 2.2586 2135.4 -0.0065110 548.35 0.24369 690.00 0.0014493 147.93 609.98 0.66335 1.8415 2.2586 2135.4 -0.0065110 548.35 0.24369
24.375 46469. undefined 149.77 614.11 0.66955 690.00 0.0014493 149.77 614.11 0.66955 1.8456 2.2620 2136.4 -0.0065012 547.44 0.24403 690.00 0.0014493 149.77 614.11 0.66955 1.8456 2.2620 2136.4 -0.0065012 547.44 0.24403
25.375 46698. undefined 151.62 618.24 0.67575 690.00 0.0014493 151.62 618.24 0.67575 1.8496 2.2654 2137.5 -0.0064915 546.53 0.24437 690.00 0.0014493 151.62 618.24 0.67575 1.8496 2.2654 2137.5 -0.0064915 546.53 0.24437
26.375 46926. undefined 153.47 622.37 0.68194 690.00 0.0014493 153.47 622.37 0.68194 1.8537 2.2688 2138.6 -0.0064817 545.63 0.24471 690.00 0.0014493 153.47 622.37 0.68194 1.8537 2.2688 2138.6 -0.0064817 545.63 0.24471
27.375 47153. undefined 155.33 626.50 0.68813 690.00 0.0014493 155.33 626.50 0.68813 1.8577 2.2722 2139.7 -0.0064720 544.74 0.24505 690.00 0.0014493 155.33 626.50 0.68813 1.8577 2.2722 2139.7 -0.0064720 544.74 0.24505
28.375 47380. undefined 157.19 630.63 0.69431 690.00 0.0014493 157.19 630.63 0.69431 1.8618 2.2756 2140.8 -0.0064622 543.86 0.24539 690.00 0.0014493 157.19 630.63 0.69431 1.8618 2.2756 2140.8 -0.0064622 543.86 0.24539
29.375 47607. undefined 159.05 634.76 0.70048 690.00 0.0014493 159.05 634.76 0.70048 1.8659 2.2790 2141.9 -0.0064525 542.99 0.24573 690.00 0.0014493 159.05 634.76 0.70048 1.8659 2.2790 2141.9 -0.0064525 542.99 0.24573
30.375 47834. undefined 160.92 638.89 0.70664 690.00 0.0014493 160.92 638.89 0.70664 1.8700 2.2825 2142.9 -0.0064427 542.13 0.24607 690.00 0.0014493 160.92 638.89 0.70664 1.8700 2.2825 2142.9 -0.0064427 542.13 0.24607
31.375 48060. undefined 162.79 643.02 0.71280 690.00 0.0014493 162.79 643.02 0.71280 1.8741 2.2859 2144.0 -0.0064330 541.27 0.24641 690.00 0.0014493 162.79 643.02 0.71280 1.8741 2.2859 2144.0 -0.0064330 541.27 0.24641
32.375 48285. undefined 164.67 647.16 0.71895 690.00 0.0014493 164.67 647.16 0.71895 1.8782 2.2894 2145.1 -0.0064232 540.43 0.24676 690.00 0.0014493 164.67 647.16 0.71895 1.8782 2.2894 2145.1 -0.0064232 540.43 0.24676
33.375 48511. undefined 166.55 651.29 0.72510 690.00 0.0014493 166.55 651.29 0.72510 1.8823 2.2928 2146.2 -0.0064135 539.59 0.24710 690.00 0.0014493 166.55 651.29 0.72510 1.8823 2.2928 2146.2 -0.0064135 539.59 0.24710
34.375 48736. undefined 168.43 655.42 0.73123 690.00 0.0014493 168.43 655.42 0.73123 1.8864 2.2963 2147.2 -0.0064037 538.76 0.24744 690.00 0.0014493 168.43 655.42 0.73123 1.8864 2.2963 2147.2 -0.0064037 538.76 0.24744
35.375 48961. undefined 170.32 659.55 0.73736 690.00 0.0014493 170.32 659.55 0.73736 1.8905 2.2998 2148.3 -0.0063940 537.94 0.24778 690.00 0.0014493 170.32 659.55 0.73736 1.8905 2.2998 2148.3 -0.0063940 537.94 0.24778
36.375 49185. undefined 172.21 663.69 0.74349 690.00 0.0014493 172.21 663.69 0.74349 1.8946 2.3033 2149.4 -0.0063843 537.13 0.24813 690.00 0.0014493 172.21 663.69 0.74349 1.8946 2.3033 2149.4 -0.0063843 537.13 0.24813
37.375 49409. undefined 174.11 667.82 0.74961 690.00 0.0014493 174.11 667.82 0.74961 1.8987 2.3068 2150.4 -0.0063745 536.32 0.24847 690.00 0.0014493 174.11 667.82 0.74961 1.8987 2.3068 2150.4 -0.0063745 536.32 0.24847
38.375 49633. undefined 176.01 671.96 0.75572 690.00 0.0014493 176.01 671.96 0.75572 1.9028 2.3103 2151.5 -0.0063648 535.52 0.24881 690.00 0.0014493 176.01 671.96 0.75572 1.9028 2.3103 2151.5 -0.0063648 535.52 0.24881
39.375 49856. undefined 177.92 676.10 0.76182 690.00 0.0014493 177.92 676.10 0.76182 1.9070 2.3138 2152.5 -0.0063551 534.73 0.24916 690.00 0.0014493 177.92 676.10 0.76182 1.9070 2.3138 2152.5 -0.0063551 534.73 0.24916
40.375 50079. undefined 179.82 680.23 0.76792 690.00 0.0014493 179.82 680.23 0.76792 1.9111 2.3173 2153.6 -0.0063454 533.95 0.24950 690.00 0.0014493 179.82 680.23 0.76792 1.9111 2.3173 2153.6 -0.0063454 533.95 0.24950
41.375 50301. undefined 181.74 684.37 0.77401 690.00 0.0014493 181.74 684.37 0.77401 1.9152 2.3209 2154.6 -0.0063356 533.18 0.24985 690.00 0.0014493 181.74 684.37 0.77401 1.9152 2.3209 2154.6 -0.0063356 533.18 0.24985
42.375 50524. undefined 183.65 688.51 0.78010 690.00 0.0014493 183.65 688.51 0.78010 1.9194 2.3244 2155.7 -0.0063259 532.41 0.25019 690.00 0.0014493 183.65 688.51 0.78010 1.9194 2.3244 2155.7 -0.0063259 532.41 0.25019
43.375 50746. undefined 185.58 692.65 0.78618 690.00 0.0014493 185.58 692.65 0.78618 1.9235 2.3279 2156.7 -0.0063162 531.65 0.25053 690.00 0.0014493 185.58 692.65 0.78618 1.9235 2.3279 2156.7 -0.0063162 531.65 0.25053
44.375 50967. undefined 187.50 696.79 0.79225 690.00 0.0014493 187.50 696.79 0.79225 1.9277 2.3315 2157.8 -0.0063065 530.90 0.25088 690.00 0.0014493 187.50 696.79 0.79225 1.9277 2.3315 2157.8 -0.0063065 530.90 0.25088
45.375 51189. undefined 189.43 700.93 0.79832 690.00 0.0014493 189.43 700.93 0.79832 1.9318 2.3351 2158.8 -0.0062969 530.15 0.25123 690.00 0.0014493 189.43 700.93 0.79832 1.9318 2.3351 2158.8 -0.0062969 530.15 0.25123
46.375 51409. undefined 191.37 705.07 0.80438 690.00 0.0014493 191.37 705.07 0.80438 1.9360 2.3386 2159.9 -0.0062872 529.42 0.25157 690.00 0.0014493 191.37 705.07 0.80438 1.9360 2.3386 2159.9 -0.0062872 529.42 0.25157
47.375 51630. undefined 193.30 709.21 0.81044 690.00 0.0014493 193.30 709.21 0.81044 1.9401 2.3422 2160.9 -0.0062775 528.69 0.25192 690.00 0.0014493 193.30 709.21 0.81044 1.9401 2.3422 2160.9 -0.0062775 528.69 0.25192
48.375 51850. undefined 195.25 713.35 0.81649 690.00 0.0014493 195.25 713.35 0.81649 1.9443 2.3458 2161.9 -0.0062679 527.96 0.25226 690.00 0.0014493 195.25 713.35 0.81649 1.9443 2.3458 2161.9 -0.0062679 527.96 0.25226
49.375 52070. undefined 197.19 717.50 0.82253 690.00 0.0014493 197.19 717.50 0.82253 1.9485 2.3494 2163.0 -0.0062582 527.25 0.25261 690.00 0.0014493 197.19 717.50 0.82253 1.9485 2.3494 2163.0 -0.0062582 527.25 0.25261
50.375 52290. undefined 199.14 721.64 0.82857 690.00 0.0014493 199.14 721.64 0.82857 1.9527 2.3530 2164.0 -0.0062486 526.53 0.25296 690.00 0.0014493 199.14 721.64 0.82857 1.9527 2.3530 2164.0 -0.0062486 526.53 0.25296
51.375 52509. undefined 201.10 725.79 0.83460 690.00 0.0014493 201.10 725.79 0.83460 1.9568 2.3566 2165.0 -0.0062389 525.83 0.25331 690.00 0.0014493 201.10 725.79 0.83460 1.9568 2.3566 2165.0 -0.0062389 525.83 0.25331
52.375 52728. undefined 203.06 729.94 0.84063 690.00 0.0014493 203.06 729.94 0.84063 1.9610 2.3602 2166.1 -0.0062293 525.13 0.25365 690.00 0.0014493 203.06 729.94 0.84063 1.9610 2.3602 2166.1 -0.0062293 525.13 0.25365
53.375 52947. undefined 205.02 734.08 0.84665 690.00 0.0014493 205.02 734.08 0.84665 1.9652 2.3638 2167.1 -0.0062197 524.44 0.25400 690.00 0.0014493 205.02 734.08 0.84665 1.9652 2.3638 2167.1 -0.0062197 524.44 0.25400
54.375 53165. undefined 206.99 738.23 0.85267 690.00 0.0014493 206.99 738.23 0.85267 1.9694 2.3674 2168.1 -0.0062101 523.76 0.25435 690.00 0.0014493 206.99 738.23 0.85267 1.9694 2.3674 2168.1 -0.0062101 523.76 0.25435
55.375 53383. undefined 208.96 742.38 0.85868 690.00 0.0014493 208.96 742.38 0.85868 1.9736 2.3711 2169.1 -0.0062006 523.08 0.25470 690.00 0.0014493 208.96 742.38 0.85868 1.9736 2.3711 2169.1 -0.0062006 523.08 0.25470
56.375 53601. undefined 210.93 746.53 0.86468 690.00 0.0014493 210.93 746.53 0.86468 1.9778 2.3747 2170.1 -0.0061910 522.41 0.25505 690.00 0.0014493 210.93 746.53 0.86468 1.9778 2.3747 2170.1 -0.0061910 522.41 0.25505
57.375 53818. undefined 212.91 750.69 0.87068 690.00 0.0014493 212.91 750.69 0.87068 1.9819 2.3783 2171.2 -0.0061814 521.75 0.25540 690.00 0.0014493 212.91 750.69 0.87068 1.9819 2.3783 2171.2 -0.0061814 521.75 0.25540
58.375 54035. undefined 214.90 754.84 0.87668 690.00 0.0014493 214.90 754.84 0.87668 1.9861 2.3820 2172.2 -0.0061719 521.09 0.25575 690.00 0.0014493 214.90 754.84 0.87668 1.9861 2.3820 2172.2 -0.0061719 521.09 0.25575
59.375 54252. undefined 216.89 758.99 0.88266 690.00 0.0014493 216.89 758.99 0.88266 1.9903 2.3856 2173.2 -0.0061624 520.43 0.25610 690.00 0.0014493 216.89 758.99 0.88266 1.9903 2.3856 2173.2 -0.0061624 520.43 0.25610
60.375 54468. undefined 218.88 763.15 0.88865 690.00 0.0014493 218.88 763.15 0.88865 1.9945 2.3893 2174.2 -0.0061529 519.79 0.25645 690.00 0.0014493 218.88 763.15 0.88865 1.9945 2.3893 2174.2 -0.0061529 519.79 0.25645
61.375 54685. undefined 220.88 767.30 0.89462 690.00 0.0014493 220.88 767.30 0.89462 1.9987 2.3930 2175.2 -0.0061434 519.14 0.25680 690.00 0.0014493 220.88 767.30 0.89462 1.9987 2.3930 2175.2 -0.0061434 519.14 0.25680
62.375 54900. undefined 222.88 771.46 0.90060 690.00 0.0014493 222.88 771.46 0.90060 2.0029 2.3966 2176.2 -0.0061339 518.51 0.25715 690.00 0.0014493 222.88 771.46 0.90060 2.0029 2.3966 2176.2 -0.0061339 518.51 0.25715
63.375 55116. undefined 224.88 775.62 0.90656 690.00 0.0014493 224.88 775.62 0.90656 2.0072 2.4003 2177.2 -0.0061244 517.88 0.25750 690.00 0.0014493 224.88 775.62 0.90656 2.0072 2.4003 2177.2 -0.0061244 517.88 0.25750
64.375 55331. undefined 226.89 779.78 0.91253 690.00 0.0014493 226.89 779.78 0.91253 2.0114 2.4040 2178.2 -0.0061150 517.26 0.25785 690.00 0.0014493 226.89 779.78 0.91253 2.0114 2.4040 2178.2 -0.0061150 517.26 0.25785
65.375 55546. undefined 228.90 783.94 0.91848 690.00 0.0014493 228.90 783.94 0.91848 2.0156 2.4076 2179.2 -0.0061055 516.64 0.25820 690.00 0.0014493 228.90 783.94 0.91848 2.0156 2.4076 2179.2 -0.0061055 516.64 0.25820
66.375 55761. undefined 230.92 788.10 0.92443 690.00 0.0014493 230.92 788.10 0.92443 2.0198 2.4113 2180.2 -0.0060961 516.02 0.25855 690.00 0.0014493 230.92 788.10 0.92443 2.0198 2.4113 2180.2 -0.0060961 516.02 0.25855
67.375 55975. undefined 232.94 792.27 0.93038 690.00 0.0014493 232.94 792.27 0.93038 2.0240 2.4150 2181.2 -0.0060867 515.42 0.25890 690.00 0.0014493 232.94 792.27 0.93038 2.0240 2.4150 2181.2 -0.0060867 515.42 0.25890
68.375 56189. undefined 234.97 796.43 0.93632 690.00 0.0014493 234.97 796.43 0.93632 2.0282 2.4187 2182.2 -0.0060773 514.82 0.25926 690.00 0.0014493 234.97 796.43 0.93632 2.0282 2.4187 2182.2 -0.0060773 514.82 0.25926
69.375 56403. undefined 237.00 800.60 0.94226 690.00 0.0014493 237.00 800.60 0.94226 2.0324 2.4224 2183.2 -0.0060680 514.22 0.25961 690.00 0.0014493 237.00 800.60 0.94226 2.0324 2.4224 2183.2 -0.0060680 514.22 0.25961
70.375 56616. undefined 239.03 804.76 0.94819 690.00 0.0014493 239.03 804.76 0.94819 2.0366 2.4261 2184.2 -0.0060586 513.63 0.25996 690.00 0.0014493 239.03 804.76 0.94819 2.0366 2.4261 2184.2 -0.0060586 513.63 0.25996
71.375 56829. undefined 241.07 808.93 0.95411 690.00 0.0014493 241.07 808.93 0.95411 2.0409 2.4298 2185.2 -0.0060493 513.04 0.26032 690.00 0.0014493 241.07 808.93 0.95411 2.0409 2.4298 2185.2 -0.0060493 513.04 0.26032
72.375 57042. undefined 243.12 813.10 0.96004 690.00 0.0014493 243.12 813.10 0.96004 2.0451 2.4335 2186.2 -0.0060400 512.46 0.26067 690.00 0.0014493 243.12 813.10 0.96004 2.0451 2.4335 2186.2 -0.0060400 512.46 0.26067
73.375 57254. undefined 245.16 817.27 0.96595 690.00 0.0014493 245.16 817.27 0.96595 2.0493 2.4372 2187.2 -0.0060307 511.89 0.26102 690.00 0.0014493 245.16 817.27 0.96595 2.0493 2.4372 2187.2 -0.0060307 511.89 0.26102
74.375 57467. undefined 247.21 821.44 0.97186 690.00 0.0014493 247.21 821.44 0.97186 2.0535 2.4410 2188.2 -0.0060214 511.32 0.26138 690.00 0.0014493 247.21 821.44 0.97186 2.0535 2.4410 2188.2 -0.0060214 511.32 0.26138
75.375 57679. undefined 249.27 825.62 0.97777 690.00 0.0014493 249.27 825.62 0.97777 2.0577 2.4447 2189.2 -0.0060121 510.75 0.26173 690.00 0.0014493 249.27 825.62 0.97777 2.0577 2.4447 2189.2 -0.0060121 510.75 0.26173
76.375 57890. undefined 251.33 829.79 0.98367 690.00 0.0014493 251.33 829.79 0.98367 2.0620 2.4484 2190.2 -0.0060029 510.19 0.26209 690.00 0.0014493 251.33 829.79 0.98367 2.0620 2.4484 2190.2 -0.0060029 510.19 0.26209
77.375 58102. undefined 253.39 833.97 0.98957 690.00 0.0014493 253.39 833.97 0.98957 2.0662 2.4521 2191.2 -0.0059937 509.63 0.26244 690.00 0.0014493 253.39 833.97 0.98957 2.0662 2.4521 2191.2 -0.0059937 509.63 0.26244
78.375 58313. undefined 255.46 838.15 0.99546 690.00 0.0014493 255.46 838.15 0.99546 2.0704 2.4559 2192.2 -0.0059845 509.08 0.26280 690.00 0.0014493 255.46 838.15 0.99546 2.0704 2.4559 2192.2 -0.0059845 509.08 0.26280
79.375 58523. undefined 257.53 842.32 1.0013 690.00 0.0014493 257.53 842.32 1.0013 2.0746 2.4596 2193.1 -0.0059753 508.54 0.26315 690.00 0.0014493 257.53 842.32 1.0013 2.0746 2.4596 2193.1 -0.0059753 508.54 0.26315
80.375 58734. undefined 259.61 846.50 1.0072 690.00 0.0014493 259.61 846.50 1.0072 2.0788 2.4633 2194.1 -0.0059661 508.00 0.26351 690.00 0.0014493 259.61 846.50 1.0072 2.0788 2.4633 2194.1 -0.0059661 508.00 0.26351
81.375 58944. undefined 261.69 850.69 1.0131 690.00 0.0014493 261.69 850.69 1.0131 2.0831 2.4671 2195.1 -0.0059570 507.46 0.26386 690.00 0.0014493 261.69 850.69 1.0131 2.0831 2.4671 2195.1 -0.0059570 507.46 0.26386
82.375 59154. undefined 263.78 854.87 1.0190 690.00 0.0014493 263.78 854.87 1.0190 2.0873 2.4708 2196.1 -0.0059479 506.93 0.26422 690.00 0.0014493 263.78 854.87 1.0190 2.0873 2.4708 2196.1 -0.0059479 506.93 0.26422
83.375 59364. undefined 265.87 859.05 1.0249 690.00 0.0014493 265.87 859.05 1.0249 2.0915 2.4745 2197.1 -0.0059388 506.40 0.26458 690.00 0.0014493 265.87 859.05 1.0249 2.0915 2.4745 2197.1 -0.0059388 506.40 0.26458
84.375 59573. undefined 267.96 863.24 1.0307 690.00 0.0014493 267.96 863.24 1.0307 2.0957 2.4783 2198.0 -0.0059297 505.88 0.26493 690.00 0.0014493 267.96 863.24 1.0307 2.0957 2.4783 2198.0 -0.0059297 505.88 0.26493
85.375 59782. undefined 270.06 867.43 1.0366 690.00 0.0014493 270.06 867.43 1.0366 2.1000 2.4820 2199.0 -0.0059207 505.36 0.26529 690.00 0.0014493 270.06 867.43 1.0366 2.1000 2.4820 2199.0 -0.0059207 505.36 0.26529
86.375 59991. undefined 272.16 871.61 1.0424 690.00 0.0014493 272.16 871.61 1.0424 2.1042 2.4858 2200.0 -0.0059116 504.84 0.26565 690.00 0.0014493 272.16 871.61 1.0424 2.1042 2.4858 2200.0 -0.0059116 504.84 0.26565
87.375 60200. undefined 274.27 875.81 1.0483 690.00 0.0014493 274.27 875.81 1.0483 2.1084 2.4895 2200.9 -0.0059026 504.34 0.26601 690.00 0.0014493 274.27 875.81 1.0483 2.1084 2.4895 2200.9 -0.0059026 504.34 0.26601
88.375 60408. undefined 276.38 880.00 1.0541 690.00 0.0014493 276.38 880.00 1.0541 2.1126 2.4933 2201.9 -0.0058936 503.83 0.26636 690.00 0.0014493 276.38 880.00 1.0541 2.1126 2.4933 2201.9 -0.0058936 503.83 0.26636
89.375 60616. undefined 278.49 884.19 1.0600 690.00 0.0014493 278.49 884.19 1.0600 2.1169 2.4970 2202.9 -0.0058846 503.33 0.26672 690.00 0.0014493 278.49 884.19 1.0600 2.1169 2.4970 2202.9 -0.0058846 503.33 0.26672
90.375 60824. undefined 280.61 888.38 1.0658 690.00 0.0014493 280.61 888.38 1.0658 2.1211 2.5008 2203.8 -0.0058757 502.83 0.26708 690.00 0.0014493 280.61 888.38 1.0658 2.1211 2.5008 2203.8 -0.0058757 502.83 0.26708
91.375 61031. undefined 282.73 892.58 1.0716 690.00 0.0014493 282.73 892.58 1.0716 2.1253 2.5046 2204.8 -0.0058668 502.34 0.26744 690.00 0.0014493 282.73 892.58 1.0716 2.1253 2.5046 2204.8 -0.0058668 502.34 0.26744
92.375 61238. undefined 284.86 896.78 1.0775 690.00 0.0014493 284.86 896.78 1.0775 2.1295 2.5083 2205.8 -0.0058579 501.85 0.26780 690.00 0.0014493 284.86 896.78 1.0775 2.1295 2.5083 2205.8 -0.0058579 501.85 0.26780
93.375 61445. undefined 286.99 900.98 1.0833 690.00 0.0014493 286.99 900.98 1.0833 2.1337 2.5121 2206.7 -0.0058490 501.37 0.26816 690.00 0.0014493 286.99 900.98 1.0833 2.1337 2.5121 2206.7 -0.0058490 501.37 0.26816
94.375 61652. undefined 289.13 905.18 1.0891 690.00 0.0014493 289.13 905.18 1.0891 2.1380 2.5158 2207.7 -0.0058401 500.89 0.26852 690.00 0.0014493 289.13 905.18 1.0891 2.1380 2.5158 2207.7 -0.0058401 500.89 0.26852
95.375 61858. undefined 291.27 909.38 1.0949 690.00 0.0014493 291.27 909.38 1.0949 2.1422 2.5196 2208.7 -0.0058313 500.41 0.26888 690.00 0.0014493 291.27 909.38 1.0949 2.1422 2.5196 2208.7 -0.0058313 500.41 0.26888
96.375 62064. undefined 293.41 913.58 1.1007 690.00 0.0014493 293.41 913.58 1.1007 2.1464 2.5234 2209.6 -0.0058225 499.94 0.26924 690.00 0.0014493 293.41 913.58 1.1007 2.1464 2.5234 2209.6 -0.0058225 499.94 0.26924
97.375 62270. undefined 295.56 917.79 1.1065 690.00 0.0014493 295.56 917.79 1.1065 2.1506 2.5271 2210.6 -0.0058137 499.47 0.26960 690.00 0.0014493 295.56 917.79 1.1065 2.1506 2.5271 2210.6 -0.0058137 499.47 0.26960
98.375 62476. undefined 297.71 922.00 1.1123 690.00 0.0014493 297.71 922.00 1.1123 2.1548 2.5309 2211.5 -0.0058049 499.01 0.26996 690.00 0.0014493 297.71 922.00 1.1123 2.1548 2.5309 2211.5 -0.0058049 499.01 0.26996
99.375 62681. undefined 299.87 926.21 1.1181 690.00 0.0014493 299.87 926.21 1.1181 2.1590 2.5347 2212.5 -0.0057962 498.55 0.27032 690.00 0.0014493 299.87 926.21 1.1181 2.1590 2.5347 2212.5 -0.0057962 498.55 0.27032
100.38 62886. undefined 302.03 930.42 1.1239 690.00 0.0014493 302.03 930.42 1.1239 2.1633 2.5384 2213.4 -0.0057874 498.09 0.27069 690.00 0.0014493 302.03 930.42 1.1239 2.1633 2.5384 2213.4 -0.0057874 498.09 0.27069
101.38 63091. undefined 304.20 934.63 1.1297 690.00 0.0014493 304.20 934.63 1.1297 2.1675 2.5422 2214.4 -0.0057787 497.64 0.27105 690.00 0.0014493 304.20 934.63 1.1297 2.1675 2.5422 2214.4 -0.0057787 497.64 0.27105
102.38 63295. undefined 306.37 938.84 1.1355 690.00 0.0014493 306.37 938.84 1.1355 2.1717 2.5460 2215.3 -0.0057701 497.19 0.27141 690.00 0.0014493 306.37 938.84 1.1355 2.1717 2.5460 2215.3 -0.0057701 497.19 0.27141
103.38 63500. undefined 308.54 943.06 1.1413 690.00 0.0014493 308.54 943.06 1.1413 2.1759 2.5498 2216.3 -0.0057614 496.74 0.27177 690.00 0.0014493 308.54 943.06 1.1413 2.1759 2.5498 2216.3 -0.0057614 496.74 0.27177
104.38 63704. undefined 310.72 947.27 1.1471 690.00 0.0014493 310.72 947.27 1.1471 2.1801 2.5535 2217.2 -0.0057528 496.30 0.27214 690.00 0.0014493 310.72 947.27 1.1471 2.1801 2.5535 2217.2 -0.0057528 496.30 0.27214
105.38 63908. undefined 312.90 951.49 1.1528 690.00 0.0014493 312.90 951.49 1.1528 2.1843 2.5573 2218.2 -0.0057442 495.86 0.27250 690.00 0.0014493 312.90 951.49 1.1528 2.1843 2.5573 2218.2 -0.0057442 495.86 0.27250
106.38 64111. undefined 315.09 955.71 1.1586 690.00 0.0014493 315.09 955.71 1.1586 2.1885 2.5611 2219.1 -0.0057356 495.43 0.27286 690.00 0.0014493 315.09 955.71 1.1586 2.1885 2.5611 2219.1 -0.0057356 495.43 0.27286
107.38 64314. undefined 317.28 959.93 1.1644 690.00 0.0014493 317.28 959.93 1.1644 2.1927 2.5648 2220.1 -0.0057270 495.00 0.27323 690.00 0.0014493 317.28 959.93 1.1644 2.1927 2.5648 2220.1 -0.0057270 495.00 0.27323
108.38 64517. undefined 319.47 964.16 1.1701 690.00 0.0014493 319.47 964.16 1.1701 2.1969 2.5686 2221.0 -0.0057185 494.57 0.27359 690.00 0.0014493 319.47 964.16 1.1701 2.1969 2.5686 2221.0 -0.0057185 494.57 0.27359
109.38 64720. undefined 321.67 968.38 1.1759 690.00 0.0014493 321.67 968.38 1.1759 2.2011 2.5724 2222.0 -0.0057100 494.14 0.27395 690.00 0.0014493 321.67 968.38 1.1759 2.2011 2.5724 2222.0 -0.0057100 494.14 0.27395
110.38 64923. undefined 323.88 972.61 1.1816 690.00 0.0014493 323.88 972.61 1.1816 2.2053 2.5762 2222.9 -0.0057015 493.72 0.27432 690.00 0.0014493 323.88 972.61 1.1816 2.2053 2.5762 2222.9 -0.0057015 493.72 0.27432
111.38 65125. undefined 326.08 976.84 1.1874 690.00 0.0014493 326.08 976.84 1.1874 2.2095 2.5799 2223.8 -0.0056931 493.31 0.27468 690.00 0.0014493 326.08 976.84 1.1874 2.2095 2.5799 2223.8 -0.0056931 493.31 0.27468
112.38 65327. undefined 328.29 981.07 1.1931 690.00 0.0014493 328.29 981.07 1.1931 2.2137 2.5837 2224.8 -0.0056846 492.89 0.27505 690.00 0.0014493 328.29 981.07 1.1931 2.2137 2.5837 2224.8 -0.0056846 492.89 0.27505
113.38 65529. undefined 330.51 985.30 1.1989 690.00 0.0014493 330.51 985.30 1.1989 2.2179 2.5875 2225.7 -0.0056762 492.48 0.27541 690.00 0.0014493 330.51 985.30 1.1989 2.2179 2.5875 2225.7 -0.0056762 492.48 0.27541
114.38 65730. undefined 332.73 989.53 1.2046 690.00 0.0014493 332.73 989.53 1.2046 2.2221 2.5913 2226.7 -0.0056678 492.07 0.27578 690.00 0.0014493 332.73 989.53 1.2046 2.2221 2.5913 2226.7 -0.0056678 492.07 0.27578
115.38 65932. undefined 334.95 993.77 1.2103 690.00 0.0014493 334.95 993.77 1.2103 2.2262 2.5950 2227.6 -0.0056595 491.67 0.27615 690.00 0.0014493 334.95 993.77 1.2103 2.2262 2.5950 2227.6 -0.0056595 491.67 0.27615
116.38 66133. undefined 337.18 998.01 1.2161 690.00 0.0014493 337.18 998.01 1.2161 2.2304 2.5988 2228.5 -0.0056511 491.27 0.27651 690.00 0.0014493 337.18 998.01 1.2161 2.2304 2.5988 2228.5 -0.0056511 491.27 0.27651
117.38 66334. undefined 339.42 1002.2 1.2218 690.00 0.0014493 339.42 1002.2 1.2218 2.2346 2.6026 2229.5 -0.0056428 490.87 0.27688 690.00 0.0014493 339.42 1002.2 1.2218 2.2346 2.6026 2229.5 -0.0056428 490.87 0.27688
118.38 66534. undefined 341.65 1006.5 1.2275 690.00 0.0014493 341.65 1006.5 1.2275 2.2388 2.6063 2230.4 -0.0056345 490.48 0.27725 690.00 0.0014493 341.65 1006.5 1.2275 2.2388 2.6063 2230.4 -0.0056345 490.48 0.27725
119.38 66734. undefined 343.89 1010.7 1.2332 690.00 0.0014493 343.89 1010.7 1.2332 2.2430 2.6101 2231.3 -0.0056263 490.09 0.27761 690.00 0.0014493 343.89 1010.7 1.2332 2.2430 2.6101 2231.3 -0.0056263 490.09 0.27761
120.38 66934. undefined 346.14 1015.0 1.2389 690.00 0.0014493 346.14 1015.0 1.2389 2.2471 2.6139 2232.2 -0.0056180 489.70 0.27798 690.00 0.0014493 346.14 1015.0 1.2389 2.2471 2.6139 2232.2 -0.0056180 489.70 0.27798
121.38 67134. undefined 348.39 1019.2 1.2446 690.00 0.0014493 348.39 1019.2 1.2446 2.2513 2.6176 2233.2 -0.0056098 489.31 0.27835 690.00 0.0014493 348.39 1019.2 1.2446 2.2513 2.6176 2233.2 -0.0056098 489.31 0.27835
122.38 67334. undefined 350.64 1023.5 1.2504 690.00 0.0014493 350.64 1023.5 1.2504 2.2555 2.6214 2234.1 -0.0056016 488.93 0.27872 690.00 0.0014493 350.64 1023.5 1.2504 2.2555 2.6214 2234.1 -0.0056016 488.93 0.27872
123.38 67533. undefined 352.90 1027.7 1.2561 690.00 0.0014493 352.90 1027.7 1.2561 2.2596 2.6252 2235.0 -0.0055935 488.55 0.27909 690.00 0.0014493 352.90 1027.7 1.2561 2.2596 2.6252 2235.0 -0.0055935 488.55 0.27909
124.38 67732. undefined 355.16 1032.0 1.2617 690.00 0.0014493 355.16 1032.0 1.2617 2.2638 2.6289 2236.0 -0.0055853 488.17 0.27945 690.00 0.0014493 355.16 1032.0 1.2617 2.2638 2.6289 2236.0 -0.0055853 488.17 0.27945
125.38 67931. undefined 357.43 1036.2 1.2674 690.00 0.0014493 357.43 1036.2 1.2674 2.2679 2.6327 2236.9 -0.0055772 487.80 0.27982 690.00 0.0014493 357.43 1036.2 1.2674 2.2679 2.6327 2236.9 -0.0055772 487.80 0.27982
126.38 68130. undefined 359.70 1040.5 1.2731 690.00 0.0014493 359.70 1040.5 1.2731 2.2721 2.6365 2237.8 -0.0055691 487.43 0.28019 690.00 0.0014493 359.70 1040.5 1.2731 2.2721 2.6365 2237.8 -0.0055691 487.43 0.28019
127.38 68328. undefined 361.97 1044.7 1.2788 690.00 0.0014493 361.97 1044.7 1.2788 2.2763 2.6402 2238.7 -0.0055611 487.06 0.28056 690.00 0.0014493 361.97 1044.7 1.2788 2.2763 2.6402 2238.7 -0.0055611 487.06 0.28056
128.38 68527. undefined 364.25 1049.0 1.2845 690.00 0.0014493 364.25 1049.0 1.2845 2.2804 2.6440 2239.6 -0.0055530 486.70 0.28093 690.00 0.0014493 364.25 1049.0 1.2845 2.2804 2.6440 2239.6 -0.0055530 486.70 0.28093
129.38 68725. undefined 366.53 1053.3 1.2902 690.00 0.0014493 366.53 1053.3 1.2902 2.2846 2.6478 2240.6 -0.0055450 486.34 0.28130 690.00 0.0014493 366.53 1053.3 1.2902 2.2846 2.6478 2240.6 -0.0055450 486.34 0.28130
130.38 68922. undefined 368.82 1057.5 1.2958 690.00 0.0014493 368.82 1057.5 1.2958 2.2887 2.6515 2241.5 -0.0055370 485.98 0.28167 690.00 0.0014493 368.82 1057.5 1.2958 2.2887 2.6515 2241.5 -0.0055370 485.98 0.28167
131.38 69120. undefined 371.11 1061.8 1.3015 690.00 0.0014493 371.11 1061.8 1.3015 2.2928 2.6553 2242.4 -0.0055291 485.62 0.28204 690.00 0.0014493 371.11 1061.8 1.3015 2.2928 2.6553 2242.4 -0.0055291 485.62 0.28204
132.38 69317. undefined 373.40 1066.0 1.3072 690.00 0.0014493 373.40 1066.0 1.3072 2.2970 2.6590 2243.3 -0.0055211 485.27 0.28241 690.00 0.0014493 373.40 1066.0 1.3072 2.2970 2.6590 2243.3 -0.0055211 485.27 0.28241
133.38 69514. undefined 375.70 1070.3 1.3128 690.00 0.0014493 375.70 1070.3 1.3128 2.3011 2.6628 2244.2 -0.0055132 484.92 0.28279 690.00 0.0014493 375.70 1070.3 1.3128 2.3011 2.6628 2244.2 -0.0055132 484.92 0.28279
134.38 69711. undefined 378.01 1074.6 1.3185 690.00 0.0014493 378.01 1074.6 1.3185 2.3052 2.6665 2245.1 -0.0055053 484.57 0.28316 690.00 0.0014493 378.01 1074.6 1.3185 2.3052 2.6665 2245.1 -0.0055053 484.57 0.28316
135.38 69908. undefined 380.31 1078.9 1.3242 690.00 0.0014493 380.31 1078.9 1.3242 2.3094 2.6703 2246.1 -0.0054975 484.22 0.28353 690.00 0.0014493 380.31 1078.9 1.3242 2.3094 2.6703 2246.1 -0.0054975 484.22 0.28353
136.38 70104. undefined 382.62 1083.1 1.3298 690.00 0.0014493 382.62 1083.1 1.3298 2.3135 2.6740 2247.0 -0.0054896 483.88 0.28390 690.00 0.0014493 382.62 1083.1 1.3298 2.3135 2.6740 2247.0 -0.0054896 483.88 0.28390
137.38 70300. undefined 384.94 1087.4 1.3355 690.00 0.0014493 384.94 1087.4 1.3355 2.3176 2.6778 2247.9 -0.0054818 483.54 0.28427 690.00 0.0014493 384.94 1087.4 1.3355 2.3176 2.6778 2247.9 -0.0054818 483.54 0.28427
138.38 70496. undefined 387.26 1091.7 1.3411 690.00 0.0014493 387.26 1091.7 1.3411 2.3217 2.6815 2248.8 -0.0054740 483.20 0.28465 690.00 0.0014493 387.26 1091.7 1.3411 2.3217 2.6815 2248.8 -0.0054740 483.20 0.28465
139.38 70692. undefined 389.58 1096.0 1.3467 690.00 0.0014493 389.58 1096.0 1.3467 2.3259 2.6853 2249.7 -0.0054663 482.87 0.28502 690.00 0.0014493 389.58 1096.0 1.3467 2.3259 2.6853 2249.7 -0.0054663 482.87 0.28502
140.38 70887. undefined 391.91 1100.2 1.3524 690.00 0.0014493 391.91 1100.2 1.3524 2.3300 2.6890 2250.6 -0.0054585 482.53 0.28539 690.00 0.0014493 391.91 1100.2 1.3524 2.3300 2.6890 2250.6 -0.0054585 482.53 0.28539
141.38 71082. undefined 394.24 1104.5 1.3580 690.00 0.0014493 394.24 1104.5 1.3580 2.3341 2.6928 2251.5 -0.0054508 482.20 0.28577 690.00 0.0014493 394.24 1104.5 1.3580 2.3341 2.6928 2251.5 -0.0054508 482.20 0.28577
142.38 71277. undefined 396.58 1108.8 1.3636 690.00 0.0014493 396.58 1108.8 1.3636 2.3382 2.6965 2252.4 -0.0054432 481.88 0.28614 690.00 0.0014493 396.58 1108.8 1.3636 2.3382 2.6965 2252.4 -0.0054432 481.88 0.28614
143.38 71472. undefined 398.92 1113.1 1.3693 690.00 0.0014493 398.92 1113.1 1.3693 2.3423 2.7002 2253.3 -0.0054355 481.55 0.28652 690.00 0.0014493 398.92 1113.1 1.3693 2.3423 2.7002 2253.3 -0.0054355 481.55 0.28652
144.38 71667. undefined 401.26 1117.4 1.3749 690.00 0.0014493 401.26 1117.4 1.3749 2.3464 2.7040 2254.2 -0.0054279 481.23 0.28689 690.00 0.0014493 401.26 1117.4 1.3749 2.3464 2.7040 2254.2 -0.0054279 481.23 0.28689
145.38 71861. undefined 403.61 1121.7 1.3805 690.00 0.0014493 403.61 1121.7 1.3805 2.3505 2.7077 2255.1 -0.0054202 480.91 0.28726 690.00 0.0014493 403.61 1121.7 1.3805 2.3505 2.7077 2255.1 -0.0054202 480.91 0.28726
146.38 72055. undefined 405.96 1126.0 1.3861 690.00 0.0014493 405.96 1126.0 1.3861 2.3546 2.7114 2256.0 -0.0054127 480.59 0.28764 690.00 0.0014493 405.96 1126.0 1.3861 2.3546 2.7114 2256.0 -0.0054127 480.59 0.28764
147.38 72249. undefined 408.32 1130.3 1.3917 690.00 0.0014493 408.32 1130.3 1.3917 2.3586 2.7151 2256.9 -0.0054051 480.28 0.28802 690.00 0.0014493 408.32 1130.3 1.3917 2.3586 2.7151 2256.9 -0.0054051 480.28 0.28802
148.38 72443. undefined 410.68 1134.6 1.3973 690.00 0.0014493 410.68 1134.6 1.3973 2.3627 2.7189 2257.8 -0.0053976 479.96 0.28839 690.00 0.0014493 410.68 1134.6 1.3973 2.3627 2.7189 2257.8 -0.0053976 479.96 0.28839
149.38 72636. undefined 413.05 1138.9 1.4029 690.00 0.0014493 413.05 1138.9 1.4029 2.3668 2.7226 2258.7 -0.0053901 479.65 0.28877 690.00 0.0014493 413.05 1138.9 1.4029 2.3668 2.7226 2258.7 -0.0053901 479.65 0.28877
150.38 72830. undefined 415.42 1143.2 1.4085 690.00 0.0014493 415.42 1143.2 1.4085 2.3709 2.7263 2259.6 -0.0053826 479.34 0.28914 690.00 0.0014493 415.42 1143.2 1.4085 2.3709 2.7263 2259.6 -0.0053826 479.34 0.28914
151.38 73023. undefined 417.79 1147.5 1.4141 690.00 0.0014493 417.79 1147.5 1.4141 2.3749 2.7300 2260.5 -0.0053751 479.04 0.28952 690.00 0.0014493 417.79 1147.5 1.4141 2.3749 2.7300 2260.5 -0.0053751 479.04 0.28952
152.38 73216. undefined 420.17 1151.8 1.4197 690.00 0.0014493 420.17 1151.8 1.4197 2.3790 2.7337 2261.4 -0.0053677 478.73 0.28990 690.00 0.0014493 420.17 1151.8 1.4197 2.3790 2.7337 2261.4 -0.0053677 478.73 0.28990
153.38 73408. undefined 422.55 1156.1 1.4253 690.00 0.0014493 422.55 1156.1 1.4253 2.3831 2.7375 2262.3 -0.0053603 478.43 0.29027 690.00 0.0014493 422.55 1156.1 1.4253 2.3831 2.7375 2262.3 -0.0053603 478.43 0.29027
154.38 73601. undefined 424.93 1160.4 1.4309 690.00 0.0014493 424.93 1160.4 1.4309 2.3871 2.7412 2263.2 -0.0053529 478.13 0.29065 690.00 0.0014493 424.93 1160.4 1.4309 2.3871 2.7412 2263.2 -0.0053529 478.13 0.29065
155.38 73793. undefined 427.32 1164.7 1.4365 690.00 0.0014493 427.32 1164.7 1.4365 2.3912 2.7449 2264.1 -0.0053455 477.83 0.29103 690.00 0.0014493 427.32 1164.7 1.4365 2.3912 2.7449 2264.1 -0.0053455 477.83 0.29103
156.38 73985. undefined 429.71 1169.0 1.4421 690.00 0.0014493 429.71 1169.0 1.4421 2.3952 2.7486 2265.0 -0.0053382 477.54 0.29141 690.00 0.0014493 429.71 1169.0 1.4421 2.3952 2.7486 2265.0 -0.0053382 477.54 0.29141
157.38 74177. undefined 432.11 1173.3 1.4476 690.00 0.0014493 432.11 1173.3 1.4476 2.3993 2.7523 2265.9 -0.0053309 477.25 0.29179 690.00 0.0014493 432.11 1173.3 1.4476 2.3993 2.7523 2265.9 -0.0053309 477.25 0.29179
158.38 74369. undefined 434.51 1177.6 1.4532 690.00 0.0014493 434.51 1177.6 1.4532 2.4033 2.7560 2266.8 -0.0053236 476.96 0.29216 690.00 0.0014493 434.51 1177.6 1.4532 2.4033 2.7560 2266.8 -0.0053236 476.96 0.29216
159.38 74560. undefined 436.92 1182.0 1.4588 690.00 0.0014493 436.92 1182.0 1.4588 2.4074 2.7597 2267.7 -0.0053163 476.67 0.29254 690.00 0.0014493 436.92 1182.0 1.4588 2.4074 2.7597 2267.7 -0.0053163 476.67 0.29254
160.38 74751. undefined 439.33 1186.3 1.4643 690.00 0.0014493 439.33 1186.3 1.4643 2.4114 2.7634 2268.6 -0.0053091 476.38 0.29292 690.00 0.0014493 439.33 1186.3 1.4643 2.4114 2.7634 2268.6 -0.0053091 476.38 0.29292
161.38 74942. undefined 441.74 1190.6 1.4699 690.00 0.0014493 441.74 1190.6 1.4699 2.4154 2.7671 2269.5 -0.0053019 476.10 0.29330 690.00 0.0014493 441.74 1190.6 1.4699 2.4154 2.7671 2269.5 -0.0053019 476.10 0.29330
162.38 75133. undefined 444.16 1194.9 1.4755 690.00 0.0014493 444.16 1194.9 1.4755 2.4194 2.7707 2270.3 -0.0052947 475.81 0.29368 690.00 0.0014493 444.16 1194.9 1.4755 2.4194 2.7707 2270.3 -0.0052947 475.81 0.29368
163.38 75323. undefined 446.58 1199.2 1.4810 690.00 0.0014493 446.58 1199.2 1.4810 2.4235 2.7744 2271.2 -0.0052875 475.53 0.29406 690.00 0.0014493 446.58 1199.2 1.4810 2.4235 2.7744 2271.2 -0.0052875 475.53 0.29406
164.38 75514. undefined 449.01 1203.6 1.4866 690.00 0.0014493 449.01 1203.6 1.4866 2.4275 2.7781 2272.1 -0.0052804 475.25 0.29444 690.00 0.0014493 449.01 1203.6 1.4866 2.4275 2.7781 2272.1 -0.0052804 475.25 0.29444
165.38 75704. undefined 451.43 1207.9 1.4921 690.00 0.0014493 451.43 1207.9 1.4921 2.4315 2.7818 2273.0 -0.0052732 474.98 0.29482 690.00 0.0014493 451.43 1207.9 1.4921 2.4315 2.7818 2273.0 -0.0052732 474.98 0.29482
166.38 75894. undefined 453.87 1212.2 1.4977 690.00 0.0014493 453.87 1212.2 1.4977 2.4355 2.7855 2273.9 -0.0052661 474.70 0.29520 690.00 0.0014493 453.87 1212.2 1.4977 2.4355 2.7855 2273.9 -0.0052661 474.70 0.29520
167.38 76084. undefined 456.31 1216.6 1.5032 690.00 0.0014493 456.31 1216.6 1.5032 2.4395 2.7891 2274.8 -0.0052591 474.43 0.29559 690.00 0.0014493 456.31 1216.6 1.5032 2.4395 2.7891 2274.8 -0.0052591 474.43 0.29559
168.38 76273. undefined 458.75 1220.9 1.5087 690.00 0.0014493 458.75 1220.9 1.5087 2.4435 2.7928 2275.7 -0.0052520 474.16 0.29597 690.00 0.0014493 458.75 1220.9 1.5087 2.4435 2.7928 2275.7 -0.0052520 474.16 0.29597
169.38 76463. undefined 461.19 1225.2 1.5143 690.00 0.0014493 461.19 1225.2 1.5143 2.4475 2.7965 2276.5 -0.0052450 473.89 0.29635 690.00 0.0014493 461.19 1225.2 1.5143 2.4475 2.7965 2276.5 -0.0052450 473.89 0.29635
170.38 76652. undefined 463.64 1229.6 1.5198 690.00 0.0014493 463.64 1229.6 1.5198 2.4515 2.8001 2277.4 -0.0052380 473.63 0.29673 690.00 0.0014493 463.64 1229.6 1.5198 2.4515 2.8001 2277.4 -0.0052380 473.63 0.29673
171.38 76841. undefined 466.10 1233.9 1.5253 690.00 0.0014493 466.10 1233.9 1.5253 2.4555 2.8038 2278.3 -0.0052310 473.36 0.29711 690.00 0.0014493 466.10 1233.9 1.5253 2.4555 2.8038 2278.3 -0.0052310 473.36 0.29711
172.38 77030. undefined 468.55 1238.3 1.5308 690.00 0.0014493 468.55 1238.3 1.5308 2.4595 2.8075 2279.2 -0.0052241 473.10 0.29750 690.00 0.0014493 468.55 1238.3 1.5308 2.4595 2.8075 2279.2 -0.0052241 473.10 0.29750
173.38 77218. undefined 471.01 1242.6 1.5364 690.00 0.0014493 471.01 1242.6 1.5364 2.4634 2.8111 2280.0 -0.0052172 472.84 0.29788 690.00 0.0014493 471.01 1242.6 1.5364 2.4634 2.8111 2280.0 -0.0052172 472.84 0.29788
174.38 77407. undefined 473.48 1247.0 1.5419 690.00 0.0014493 473.48 1247.0 1.5419 2.4674 2.8148 2280.9 -0.0052103 472.58 0.29826 690.00 0.0014493 473.48 1247.0 1.5419 2.4674 2.8148 2280.9 -0.0052103 472.58 0.29826
175.38 77595. undefined 475.95 1251.3 1.5474 690.00 0.0014493 475.95 1251.3 1.5474 2.4714 2.8184 2281.8 -0.0052034 472.32 0.29865 690.00 0.0014493 475.95 1251.3 1.5474 2.4714 2.8184 2281.8 -0.0052034 472.32 0.29865
176.38 77783. undefined 478.42 1255.7 1.5529 690.00 0.0014493 478.42 1255.7 1.5529 2.4753 2.8220 2282.7 -0.0051965 472.07 0.29903 690.00 0.0014493 478.42 1255.7 1.5529 2.4753 2.8220 2282.7 -0.0051965 472.07 0.29903
177.38 77971. undefined 480.90 1260.0 1.5584 690.00 0.0014493 480.90 1260.0 1.5584 2.4793 2.8257 2283.5 -0.0051897 471.81 0.29941 690.00 0.0014493 480.90 1260.0 1.5584 2.4793 2.8257 2283.5 -0.0051897 471.81 0.29941
178.38 78158. undefined 483.38 1264.4 1.5639 690.00 0.0014493 483.38 1264.4 1.5639 2.4833 2.8293 2284.4 -0.0051829 471.56 0.29980 690.00 0.0014493 483.38 1264.4 1.5639 2.4833 2.8293 2284.4 -0.0051829 471.56 0.29980
179.38 78346. undefined 485.87 1268.7 1.5694 690.00 0.0014493 485.87 1268.7 1.5694 2.4872 2.8330 2285.3 -0.0051761 471.31 0.30018 690.00 0.0014493 485.87 1268.7 1.5694 2.4872 2.8330 2285.3 -0.0051761 471.31 0.30018
180.38 78533. undefined 488.36 1273.1 1.5749 690.00 0.0014493 488.36 1273.1 1.5749 2.4911 2.8366 2286.2 -0.0051694 471.06 0.30057 690.00 0.0014493 488.36 1273.1 1.5749 2.4911 2.8366 2286.2 -0.0051694 471.06 0.30057
181.38 78720. undefined 490.85 1277.4 1.5804 690.00 0.0014493 490.85 1277.4 1.5804 2.4951 2.8402 2287.0 -0.0051626 470.82 0.30095 690.00 0.0014493 490.85 1277.4 1.5804 2.4951 2.8402 2287.0 -0.0051626 470.82 0.30095
182.38 78907. undefined 493.35 1281.8 1.5859 690.00 0.0014493 493.35 1281.8 1.5859 2.4990 2.8438 2287.9 -0.0051559 470.57 0.30134 690.00 0.0014493 493.35 1281.8 1.5859 2.4990 2.8438 2287.9 -0.0051559 470.57 0.30134
183.38 79093. undefined 495.85 1286.2 1.5914 690.00 0.0014493 495.85 1286.2 1.5914 2.5029 2.8475 2288.8 -0.0051492 470.33 0.30173 690.00 0.0014493 495.85 1286.2 1.5914 2.5029 2.8475 2288.8 -0.0051492 470.33 0.30173
184.38 79280. undefined 498.35 1290.5 1.5968 690.00 0.0014493 498.35 1290.5 1.5968 2.5069 2.8511 2289.6 -0.0051426 470.09 0.30211 690.00 0.0014493 498.35 1290.5 1.5968 2.5069 2.8511 2289.6 -0.0051426 470.09 0.30211
185.38 79466. undefined 500.86 1294.9 1.6023 690.00 0.0014493 500.86 1294.9 1.6023 2.5108 2.8547 2290.5 -0.0051359 469.85 0.30250 690.00 0.0014493 500.86 1294.9 1.6023 2.5108 2.8547 2290.5 -0.0051359 469.85 0.30250
186.38 79652. undefined 503.37 1299.3 1.6078 690.00 0.0014493 503.37 1299.3 1.6078 2.5147 2.8583 2291.4 -0.0051293 469.61 0.30288 690.00 0.0014493 503.37 1299.3 1.6078 2.5147 2.8583 2291.4 -0.0051293 469.61 0.30288
187.38 79838. undefined 505.89 1303.7 1.6133 690.00 0.0014493 505.89 1303.7 1.6133 2.5186 2.8619 2292.2 -0.0051227 469.37 0.30327 690.00 0.0014493 505.89 1303.7 1.6133 2.5186 2.8619 2292.2 -0.0051227 469.37 0.30327
188.38 80024. undefined 508.41 1308.0 1.6187 690.00 0.0014493 508.41 1308.0 1.6187 2.5225 2.8655 2293.1 -0.0051161 469.14 0.30366 690.00 0.0014493 508.41 1308.0 1.6187 2.5225 2.8655 2293.1 -0.0051161 469.14 0.30366
189.38 80209. undefined 510.94 1312.4 1.6242 690.00 0.0014493 510.94 1312.4 1.6242 2.5264 2.8691 2294.0 -0.0051096 468.90 0.30405 690.00 0.0014493 510.94 1312.4 1.6242 2.5264 2.8691 2294.0 -0.0051096 468.90 0.30405
190.38 80395. undefined 513.46 1316.8 1.6296 690.00 0.0014493 513.46 1316.8 1.6296 2.5303 2.8727 2294.8 -0.0051031 468.67 0.30444 690.00 0.0014493 513.46 1316.8 1.6296 2.5303 2.8727 2294.8 -0.0051031 468.67 0.30444
191.38 80580. undefined 516.00 1321.2 1.6351 690.00 0.0014493 516.00 1321.2 1.6351 2.5342 2.8763 2295.7 -0.0050965 468.44 0.30482 690.00 0.0014493 516.00 1321.2 1.6351 2.5342 2.8763 2295.7 -0.0050965 468.44 0.30482
192.38 80765. undefined 518.53 1325.6 1.6406 690.00 0.0014493 518.53 1325.6 1.6406 2.5381 2.8799 2296.5 -0.0050901 468.21 0.30521 690.00 0.0014493 518.53 1325.6 1.6406 2.5381 2.8799 2296.5 -0.0050901 468.21 0.30521
193.38 80949. undefined 521.07 1330.0 1.6460 690.00 0.0014493 521.07 1330.0 1.6460 2.5420 2.8835 2297.4 -0.0050836 467.99 0.30560 690.00 0.0014493 521.07 1330.0 1.6460 2.5420 2.8835 2297.4 -0.0050836 467.99 0.30560
194.38 81134. undefined 523.62 1334.3 1.6515 690.00 0.0014493 523.62 1334.3 1.6515 2.5459 2.8870 2298.3 -0.0050772 467.76 0.30599 690.00 0.0014493 523.62 1334.3 1.6515 2.5459 2.8870 2298.3 -0.0050772 467.76 0.30599
195.38 81318. undefined 526.16 1338.7 1.6569 690.00 0.0014493 526.16 1338.7 1.6569 2.5497 2.8906 2299.1 -0.0050707 467.54 0.30638 690.00 0.0014493 526.16 1338.7 1.6569 2.5497 2.8906 2299.1 -0.0050707 467.54 0.30638
196.38 81503. undefined 528.72 1343.1 1.6623 690.00 0.0014493 528.72 1343.1 1.6623 2.5536 2.8942 2300.0 -0.0050644 467.32 0.30677 690.00 0.0014493 528.72 1343.1 1.6623 2.5536 2.8942 2300.0 -0.0050644 467.32 0.30677
197.38 81687. undefined 531.27 1347.5 1.6678 690.00 0.0014493 531.27 1347.5 1.6678 2.5575 2.8977 2300.8 -0.0050580 467.10 0.30716 690.00 0.0014493 531.27 1347.5 1.6678 2.5575 2.8977 2300.8 -0.0050580 467.10 0.30716
198.38 81871. undefined 533.83 1351.9 1.6732 690.00 0.0014493 533.83 1351.9 1.6732 2.5613 2.9013 2301.7 -0.0050516 466.88 0.30755 690.00 0.0014493 533.83 1351.9 1.6732 2.5613 2.9013 2301.7 -0.0050516 466.88 0.30755
199.38 82054. undefined 536.39 1356.3 1.6786 690.00 0.0014493 536.39 1356.3 1.6786 2.5652 2.9049 2302.6 -0.0050453 466.66 0.30794 690.00 0.0014493 536.39 1356.3 1.6786 2.5652 2.9049 2302.6 -0.0050453 466.66 0.30794
200.38 82238. undefined 538.96 1360.7 1.6841 690.00 0.0014493 538.96 1360.7 1.6841 2.5690 2.9084 2303.4 -0.0050390 466.44 0.30833 690.00 0.0014493 538.96 1360.7 1.6841 2.5690 2.9084 2303.4 -0.0050390 466.44 0.30833
201.38 82421. undefined 541.53 1365.1 1.6895 690.00 0.0014493 541.53 1365.1 1.6895 2.5729 2.9120 2304.3 -0.0050327 466.23 0.30872 690.00 0.0014493 541.53 1365.1 1.6895 2.5729 2.9120 2304.3 -0.0050327 466.23 0.30872
202.38 82604. undefined 544.11 1369.5 1.6949 690.00 0.0014493 544.11 1369.5 1.6949 2.5767 2.9155 2305.1 -0.0050265 466.01 0.30911 690.00 0.0014493 544.11 1369.5 1.6949 2.5767 2.9155 2305.1 -0.0050265 466.01 0.30911
203.38 82787. undefined 546.69 1373.9 1.7003 690.00 0.0014493 546.69 1373.9 1.7003 2.5805 2.9191 2306.0 -0.0050202 465.80 0.30951 690.00 0.0014493 546.69 1373.9 1.7003 2.5805 2.9191 2306.0 -0.0050202 465.80 0.30951
204.38 82970. undefined 549.27 1378.3 1.7057 690.00 0.0014493 549.27 1378.3 1.7057 2.5844 2.9226 2306.8 -0.0050140 465.59 0.30990 690.00 0.0014493 549.27 1378.3 1.7057 2.5844 2.9226 2306.8 -0.0050140 465.59 0.30990
205.38 83153. undefined 551.85 1382.7 1.7112 690.00 0.0014493 551.85 1382.7 1.7112 2.5882 2.9261 2307.7 -0.0050078 465.38 0.31029 690.00 0.0014493 551.85 1382.7 1.7112 2.5882 2.9261 2307.7 -0.0050078 465.38 0.31029
206.38 83335. undefined 554.44 1387.2 1.7166 690.00 0.0014493 554.44 1387.2 1.7166 2.5920 2.9297 2308.5 -0.0050016 465.18 0.31068 690.00 0.0014493 554.44 1387.2 1.7166 2.5920 2.9297 2308.5 -0.0050016 465.18 0.31068
207.38 83517. undefined 557.04 1391.6 1.7220 690.00 0.0014493 557.04 1391.6 1.7220 2.5958 2.9332 2309.4 -0.0049955 464.97 0.31108 690.00 0.0014493 557.04 1391.6 1.7220 2.5958 2.9332 2309.4 -0.0049955 464.97 0.31108
208.38 83699. undefined 559.64 1396.0 1.7274 690.00 0.0014493 559.64 1396.0 1.7274 2.5996 2.9367 2310.2 -0.0049893 464.77 0.31147 690.00 0.0014493 559.64 1396.0 1.7274 2.5996 2.9367 2310.2 -0.0049893 464.77 0.31147
209.38 83881. undefined 562.24 1400.4 1.7328 690.00 0.0014493 562.24 1400.4 1.7328 2.6034 2.9403 2311.1 -0.0049832 464.56 0.31186 690.00 0.0014493 562.24 1400.4 1.7328 2.6034 2.9403 2311.1 -0.0049832 464.56 0.31186
210.38 84063. undefined 564.84 1404.8 1.7382 690.00 0.0014493 564.84 1404.8 1.7382 2.6072 2.9438 2311.9 -0.0049771 464.36 0.31226 690.00 0.0014493 564.84 1404.8 1.7382 2.6072 2.9438 2311.9 -0.0049771 464.36 0.31226
211.38 84245. undefined 567.45 1409.3 1.7435 690.00 0.0014493 567.45 1409.3 1.7435 2.6110 2.9473 2312.7 -0.0049711 464.16 0.31265 690.00 0.0014493 567.45 1409.3 1.7435 2.6110 2.9473 2312.7 -0.0049711 464.16 0.31265
212.38 84426. undefined 570.06 1413.7 1.7489 690.00 0.0014493 570.06 1413.7 1.7489 2.6148 2.9508 2313.6 -0.0049650 463.96 0.31304 690.00 0.0014493 570.06 1413.7 1.7489 2.6148 2.9508 2313.6 -0.0049650 463.96 0.31304
213.38 84607. undefined 572.68 1418.1 1.7543 690.00 0.0014493 572.68 1418.1 1.7543 2.6186 2.9543 2314.4 -0.0049590 463.76 0.31344 690.00 0.0014493 572.68 1418.1 1.7543 2.6186 2.9543 2314.4 -0.0049590 463.76 0.31344
214.38 84788. undefined 575.30 1422.5 1.7597 690.00 0.0014493 575.30 1422.5 1.7597 2.6224 2.9578 2315.3 -0.0049530 463.56 0.31383 690.00 0.0014493 575.30 1422.5 1.7597 2.6224 2.9578 2315.3 -0.0049530 463.56 0.31383
215.38 84969. undefined 577.93 1427.0 1.7651 690.00 0.0014493 577.93 1427.0 1.7651 2.6262 2.9613 2316.1 -0.0049470 463.37 0.31423 690.00 0.0014493 577.93 1427.0 1.7651 2.6262 2.9613 2316.1 -0.0049470 463.37 0.31423
216.38 85150. undefined 580.55 1431.4 1.7704 690.00 0.0014493 580.55 1431.4 1.7704 2.6299 2.9648 2317.0 -0.0049411 463.17 0.31462 690.00 0.0014493 580.55 1431.4 1.7704 2.6299 2.9648 2317.0 -0.0049411 463.17 0.31462
217.38 85330. undefined 583.19 1435.8 1.7758 690.00 0.0014493 583.19 1435.8 1.7758 2.6337 2.9683 2317.8 -0.0049351 462.98 0.31502 690.00 0.0014493 583.19 1435.8 1.7758 2.6337 2.9683 2317.8 -0.0049351 462.98 0.31502
218.38 85511. undefined 585.82 1440.3 1.7812 690.00 0.0014493 585.82 1440.3 1.7812 2.6374 2.9718 2318.6 -0.0049292 462.79 0.31542 690.00 0.0014493 585.82 1440.3 1.7812 2.6374 2.9718 2318.6 -0.0049292 462.79 0.31542
219.38 85691. undefined 588.46 1444.7 1.7866 690.00 0.0014493 588.46 1444.7 1.7866 2.6412 2.9752 2319.5 -0.0049233 462.60 0.31581 690.00 0.0014493 588.46 1444.7 1.7866 2.6412 2.9752 2319.5 -0.0049233 462.60 0.31581
220.38 85871. undefined 591.10 1449.2 1.7919 690.00 0.0014493 591.10 1449.2 1.7919 2.6449 2.9787 2320.3 -0.0049174 462.41 0.31621 690.00 0.0014493 591.10 1449.2 1.7919 2.6449 2.9787 2320.3 -0.0049174 462.41 0.31621
221.38 86051. undefined 593.75 1453.6 1.7973 690.00 0.0014493 593.75 1453.6 1.7973 2.6487 2.9822 2321.2 -0.0049116 462.22 0.31661 690.00 0.0014493 593.75 1453.6 1.7973 2.6487 2.9822 2321.2 -0.0049116 462.22 0.31661
222.38 86231. undefined 596.40 1458.1 1.8026 690.00 0.0014493 596.40 1458.1 1.8026 2.6524 2.9857 2322.0 -0.0049057 462.04 0.31700 690.00 0.0014493 596.40 1458.1 1.8026 2.6524 2.9857 2322.0 -0.0049057 462.04 0.31700
223.38 86410. undefined 599.06 1462.5 1.8080 690.00 0.0014493 599.06 1462.5 1.8080 2.6562 2.9891 2322.8 -0.0048999 461.85 0.31740 690.00 0.0014493 599.06 1462.5 1.8080 2.6562 2.9891 2322.8 -0.0048999 461.85 0.31740
224.38 86589. undefined 601.71 1467.0 1.8133 690.00 0.0014493 601.71 1467.0 1.8133 2.6599 2.9926 2323.7 -0.0048941 461.67 0.31780 690.00 0.0014493 601.71 1467.0 1.8133 2.6599 2.9926 2323.7 -0.0048941 461.67 0.31780
225.38 86769. undefined 604.38 1471.4 1.8187 690.00 0.0014493 604.38 1471.4 1.8187 2.6636 2.9960 2324.5 -0.0048883 461.48 0.31820 690.00 0.0014493 604.38 1471.4 1.8187 2.6636 2.9960 2324.5 -0.0048883 461.48 0.31820
226.38 86948. undefined 607.04 1475.9 1.8240 690.00 0.0014493 607.04 1475.9 1.8240 2.6673 2.9995 2325.3 -0.0048826 461.30 0.31860 690.00 0.0014493 607.04 1475.9 1.8240 2.6673 2.9995 2325.3 -0.0048826 461.30 0.31860
227.38 87127. undefined 609.71 1480.3 1.8293 690.00 0.0014493 609.71 1480.3 1.8293 2.6710 3.0029 2326.2 -0.0048768 461.12 0.31900 690.00 0.0014493 609.71 1480.3 1.8293 2.6710 3.0029 2326.2 -0.0048768 461.12 0.31900
228.38 87305. undefined 612.38 1484.8 1.8347 690.00 0.0014493 612.38 1484.8 1.8347 2.6747 3.0064 2327.0 -0.0048711 460.94 0.31939 690.00 0.0014493 612.38 1484.8 1.8347 2.6747 3.0064 2327.0 -0.0048711 460.94 0.31939
229.38 87484. undefined 615.06 1489.2 1.8400 690.00 0.0014493 615.06 1489.2 1.8400 2.6784 3.0098 2327.8 -0.0048654 460.76 0.31979 690.00 0.0014493 615.06 1489.2 1.8400 2.6784 3.0098 2327.8 -0.0048654 460.76 0.31979
230.38 87662. undefined 617.74 1493.7 1.8453 690.00 0.0014493 617.74 1493.7 1.8453 2.6821 3.0132 2328.7 -0.0048597 460.59 0.32019 690.00 0.0014493 617.74 1493.7 1.8453 2.6821 3.0132 2328.7 -0.0048597 460.59 0.32019
231.38 87840. undefined 620.42 1498.2 1.8507 690.00 0.0014493 620.42 1498.2 1.8507 2.6858 3.0167 2329.5 -0.0048541 460.41 0.32059 690.00 0.0014493 620.42 1498.2 1.8507 2.6858 3.0167 2329.5 -0.0048541 460.41 0.32059
232.38 88018. undefined 623.11 1502.6 1.8560 690.00 0.0014493 623.11 1502.6 1.8560 2.6895 3.0201 2330.3 -0.0048484 460.24 0.32099 690.00 0.0014493 623.11 1502.6 1.8560 2.6895 3.0201 2330.3 -0.0048484 460.24 0.32099
233.38 88196. undefined 625.80 1507.1 1.8613 690.00 0.0014493 625.80 1507.1 1.8613 2.6932 3.0235 2331.1 -0.0048428 460.06 0.32139 690.00 0.0014493 625.80 1507.1 1.8613 2.6932 3.0235 2331.1 -0.0048428 460.06 0.32139
234.38 88374. undefined 628.50 1511.6 1.8666 690.00 0.0014493 628.50 1511.6 1.8666 2.6969 3.0269 2332.0 -0.0048372 459.89 0.32180 690.00 0.0014493 628.50 1511.6 1.8666 2.6969 3.0269 2332.0 -0.0048372 459.89 0.32180
235.38 88552. undefined 631.20 1516.0 1.8719 690.00 0.0014493 631.20 1516.0 1.8719 2.7005 3.0304 2332.8 -0.0048316 459.72 0.32220 690.00 0.0014493 631.20 1516.0 1.8719 2.7005 3.0304 2332.8 -0.0048316 459.72 0.32220
236.38 88729. undefined 633.90 1520.5 1.8772 690.00 0.0014493 633.90 1520.5 1.8772 2.7042 3.0338 2333.6 -0.0048260 459.55 0.32260 690.00 0.0014493 633.90 1520.5 1.8772 2.7042 3.0338 2333.6 -0.0048260 459.55 0.32260
237.38 88906. undefined 636.60 1525.0 1.8825 690.00 0.0014493 636.60 1525.0 1.8825 2.7079 3.0372 2334.4 -0.0048205 459.38 0.32300 690.00 0.0014493 636.60 1525.0 1.8825 2.7079 3.0372 2334.4 -0.0048205 459.38 0.32300
238.38 89083. undefined 639.31 1529.5 1.8879 690.00 0.0014493 639.31 1529.5 1.8879 2.7115 3.0406 2335.3 -0.0048150 459.21 0.32340 690.00 0.0014493 639.31 1529.5 1.8879 2.7115 3.0406 2335.3 -0.0048150 459.21 0.32340
239.38 89260. undefined 642.03 1534.0 1.8932 690.00 0.0014493 642.03 1534.0 1.8932 2.7152 3.0440 2336.1 -0.0048095 459.04 0.32380 690.00 0.0014493 642.03 1534.0 1.8932 2.7152 3.0440 2336.1 -0.0048095 459.04 0.32380
240.38 89437. undefined 644.74 1538.4 1.8984 690.00 0.0014493 644.74 1538.4 1.8984 2.7188 3.0474 2336.9 -0.0048040 458.88 0.32421 690.00 0.0014493 644.74 1538.4 1.8984 2.7188 3.0474 2336.9 -0.0048040 458.88 0.32421
241.38 89614. undefined 647.47 1542.9 1.9037 690.00 0.0014493 647.47 1542.9 1.9037 2.7225 3.0507 2337.7 -0.0047985 458.71 0.32461 690.00 0.0014493 647.47 1542.9 1.9037 2.7225 3.0507 2337.7 -0.0047985 458.71 0.32461
242.38 89790. undefined 650.19 1547.4 1.9090 690.00 0.0014493 650.19 1547.4 1.9090 2.7261 3.0541 2338.6 -0.0047931 458.55 0.32501 690.00 0.0014493 650.19 1547.4 1.9090 2.7261 3.0541 2338.6 -0.0047931 458.55 0.32501
243.38 89966. undefined 652.92 1551.9 1.9143 690.00 0.0014493 652.92 1551.9 1.9143 2.7297 3.0575 2339.4 -0.0047876 458.39 0.32542 690.00 0.0014493 652.92 1551.9 1.9143 2.7297 3.0575 2339.4 -0.0047876 458.39 0.32542
244.38 90143. undefined 655.65 1556.4 1.9196 690.00 0.0014493 655.65 1556.4 1.9196 2.7333 3.0609 2340.2 -0.0047822 458.22 0.32582 690.00 0.0014493 655.65 1556.4 1.9196 2.7333 3.0609 2340.2 -0.0047822 458.22 0.32582
245.38 90319. undefined 658.38 1560.9 1.9249 690.00 0.0014493 658.38 1560.9 1.9249 2.7370 3.0642 2341.0 -0.0047768 458.06 0.32622 690.00 0.0014493 658.38 1560.9 1.9249 2.7370 3.0642 2341.0 -0.0047768 458.06 0.32622
246.38 90494. undefined 661.12 1565.4 1.9302 690.00 0.0014493 661.12 1565.4 1.9302 2.7406 3.0676 2341.8 -0.0047714 457.90 0.32663 690.00 0.0014493 661.12 1565.4 1.9302 2.7406 3.0676 2341.8 -0.0047714 457.90 0.32663
247.38 90670. undefined 663.87 1569.9 1.9354 690.00 0.0014493 663.87 1569.9 1.9354 2.7442 3.0710 2342.6 -0.0047661 457.74 0.32703 690.00 0.0014493 663.87 1569.9 1.9354 2.7442 3.0710 2342.6 -0.0047661 457.74 0.32703
248.38 90846. undefined 666.61 1574.4 1.9407 690.00 0.0014493 666.61 1574.4 1.9407 2.7478 3.0743 2343.5 -0.0047607 457.59 0.32744 690.00 0.0014493 666.61 1574.4 1.9407 2.7478 3.0743 2343.5 -0.0047607 457.59 0.32744
249.38 91021. undefined 669.36 1578.9 1.9460 690.00 0.0014493 669.36 1578.9 1.9460 2.7514 3.0777 2344.3 -0.0047554 457.43 0.32784 690.00 0.0014493 669.36 1578.9 1.9460 2.7514 3.0777 2344.3 -0.0047554 457.43 0.32784
250.38 91196. undefined 672.11 1583.4 1.9512 690.00 0.0014493 672.11 1583.4 1.9512 2.7550 3.0810 2345.1 -0.0047501 457.27 0.32825 690.00 0.0014493 672.11 1583.4 1.9512 2.7550 3.0810 2345.1 -0.0047501 457.27 0.32825
251.38 91371. undefined 674.87 1587.9 1.9565 690.00 0.0014493 674.87 1587.9 1.9565 2.7586 3.0844 2345.9 -0.0047448 457.12 0.32865 690.00 0.0014493 674.87 1587.9 1.9565 2.7586 3.0844 2345.9 -0.0047448 457.12 0.32865
252.38 91546. undefined 677.63 1592.4 1.9617 690.00 0.0014493 677.63 1592.4 1.9617 2.7622 3.0877 2346.7 -0.0047396 456.96 0.32906 690.00 0.0014493 677.63 1592.4 1.9617 2.7622 3.0877 2346.7 -0.0047396 456.96 0.32906
253.38 91721. undefined 680.40 1596.9 1.9670 690.00 0.0014493 680.40 1596.9 1.9670 2.7657 3.0911 2347.5 -0.0047343 456.81 0.32947 690.00 0.0014493 680.40 1596.9 1.9670 2.7657 3.0911 2347.5 -0.0047343 456.81 0.32947
254.38 91895. undefined 683.16 1601.4 1.9723 690.00 0.0014493 683.16 1601.4 1.9723 2.7693 3.0944 2348.3 -0.0047291 456.66 0.32987 690.00 0.0014493 683.16 1601.4 1.9723 2.7693 3.0944 2348.3 -0.0047291 456.66 0.32987
255.38 92070. undefined 685.93 1605.9 1.9775 690.00 0.0014493 685.93 1605.9 1.9775 2.7729 3.0977 2349.2 -0.0047239 456.51 0.33028 690.00 0.0014493 685.93 1605.9 1.9775 2.7729 3.0977 2349.2 -0.0047239 456.51 0.33028
256.38 92244. undefined 688.71 1610.4 1.9827 690.00 0.0014493 688.71 1610.4 1.9827 2.7764 3.1010 2350.0 -0.0047187 456.36 0.33069 690.00 0.0014493 688.71 1610.4 1.9827 2.7764 3.1010 2350.0 -0.0047187 456.36 0.33069
257.38 92418. undefined 691.49 1615.0 1.9880 690.00 0.0014493 691.49 1615.0 1.9880 2.7800 3.1044 2350.8 -0.0047135 456.21 0.33109 690.00 0.0014493 691.49 1615.0 1.9880 2.7800 3.1044 2350.8 -0.0047135 456.21 0.33109
258.38 92592. undefined 694.27 1619.5 1.9932 690.00 0.0014493 694.27 1619.5 1.9932 2.7836 3.1077 2351.6 -0.0047083 456.06 0.33150 690.00 0.0014493 694.27 1619.5 1.9932 2.7836 3.1077 2351.6 -0.0047083 456.06 0.33150
259.38 92766. undefined 697.05 1624.0 1.9985 690.00 0.0014493 697.05 1624.0 1.9985 2.7871 3.1110 2352.4 -0.0047032 455.91 0.33191 690.00 0.0014493 697.05 1624.0 1.9985 2.7871 3.1110 2352.4 -0.0047032 455.91 0.33191
260.38 92940. undefined 699.84 1628.5 2.0037 690.00 0.0014493 699.84 1628.5 2.0037 2.7906 3.1143 2353.2 -0.0046981 455.77 0.33232 690.00 0.0014493 699.84 1628.5 2.0037 2.7906 3.1143 2353.2 -0.0046981 455.77 0.33232
261.38 93113. undefined 702.64 1633.1 2.0089 690.00 0.0014493 702.64 1633.1 2.0089 2.7942 3.1176 2354.0 -0.0046930 455.62 0.33273 690.00 0.0014493 702.64 1633.1 2.0089 2.7942 3.1176 2354.0 -0.0046930 455.62 0.33273
262.38 93287. undefined 705.43 1637.6 2.0141 690.00 0.0014493 705.43 1637.6 2.0141 2.7977 3.1209 2354.8 -0.0046879 455.48 0.33314 690.00 0.0014493 705.43 1637.6 2.0141 2.7977 3.1209 2354.8 -0.0046879 455.48 0.33314
263.38 93460. undefined 708.23 1642.1 2.0194 690.00 0.0014493 708.23 1642.1 2.0194 2.8012 3.1242 2355.6 -0.0046828 455.33 0.33355 690.00 0.0014493 708.23 1642.1 2.0194 2.8012 3.1242 2355.6 -0.0046828 455.33 0.33355
264.38 93633. undefined 711.03 1646.7 2.0246 690.00 0.0014493 711.03 1646.7 2.0246 2.8048 3.1275 2356.4 -0.0046777 455.19 0.33396 690.00 0.0014493 711.03 1646.7 2.0246 2.8048 3.1275 2356.4 -0.0046777 455.19 0.33396
265.38 93806. undefined 713.84 1651.2 2.0298 690.00 0.0014493 713.84 1651.2 2.0298 2.8083 3.1308 2357.2 -0.0046727 455.05 0.33437 690.00 0.0014493 713.84 1651.2 2.0298 2.8083 3.1308 2357.2 -0.0046727 455.05 0.33437
266.38 93979. undefined 716.65 1655.7 2.0350 690.00 0.0014493 716.65 1655.7 2.0350 2.8118 3.1340 2358.0 -0.0046677 454.91 0.33478 690.00 0.0014493 716.65 1655.7 2.0350 2.8118 3.1340 2358.0 -0.0046677 454.91 0.33478
267.38 94152. undefined 719.46 1660.3 2.0402 690.00 0.0014493 719.46 1660.3 2.0402 2.8153 3.1373 2358.8 -0.0046627 454.77 0.33519 690.00 0.0014493 719.46 1660.3 2.0402 2.8153 3.1373 2358.8 -0.0046627 454.77 0.33519
268.38 94324. undefined 722.28 1664.8 2.0454 690.00 0.0014493 722.28 1664.8 2.0454 2.8188 3.1406 2359.6 -0.0046577 454.63 0.33560 690.00 0.0014493 722.28 1664.8 2.0454 2.8188 3.1406 2359.6 -0.0046577 454.63 0.33560
269.38 94497. undefined 725.10 1669.3 2.0506 690.00 0.0014493 725.10 1669.3 2.0506 2.8223 3.1438 2360.4 -0.0046527 454.49 0.33601 690.00 0.0014493 725.10 1669.3 2.0506 2.8223 3.1438 2360.4 -0.0046527 454.49 0.33601
270.38 94669. undefined 727.93 1673.9 2.0558 690.00 0.0014493 727.93 1673.9 2.0558 2.8258 3.1471 2361.2 -0.0046477 454.35 0.33642 690.00 0.0014493 727.93 1673.9 2.0558 2.8258 3.1471 2361.2 -0.0046477 454.35 0.33642
271.38 94841. undefined 730.75 1678.4 2.0610 690.00 0.0014493 730.75 1678.4 2.0610 2.8293 3.1504 2362.0 -0.0046428 454.22 0.33683 690.00 0.0014493 730.75 1678.4 2.0610 2.8293 3.1504 2362.0 -0.0046428 454.22 0.33683
272.38 95013. undefined 733.58 1683.0 2.0662 690.00 0.0014493 733.58 1683.0 2.0662 2.8328 3.1536 2362.8 -0.0046379 454.08 0.33724 690.00 0.0014493 733.58 1683.0 2.0662 2.8328 3.1536 2362.8 -0.0046379 454.08 0.33724
273.38 95185. undefined 736.42 1687.5 2.0714 690.00 0.0014493 736.42 1687.5 2.0714 2.8363 3.1569 2363.6 -0.0046330 453.95 0.33765 690.00 0.0014493 736.42 1687.5 2.0714 2.8363 3.1569 2363.6 -0.0046330 453.95 0.33765
274.38 95356. undefined 739.26 1692.1 2.0766 690.00 0.0014493 739.26 1692.1 2.0766 2.8397 3.1601 2364.4 -0.0046281 453.81 0.33807 690.00 0.0014493 739.26 1692.1 2.0766 2.8397 3.1601 2364.4 -0.0046281 453.81 0.33807
275.38 95528. undefined 742.10 1696.7 2.0818 690.00 0.0014493 742.10 1696.7 2.0818 2.8432 3.1634 2365.2 -0.0046232 453.68 0.33848 690.00 0.0014493 742.10 1696.7 2.0818 2.8432 3.1634 2365.2 -0.0046232 453.68 0.33848
276.38 95699. undefined 744.94 1701.2 2.0870 690.00 0.0014493 744.94 1701.2 2.0870 2.8467 3.1666 2366.0 -0.0046184 453.55 0.33889 690.00 0.0014493 744.94 1701.2 2.0870 2.8467 3.1666 2366.0 -0.0046184 453.55 0.33889
277.38 95870. undefined 747.79 1705.8 2.0922 690.00 0.0014493 747.79 1705.8 2.0922 2.8501 3.1698 2366.8 -0.0046135 453.41 0.33931 690.00 0.0014493 747.79 1705.8 2.0922 2.8501 3.1698 2366.8 -0.0046135 453.41 0.33931
278.38 96042. undefined 750.64 1710.3 2.0973 690.00 0.0014493 750.64 1710.3 2.0973 2.8536 3.1731 2367.6 -0.0046087 453.28 0.33972 690.00 0.0014493 750.64 1710.3 2.0973 2.8536 3.1731 2367.6 -0.0046087 453.28 0.33972
279.38 96212. undefined 753.50 1714.9 2.1025 690.00 0.0014493 753.50 1714.9 2.1025 2.8570 3.1763 2368.4 -0.0046039 453.15 0.34013 690.00 0.0014493 753.50 1714.9 2.1025 2.8570 3.1763 2368.4 -0.0046039 453.15 0.34013
280.38 96383. undefined 756.36 1719.5 2.1077 690.00 0.0014493 756.36 1719.5 2.1077 2.8605 3.1795 2369.2 -0.0045991 453.02 0.34055 690.00 0.0014493 756.36 1719.5 2.1077 2.8605 3.1795 2369.2 -0.0045991 453.02 0.34055
281.38 96554. undefined 759.22 1724.0 2.1128 690.00 0.0014493 759.22 1724.0 2.1128 2.8639 3.1827 2370.0 -0.0045943 452.89 0.34096 690.00 0.0014493 759.22 1724.0 2.1128 2.8639 3.1827 2370.0 -0.0045943 452.89 0.34096
282.38 96724. undefined 762.08 1728.6 2.1180 690.00 0.0014493 762.08 1728.6 2.1180 2.8673 3.1859 2370.8 -0.0045895 452.77 0.34127 690.00 0.0014493 762.08 1728.6 2.1180 2.8673 3.1859 2370.8 -0.0045895 452.77 0.34127
283.38 96895. undefined 764.95 1733.2 2.1232 690.00 0.0014493 764.95 1733.2 2.1232 2.8708 3.1891 2371.6 -0.0045848 452.64 0.34169 690.00 0.0014493 764.95 1733.2 2.1232 2.8708 3.1891 2371.6 -0.0045848 452.64 0.34169
284.38 97065. undefined 767.83 1737.7 2.1283 690.00 0.0014493 767.83 1737.7 2.1283 2.8742 3.1923 2372.4 -0.0045801 452.51 0.34210 690.00 0.0014493 767.83 1737.7 2.1283 2.8742 3.1923 2372.4 -0.0045801 452.51 0.34210
285.38 97235. undefined 770.70 1742.3 2.1335 690.00 0.0014493 770.70 1742.3 2.1335 2.8776 3.1955 2373.2 -0.0045753 452.39 0.34252 690.00 0.0014493 770.70 1742.3 2.1335 2.8776 3.1955 2373.2 -0.0045753 452.39 0.34252
286.38 97405. undefined 773.58 1746.9 2.1386 690.00 0.0014493 773.58 1746.9 2.1386 2.8810 3.1987 2373.9 -0.0045706 452.26 0.34294 690.00 0.0014493 773.58 1746.9 2.1386 2.8810 3.1987 2373.9 -0.0045706 452.26 0.34294
287.38 97575. undefined 776.46 1751.5 2.1438 690.00 0.0014493 776.46 1751.5 2.1438 2.8844 3.2019 2374.7 -0.0045660 452.14 0.34335 690.00 0.0014493 776.46 1751.5 2.1438 2.8844 3.2019 2374.7 -0.0045660 452.14 0.34335
288.38 97745. undefined 779.35 1756.1 2.1489 690.00 0.0014493 779.35 1756.1 2.1489 2.8878 3.2051 2375.5 -0.0045613 452.01 0.34377 690.00 0.0014493 779.35 1756.1 2.1489 2.8878 3.2051 2375.5 -0.0045613 452.01 0.34377
289.38 97914. undefined 782.24 1760.6 2.1541 690.00 0.0014493 782.24 1760.6 2.1541 2.8912 3.2083 2376.3 -0.0045566 451.89 0.34418 690.00 0.0014493 782.24 1760.6 2.1541 2.8912 3.2083 2376.3 -0.0045566 451.89 0.34418
290.38 98084. undefined 785.13 1765.2 2.1592 690.00 0.0014493 785.13 1765.2 2.1592 2.8946 3.2115 2377.1 -0.0045520 451.77 0.34460 690.00 0.0014493 785.13 1765.2 2.1592 2.8946 3.2115 2377.1 -0.0045520 451.77 0.34460
291.38 98253. undefined 788.03 1769.8 2.1643 690.00 0.0014493 788.03 1769.8 2.1643 2.8980 3.2146 2377.9 -0.0045474 451.65 0.34502 690.00 0.0014493 788.03 1769.8 2.1643 2.8980 3.2146 2377.9 -0.0045474 451.65 0.34502
292.38 98422. undefined 790.93 1774.4 2.1695 690.00 0.0014493 790.93 1774.4 2.1695 2.9014 3.2178 2378.7 -0.0045428 451.53 0.34544 690.00 0.0014493 790.93 1774.4 2.1695 2.9014 3.2178 2378.7 -0.0045428 451.53 0.34544
293.38 98591. undefined 793.83 1779.0 2.1746 690.00 0.0014493 793.83 1779.0 2.1746 2.9048 3.2210 2379.4 -0.0045382 451.41 0.34585 690.00 0.0014493 793.83 1779.0 2.1746 2.9048 3.2210 2379.4 -0.0045382 451.41 0.34585
294.38 98760. undefined 796.74 1783.6 2.1797 690.00 0.0014493 796.74 1783.6 2.1797 2.9081 3.2241 2380.2 -0.0045336 451.29 0.34627 690.00 0.0014493 796.74 1783.6 2.1797 2.9081 3.2241 2380.2 -0.0045336 451.29 0.34627
295.38 98929. undefined 799.65 1788.2 2.1848 690.00 0.0014493 799.65 1788.2 2.1848 2.9115 3.2273 2381.0 -0.0045290 451.17 0.34669 690.00 0.0014493 799.65 1788.2 2.1848 2.9115 3.2273 2381.0 -0.0045290 451.17 0.34669
296.38 99097. undefined 802.56 1792.8 2.1900 690.00 0.0014493 802.56 1792.8 2.1900 2.9149 3.2304 2381.8 -0.0045245 451.05 0.34711 690.00 0.0014493 802.56 1792.8 2.1900 2.9149 3.2304 2381.8 -0.0045245 451.05 0.34711
297.38 99266. undefined 805.48 1797.4 2.1951 690.00 0.0014493 805.48 1797.4 2.1951 2.9182 3.2336 2382.6 -0.0045199 450.94 0.34753 690.00 0.0014493 805.48 1797.4 2.1951 2.9182 3.2336 2382.6 -0.0045199 450.94 0.34753
298.38 99434. undefined 808.40 1802.0 2.2002 690.00 0.0014493 808.40 1802.0 2.2002 2.9216 3.2367 2383.4 -0.0045154 450.82 0.34795 690.00 0.0014493 808.40 1802.0 2.2002 2.9216 3.2367 2383.4 -0.0045154 450.82 0.34795
299.38 99602. undefined 811.32 1806.6 2.2053 690.00 0.0014493 811.32 1806.6 2.2053 2.9249 3.2399 2384.1 -0.0045109 450.71 0.34837 690.00 0.0014493 811.32 1806.6 2.2053 2.9249 3.2399 2384.1 -0.0045109 450.71 0.34837
300.38 99770. undefined 814.25 1811.2 2.2104 690.00 0.0014493 814.25 1811.2 2.2104 2.9283 3.2430 2384.9 -0.0045064 450.59 0.34879 690.00 0.0014493 814.25 1811.2 2.2104 2.9283 3.2430 2384.9 -0.0045064 450.59 0.34879