Temperature (C) Pressure (psia) Quality (l+v) Internal Energy (l+v, kJ/kg) Enthalpy (l+v, kJ/kg) Entropy (l+v, J/g*K) Density (l, kg/m3) Volume (l, m3/kg) Internal Energy (l, kJ/kg) Enthalpy (l, kJ/kg) Entropy (l, J/g*K) Cv (l, J/g*K) Cp (l, J/g*K) Sound Spd. (l, m/s) Joule-Thomson (l, F/psia) Viscosity (l, uPa*s) Therm. Cond. (l, W/m*K) Density (v, kg/m3) Volume (v, m3/kg) Internal Energy (v, kJ/kg) Enthalpy (v, kJ/kg) Entropy (v, J/g*K) Cv (v, J/g*K) Cp (v, J/g*K) Sound Spd. (v, m/s) Joule-Thomson (v, F/psia) Viscosity (v, uPa*s) Therm. Cond. (v, W/m*K)
-187.62 2.4953e-08 1.3786e-10 -196.64 -196.64 -1.3959 733.13 0.0013640 -196.64 -196.64 -1.3959 1.3553 1.9158 2136.4 -0.0077592 10960. 0.20792 1.0669e-08 9.3732e+07 350.13 366.26 5.1858 0.69067 0.87923 143.28 6.1051 2.3259 0.0017061
-186.62 3.7339e-08 2.0387e-10 -194.73 -194.73 -1.3736 732.08 0.0013660 -194.73 -194.73 -1.3736 1.3539 1.9166 2129.6 -0.0077546 10073. 0.20765 1.5780e-08 6.3371e+07 350.82 367.14 5.1200 0.69462 0.88317 144.03 5.9178 2.3534 0.0017533
-185.62 5.5322e-08 2.9856e-10 -192.81 -192.81 -1.3516 731.04 0.0013679 -192.81 -192.81 -1.3516 1.3525 1.9174 2122.9 -0.0077498 9276.1 0.20737 2.3112e-08 4.3267e+07 351.52 368.02 5.0561 0.69857 0.88713 144.77 5.7383 2.3808 0.0018007
-184.62 8.1182e-08 4.3311e-10 -190.89 -190.89 -1.3298 730.00 0.0013699 -190.89 -190.89 -1.3298 1.3513 1.9182 2116.1 -0.0077448 8557.8 0.20708 3.3533e-08 2.9821e+07 352.22 368.91 4.9939 0.70253 0.89108 145.51 5.5662 2.4083 0.0018485
-183.62 1.1803e-07 6.2259e-10 -188.97 -188.97 -1.3083 728.96 0.0013718 -188.97 -188.97 -1.3083 1.3501 1.9191 2109.3 -0.0077395 7909.8 0.20678 4.8211e-08 2.0742e+07 352.92 369.81 4.9333 0.70648 0.89504 146.24 5.4011 2.4357 0.0018965
-182.62 1.7009e-07 8.8710e-10 -187.05 -187.05 -1.2869 727.92 0.0013738 -187.05 -187.05 -1.2869 1.3490 1.9201 2102.5 -0.0077340 7324.3 0.20647 6.8704e-08 1.4555e+07 353.63 370.70 4.8744 0.71043 0.89899 146.97 5.2426 2.4632 0.0019448
-181.62 2.4299e-07 1.2533e-09 -185.13 -185.13 -1.2658 726.88 0.0013757 -185.13 -185.13 -1.2658 1.3480 1.9210 2095.7 -0.0077283 6794.5 0.20616 9.7079e-08 1.0301e+07 354.35 371.60 4.8170 0.71438 0.90294 147.69 5.0904 2.4906 0.0019934
-180.62 3.4425e-07 1.7561e-09 -183.21 -183.21 -1.2450 725.85 0.0013777 -183.21 -183.21 -1.2450 1.3470 1.9220 2088.9 -0.0077225 6314.4 0.20584 1.3605e-07 7.3504e+06 355.06 372.51 4.7612 0.71833 0.90688 148.41 4.9442 2.5181 0.0020423
-179.62 4.8378e-07 2.4412e-09 -181.29 -181.29 -1.2243 724.81 0.0013797 -181.29 -181.29 -1.2243 1.3461 1.9231 2082.0 -0.0077164 5878.8 0.20551 1.8915e-07 5.2868e+06 355.78 373.42 4.7068 0.72227 0.91082 149.13 4.8038 2.5456 0.0020915
-178.62 6.7459e-07 3.3675e-09 -179.37 -179.37 -1.2038 723.78 0.0013816 -179.37 -179.37 -1.2038 1.3453 1.9241 2075.2 -0.0077102 5482.9 0.20517 2.6096e-07 3.8320e+06 356.51 374.33 4.6538 0.72620 0.91475 149.84 4.6688 2.5731 0.0021410
-177.62 9.3358e-07 4.6108e-09 -177.44 -177.44 -1.1836 722.75 0.0013836 -177.44 -177.44 -1.1836 1.3445 1.9252 2068.4 -0.0077039 5122.6 0.20483 3.5737e-07 2.7982e+06 357.23 375.25 4.6022 0.73012 0.91867 150.54 4.5390 2.6005 0.0021907
-176.62 1.2826e-06 6.2679e-09 -175.52 -175.52 -1.1635 721.72 0.0013856 -175.52 -175.52 -1.1635 1.3437 1.9263 2061.5 -0.0076973 4794.1 0.20447 4.8588e-07 2.0581e+06 357.97 376.17 4.5519 0.73403 0.92258 151.25 4.4142 2.6280 0.0022408
-175.62 1.7496e-06 8.4614e-09 -173.59 -173.59 -1.1437 720.69 0.0013876 -173.59 -173.59 -1.1437 1.3430 1.9274 2054.7 -0.0076907 4494.3 0.20411 6.5601e-07 1.5244e+06 358.70 377.09 4.5029 0.73792 0.92648 151.95 4.2941 2.6555 0.0022912
-174.62 2.3705e-06 1.1346e-08 -171.66 -171.66 -1.1240 719.66 0.0013895 -171.66 -171.66 -1.1240 1.3423 1.9286 2047.9 -0.0076838 4220.2 0.20375 8.7976e-07 1.1367e+06 359.44 378.02 4.4551 0.74181 0.93036 152.64 4.1784 2.6830 0.0023418
-173.62 3.1903e-06 1.5114e-08 -169.73 -169.73 -1.1045 718.64 0.0013915 -169.73 -169.73 -1.1045 1.3417 1.9298 2041.0 -0.0076769 3969.3 0.20338 1.1721e-06 8.5314e+05 360.19 378.95 4.4085 0.74568 0.93423 153.33 4.0671 2.7105 0.0023928
-172.62 4.2661e-06 2.0006e-08 -167.80 -167.80 -1.0852 717.61 0.0013935 -167.80 -167.80 -1.0852 1.3411 1.9310 2034.2 -0.0076698 3739.3 0.20300 1.5518e-06 6.4441e+05 360.93 379.89 4.3631 0.74953 0.93809 154.02 3.9599 2.7379 0.0024440
-171.62 5.6692e-06 2.6320e-08 -165.87 -165.87 -1.0661 716.58 0.0013955 -165.87 -165.87 -1.0661 1.3405 1.9322 2027.3 -0.0076625 3528.0 0.20261 2.0419e-06 4.8974e+05 361.69 380.83 4.3188 0.75337 0.94193 154.71 3.8566 2.7654 0.0024955
-170.62 7.4884e-06 3.4422e-08 -163.94 -163.94 -1.0472 715.56 0.0013975 -163.94 -163.94 -1.0472 1.3400 1.9334 2020.5 -0.0076552 3333.8 0.20222 2.6708e-06 3.7442e+05 362.44 381.77 4.2755 0.75720 0.94575 155.39 3.7570 2.7929 0.0025473
-169.62 9.8334e-06 4.4757e-08 -162.00 -162.00 -1.0284 714.54 0.0013995 -162.00 -162.00 -1.0284 1.3395 1.9347 2013.6 -0.0076477 3154.9 0.20182 3.4733e-06 2.8791e+05 363.20 382.72 4.2334 0.76100 0.94956 156.07 3.6609 2.8204 0.0025994
-168.62 1.2839e-05 5.7871e-08 -160.07 -160.07 -1.0098 713.52 0.0014015 -160.07 -160.07 -1.0098 1.3390 1.9359 2006.8 -0.0076401 2989.9 0.20141 4.4917e-06 2.2263e+05 363.96 383.67 4.1922 0.76479 0.95335 156.74 3.5683 2.8479 0.0026518
-167.62 1.6672e-05 7.4422e-08 -158.13 -158.13 -0.99134 712.49 0.0014035 -158.13 -158.13 -0.99134 1.3386 1.9372 2000.0 -0.0076323 2837.5 0.20100 5.7771e-06 1.7310e+05 364.73 384.63 4.1521 0.76856 0.95712 157.41 3.4790 2.8754 0.0027045
-166.62 2.1533e-05 9.5203e-08 -156.19 -156.19 -0.97306 711.47 0.0014055 -156.19 -156.19 -0.97306 1.3382 1.9385 1993.1 -0.0076245 2696.5 0.20058 7.3914e-06 1.3529e+05 365.50 385.59 4.1129 0.77232 0.96087 158.08 3.3927 2.9029 0.0027575
-165.62 2.7666e-05 1.2116e-07 -154.25 -154.25 -0.95494 710.45 0.0014075 -154.25 -154.25 -0.95494 1.3378 1.9398 1986.3 -0.0076165 2566.0 0.20016 9.4084e-06 1.0629e+05 366.27 386.55 4.0746 0.77605 0.96460 158.75 3.3095 2.9304 0.0028108
-164.62 3.5367e-05 1.5344e-07 -152.31 -152.31 -0.93698 709.44 0.0014096 -152.31 -152.31 -0.93698 1.3375 1.9411 1979.4 -0.0076084 2444.9 0.19973 1.1916e-05 83918. 367.05 387.52 4.0372 0.77976 0.96832 159.41 3.2291 2.9579 0.0028643
-163.62 4.4989e-05 1.9337e-07 -150.37 -150.37 -0.91917 708.42 0.0014116 -150.37 -150.37 -0.91917 1.3371 1.9424 1972.6 -0.0076002 2332.3 0.19930 1.5020e-05 66577. 367.83 388.49 4.0008 0.78346 0.97201 160.07 3.1514 2.9854 0.0029182
-162.62 5.6956e-05 2.4256e-07 -148.43 -148.43 -0.90151 707.40 0.0014136 -148.43 -148.43 -0.90151 1.3368 1.9437 1965.8 -0.0075919 2227.7 0.19886 1.8844e-05 53068. 368.62 389.46 3.9651 0.78713 0.97569 160.72 3.0764 3.0129 0.0029723
-161.62 7.1773e-05 3.0287e-07 -146.48 -146.48 -0.88400 706.38 0.0014157 -146.48 -146.48 -0.88400 1.3365 1.9451 1959.0 -0.0075834 2130.2 0.19841 2.3533e-05 42494. 369.41 390.44 3.9304 0.79079 0.97935 161.38 3.0038 3.0404 0.0030268
-160.62 9.0036e-05 3.7650e-07 -144.54 -144.54 -0.86663 705.37 0.0014177 -144.54 -144.54 -0.86663 1.3363 1.9465 1952.1 -0.0075748 2039.2 0.19796 2.9258e-05 34178. 370.20 391.42 3.8964 0.79443 0.98298 162.03 2.9337 3.0679 0.0030815
-159.62 0.00011245 4.6601e-07 -142.59 -142.59 -0.84940 704.35 0.0014197 -142.59 -142.59 -0.84940 1.3360 1.9478 1945.3 -0.0075661 1954.2 0.19751 3.6221e-05 27609. 371.00 392.40 3.8632 0.79805 0.98660 162.68 2.8658 3.0955 0.0031365
-158.62 0.00013985 5.7440e-07 -140.64 -140.64 -0.83231 703.34 0.0014218 -140.64 -140.64 -0.83231 1.3358 1.9492 1938.5 -0.0075573 1874.8 0.19705 4.4652e-05 22395. 371.80 393.39 3.8307 0.80164 0.99020 163.32 2.8002 3.1230 0.0031918
-157.62 0.00017320 7.0511e-07 -138.69 -138.69 -0.81536 702.32 0.0014238 -138.69 -138.69 -0.81536 1.3356 1.9506 1931.7 -0.0075484 1800.3 0.19658 5.4822e-05 18241. 372.60 394.38 3.7990 0.80522 0.99378 163.96 2.7367 3.1505 0.0032474
-156.62 0.00021364 8.6213e-07 -136.74 -136.74 -0.79854 701.31 0.0014259 -136.74 -136.74 -0.79854 1.3354 1.9520 1924.9 -0.0075393 1730.5 0.19611 6.7040e-05 14916. 373.41 395.38 3.7680 0.80878 0.99734 164.60 2.6752 3.1780 0.0033033
-155.62 0.00026248 1.0500e-06 -134.79 -134.79 -0.78185 700.30 0.0014280 -134.79 -134.79 -0.78185 1.3352 1.9534 1918.1 -0.0075302 1664.9 0.19564 8.1666e-05 12245. 374.22 396.38 3.7377 0.81232 1.0009 165.24 2.6157 3.2055 0.0033595
-154.62 0.00032125 1.2741e-06 -132.83 -132.83 -0.76529 699.29 0.0014300 -132.83 -132.83 -0.76530 1.3350 1.9548 1911.3 -0.0075209 1603.3 0.19516 9.9109e-05 10090. 375.03 397.38 3.7081 0.81585 1.0044 165.87 2.5580 3.2330 0.0034160
-153.62 0.00039171 1.5403e-06 -130.88 -130.88 -0.74886 698.27 0.0014321 -130.88 -130.88 -0.74887 1.3349 1.9563 1904.5 -0.0075114 1545.3 0.19468 0.00011984 8344.6 375.85 398.39 3.6792 0.81935 1.0079 166.50 2.5022 3.2606 0.0034727
-152.62 0.00047590 1.8556e-06 -128.92 -128.92 -0.73255 697.26 0.0014342 -128.92 -128.92 -0.73256 1.3348 1.9577 1897.8 -0.0075019 1490.6 0.19419 0.00014439 6925.9 376.67 399.40 3.6509 0.82284 1.0114 167.13 2.4481 3.2881 0.0035298
-151.62 0.00057613 2.2275e-06 -126.96 -126.96 -0.71637 696.25 0.0014363 -126.96 -126.96 -0.71638 1.3346 1.9592 1891.0 -0.0074922 1438.9 0.19370 0.00017336 5768.4 377.49 400.41 3.6232 0.82631 1.0149 167.76 2.3957 3.3156 0.0035872
-150.62 0.00069507 2.6650e-06 -125.00 -125.00 -0.70031 695.24 0.0014384 -125.00 -125.00 -0.70032 1.3345 1.9606 1884.2 -0.0074824 1390.2 0.19320 0.00020744 4820.7 378.32 401.42 3.5962 0.82976 1.0183 168.38 2.3448 3.3431 0.0036448
-149.62 0.00083574 3.1780e-06 -123.04 -123.04 -0.68436 694.23 0.0014404 -123.04 -123.04 -0.68438 1.3345 1.9621 1877.4 -0.0074724 1344.0 0.19270 0.00024740 4042.0 379.15 402.44 3.5697 0.83319 1.0218 169.00 2.2956 3.3706 0.0037027
-148.62 0.0010016 3.7774e-06 -121.08 -121.08 -0.66853 693.22 0.0014425 -121.08 -121.08 -0.66855 1.3344 1.9636 1870.7 -0.0074623 1300.3 0.19220 0.00029412 3400.0 379.99 403.47 3.5438 0.83661 1.0252 169.62 2.2478 3.3982 0.0037610
-147.62 0.0011965 4.4758e-06 -119.11 -119.11 -0.65282 692.21 0.0014447 -119.11 -119.11 -0.65284 1.3343 1.9651 1863.9 -0.0074521 1258.9 0.19169 0.00034856 2869.0 380.83 404.49 3.5185 0.84001 1.0286 170.24 2.2014 3.4257 0.0038195
-146.62 0.0014249 5.2872e-06 -117.15 -117.15 -0.63722 691.20 0.0014468 -117.15 -117.15 -0.63724 1.3343 1.9666 1857.2 -0.0074417 1219.6 0.19117 0.00041181 2428.3 381.67 405.52 3.4938 0.84340 1.0320 170.85 2.1565 3.4532 0.0038783
-145.62 0.0016917 6.2271e-06 -115.18 -115.18 -0.62172 690.19 0.0014489 -115.18 -115.18 -0.62175 1.3343 1.9682 1850.4 -0.0074312 1182.3 0.19066 0.00048510 2061.4 382.51 406.56 3.4695 0.84677 1.0353 171.46 2.1128 3.4807 0.0039374
-144.62 0.0020026 7.3127e-06 -113.21 -113.21 -0.60634 689.18 0.0014510 -113.21 -113.21 -0.60637 1.3343 1.9697 1843.7 -0.0074206 1146.8 0.19014 0.00056976 1755.1 383.36 407.59 3.4458 0.85012 1.0387 172.07 2.0705 3.5082 0.0039967
-143.62 0.0023637 8.5633e-06 -111.24 -111.24 -0.59106 688.17 0.0014531 -111.24 -111.24 -0.59110 1.3343 1.9713 1836.9 -0.0074098 1113.0 0.18962 0.00066731 1498.6 384.21 408.63 3.4226 0.85346 1.0420 172.68 2.0294 3.5358 0.0040564
-142.62 0.0027820 9.9999e-06 -109.27 -109.26 -0.57589 687.16 0.0014553 -109.27 -109.27 -0.57593 1.3343 1.9728 1830.2 -0.0073988 1080.8 0.18909 0.00077939 1283.1 385.07 409.68 3.3999 0.85679 1.0454 173.28 1.9896 3.5633 0.0041164
-141.62 0.0032653 1.1646e-05 -107.29 -107.29 -0.56082 686.15 0.0014574 -107.30 -107.30 -0.56087 1.3343 1.9744 1823.5 -0.0073878 1050.1 0.18856 0.00090784 1101.5 385.93 410.72 3.3777 0.86011 1.0487 173.88 1.9508 3.5908 0.0041766
-140.62 0.0038222 1.3527e-05 -105.31 -105.31 -0.54586 685.14 0.0014596 -105.32 -105.32 -0.54591 1.3344 1.9760 1816.7 -0.0073765 1020.7 0.18803 0.0010547 948.16 386.79 411.77 3.3560 0.86341 1.0520 174.48 1.9133 3.6183 0.0042372
-139.62 0.0044623 1.5672e-05 -103.34 -103.34 -0.53099 684.13 0.0014617 -103.34 -103.34 -0.53105 1.3344 1.9776 1810.0 -0.0073651 992.74 0.18749 0.0012221 818.26 387.65 412.83 3.3347 0.86670 1.0553 175.08 1.8768 3.6459 0.0042980
-138.62 0.0051963 1.8111e-05 -101.36 -101.36 -0.51622 683.12 0.0014639 -101.37 -101.37 -0.51629 1.3345 1.9792 1803.3 -0.0073536 965.97 0.18695 0.0014125 707.94 388.52 413.88 3.3139 0.86998 1.0586 175.67 1.8413 3.6734 0.0043592
-137.62 0.0060358 2.0879e-05 -99.376 -99.375 -0.50154 682.11 0.0014660 -99.386 -99.386 -0.50162 1.3346 1.9808 1796.6 -0.0073419 940.35 0.18641 0.0016287 614.00 389.39 414.94 3.2935 0.87325 1.0619 176.26 1.8069 3.7009 0.0044206
-136.62 0.0069938 2.4012e-05 -97.393 -97.392 -0.48696 681.10 0.0014682 -97.404 -97.404 -0.48705 1.3347 1.9825 1789.9 -0.0073301 915.81 0.18586 0.0018733 533.80 390.26 416.00 3.2735 0.87650 1.0651 176.85 1.7734 3.7284 0.0044823
-135.62 0.0080843 2.7550e-05 -95.408 -95.407 -0.47248 680.09 0.0014704 -95.421 -95.421 -0.47258 1.3348 1.9841 1783.2 -0.0073180 892.30 0.18531 0.0021497 465.17 391.14 417.07 3.2540 0.87975 1.0684 177.44 1.7409 3.7559 0.0045443
-134.62 0.0093230 3.1537e-05 -93.421 -93.420 -0.45808 679.08 0.0014726 -93.436 -93.436 -0.45820 1.3350 1.9858 1776.5 -0.0073059 869.75 0.18476 0.0024613 406.30 392.02 418.14 3.2348 0.88299 1.0716 178.02 1.7093 3.7834 0.0046066
-133.62 0.010727 3.6020e-05 -91.432 -91.431 -0.44378 678.07 0.0014748 -91.450 -91.449 -0.44391 1.3351 1.9875 1769.8 -0.0072935 848.11 0.18421 0.0028116 355.67 392.91 419.21 3.2161 0.88622 1.0749 178.61 1.6786 3.8109 0.0046691
-132.62 0.012315 4.1050e-05 -89.441 -89.440 -0.42956 677.06 0.0014770 -89.461 -89.461 -0.42971 1.3353 1.9892 1763.1 -0.0072810 827.32 0.18365 0.0032049 312.03 393.79 420.29 3.1977 0.88944 1.0781 179.19 1.6488 3.8385 0.0047320
-131.62 0.014106 4.6683e-05 -87.449 -87.447 -0.41543 676.04 0.0014792 -87.471 -87.471 -0.41560 1.3354 1.9909 1756.4 -0.0072684 807.34 0.18309 0.0036453 274.33 394.68 421.36 3.1798 0.89266 1.0813 179.76 1.6197 3.8660 0.0047951
-130.62 0.016124 5.2978e-05 -85.454 -85.452 -0.40138 675.03 0.0014814 -85.479 -85.479 -0.40157 1.3356 1.9926 1749.7 -0.0072555 788.12 0.18253 0.0041375 241.69 395.58 422.44 3.1622 0.89586 1.0846 180.34 1.5915 3.8935 0.0048586
-129.62 0.018392 6.0000e-05 -83.457 -83.455 -0.38742 674.02 0.0014836 -83.486 -83.486 -0.38763 1.3358 1.9944 1743.0 -0.0072425 769.63 0.18196 0.0046867 213.37 396.47 423.53 3.1450 0.89906 1.0878 180.91 1.5641 3.9210 0.0049223
-128.62 0.020935 6.7815e-05 -81.458 -81.456 -0.37354 673.01 0.0014859 -81.491 -81.490 -0.37378 1.3360 1.9961 1736.3 -0.0072294 751.83 0.18140 0.0052981 188.75 397.37 424.62 3.1281 0.90226 1.0910 181.48 1.5374 3.9485 0.0049863
-127.62 0.023783 7.6500e-05 -79.457 -79.455 -0.35975 672.00 0.0014881 -79.494 -79.493 -0.36001 1.3363 1.9979 1729.6 -0.0072160 734.67 0.18083 0.0059776 167.29 398.27 425.71 3.1116 0.90545 1.0942 182.05 1.5114 3.9760 0.0050506
-126.62 0.026966 8.6131e-05 -77.454 -77.451 -0.34603 670.98 0.0014904 -77.495 -77.495 -0.34632 1.3365 1.9997 1722.9 -0.0072025 718.14 0.18025 0.0067313 148.56 399.18 426.80 3.0954 0.90863 1.0974 182.62 1.4861 4.0035 0.0051152
-125.62 0.030515 9.6793e-05 -75.448 -75.445 -0.33239 669.97 0.0014926 -75.494 -75.494 -0.33272 1.3368 2.0015 1716.2 -0.0071888 702.18 0.17968 0.0075660 132.17 400.09 427.89 3.0795 0.91181 1.1006 183.18 1.4615 4.0310 0.0051800
-124.62 0.034467 0.00010858 -73.440 -73.437 -0.31882 668.95 0.0014949 -73.492 -73.492 -0.31919 1.3371 2.0033 1709.5 -0.0071749 686.79 0.17910 0.0084885 117.81 401.00 428.99 3.0640 0.91499 1.1038 183.74 1.4375 4.0584 0.0052452
-123.62 0.038859 0.00012158 -71.430 -71.426 -0.30533 667.94 0.0014971 -71.488 -71.487 -0.30574 1.3374 2.0051 1702.8 -0.0071609 671.93 0.17852 0.0095065 105.19 401.91 430.10 3.0488 0.91816 1.1070 184.30 1.4141 4.0859 0.0053106
-122.62 0.043731 0.00013589 -69.417 -69.413 -0.29192 666.92 0.0014994 -69.482 -69.481 -0.29237 1.3377 2.0070 1696.2 -0.0071466 657.57 0.17794 0.010628 94.092 402.83 431.20 3.0339 0.92134 1.1102 184.86 1.3913 4.1134 0.0053764
-121.62 0.049128 0.00015164 -67.402 -67.397 -0.27857 665.91 0.0015017 -67.474 -67.473 -0.27907 1.3380 2.0089 1689.5 -0.0071322 643.70 0.17736 0.011861 84.309 403.75 432.31 3.0193 0.92451 1.1134 185.41 1.3691 4.1409 0.0054424
-120.62 0.055096 0.00016892 -65.384 -65.379 -0.26530 664.89 0.0015040 -65.464 -65.463 -0.26585 1.3384 2.0107 1682.8 -0.0071176 630.28 0.17678 0.013215 75.669 404.67 433.42 3.0050 0.92767 1.1166 185.96 1.3475 4.1683 0.0055087
-119.62 0.061684 0.00018786 -63.364 -63.358 -0.25210 663.87 0.0015063 -63.452 -63.452 -0.25271 1.3387 2.0126 1676.1 -0.0071028 617.30 0.17619 0.014700 68.027 405.60 434.53 2.9909 0.93084 1.1198 186.51 1.3264 4.1958 0.0055752
-118.62 0.068946 0.00020859 -61.341 -61.334 -0.23896 662.86 0.0015086 -61.439 -61.438 -0.23963 1.3391 2.0146 1669.4 -0.0070878 604.74 0.17560 0.016325 61.255 406.53 435.64 2.9772 0.93401 1.1231 187.06 1.3058 4.2233 0.0056421
-117.62 0.076937 0.00023125 -59.315 -59.308 -0.22589 661.84 0.0015109 -59.423 -59.422 -0.22663 1.3395 2.0165 1662.8 -0.0070726 592.58 0.17501 0.018101 55.245 407.46 436.76 2.9638 0.93718 1.1263 187.60 1.2857 4.2507 0.0057092
-116.62 0.085718 0.00025596 -57.286 -57.278 -0.21289 660.82 0.0015133 -57.406 -57.405 -0.21370 1.3400 2.0184 1656.1 -0.0070573 580.80 0.17442 0.020040 49.901 408.39 437.88 2.9506 0.94035 1.1295 188.14 1.2660 4.2782 0.0057767
-115.62 0.095353 0.00028289 -55.255 -55.245 -0.19995 659.80 0.0015156 -55.386 -55.385 -0.20084 1.3404 2.0204 1649.4 -0.0070417 569.38 0.17383 0.022152 45.142 409.33 439.01 2.9377 0.94352 1.1327 188.68 1.2468 4.3056 0.0058444
-114.62 0.10591 0.00031220 -53.220 -53.210 -0.18708 658.78 0.0015180 -53.365 -53.364 -0.18805 1.3409 2.0224 1642.7 -0.0070260 558.32 0.17323 0.024451 40.898 410.27 440.13 2.9250 0.94669 1.1360 189.22 1.2281 4.3330 0.0059123
-113.62 0.11746 0.00034403 -51.182 -51.171 -0.17426 657.76 0.0015203 -51.342 -51.340 -0.17533 1.3413 2.0244 1636.0 -0.0070100 547.59 0.17264 0.026949 37.107 411.21 441.26 2.9126 0.94987 1.1392 189.75 1.2097 4.3604 0.0059806
-112.62 0.13008 0.00037858 -49.141 -49.129 -0.16151 656.73 0.0015227 -49.316 -49.315 -0.16267 1.3418 2.0264 1629.3 -0.0069938 537.18 0.17204 0.029661 33.715 412.16 442.39 2.9005 0.95305 1.1424 190.28 1.1918 4.3879 0.0060491
-111.62 0.14384 0.00041601 -47.097 -47.083 -0.14881 655.71 0.0015251 -47.289 -47.287 -0.15008 1.3424 2.0285 1622.7 -0.0069774 527.08 0.17144 0.032600 30.675 413.10 443.53 2.8885 0.95623 1.1457 190.81 1.1742 4.4153 0.0061180
-110.62 0.15884 0.00045652 -45.050 -45.034 -0.13618 654.69 0.0015274 -45.259 -45.258 -0.13755 1.3429 2.0305 1616.0 -0.0069609 517.28 0.17084 0.035781 27.948 414.06 444.66 2.8769 0.95942 1.1490 191.34 1.1570 4.4427 0.0061871
-109.62 0.17516 0.00050031 -42.998 -42.981 -0.12360 653.66 0.0015298 -43.228 -43.226 -0.12509 1.3435 2.0326 1609.3 -0.0069441 507.76 0.17024 0.039220 25.497 415.01 445.80 2.8654 0.96261 1.1522 191.86 1.1402 4.4701 0.0062564
-108.62 0.19290 0.00054758 -40.944 -40.925 -0.11107 652.64 0.0015322 -41.194 -41.192 -0.11269 1.3441 2.0347 1602.6 -0.0069271 498.51 0.16964 0.042933 23.292 415.96 446.94 2.8542 0.96581 1.1555 192.38 1.1236 4.4974 0.0063261
-107.62 0.21215 0.00059854 -38.885 -38.864 -0.098595 651.61 0.0015347 -39.158 -39.156 -0.10036 1.3447 2.0369 1595.9 -0.0069098 489.52 0.16903 0.046937 21.305 416.92 448.09 2.8433 0.96901 1.1588 192.90 1.1075 4.5248 0.0063960
-106.62 0.23301 0.00065342 -36.823 -36.800 -0.086174 650.58 0.0015371 -37.120 -37.118 -0.088082 1.3453 2.0390 1589.2 -0.0068924 480.79 0.16843 0.051250 19.512 417.88 449.23 2.8325 0.97222 1.1621 193.41 1.0916 4.5522 0.0064662
-105.62 0.25561 0.00071246 -34.757 -34.732 -0.073804 649.55 0.0015395 -35.080 -35.078 -0.075868 1.3460 2.0412 1582.6 -0.0068747 472.30 0.16782 0.055891 17.892 418.85 450.38 2.8220 0.97544 1.1655 193.93 1.0760 4.5795 0.0065367
-104.62 0.28004 0.00077588 -32.687 -32.659 -0.061483 648.52 0.0015420 -33.038 -33.035 -0.063714 1.3467 2.0434 1575.9 -0.0068569 464.04 0.16721 0.060878 16.426 419.81 451.53 2.8116 0.97867 1.1688 194.44 1.0608 4.6069 0.0066074
-103.62 0.30643 0.00084396 -30.613 -30.582 -0.049211 647.49 0.0015444 -30.994 -30.991 -0.051619 1.3474 2.0456 1569.2 -0.0068387 456.00 0.16660 0.066231 15.099 420.78 452.68 2.8015 0.98191 1.1722 194.94 1.0458 4.6342 0.0066785
-102.62 0.33490 0.00091693 -28.534 -28.501 -0.036986 646.46 0.0015469 -28.947 -28.944 -0.039582 1.3481 2.0478 1562.5 -0.0068204 448.18 0.16600 0.071971 13.894 421.75 453.84 2.7916 0.98516 1.1755 195.44 1.0310 4.6615 0.0067498
-101.62 0.36558 0.00099508 -26.451 -26.415 -0.024806 645.43 0.0015494 -26.898 -26.894 -0.027602 1.3489 2.0501 1555.8 -0.0068018 440.57 0.16539 0.078120 12.801 422.73 454.99 2.7818 0.98841 1.1789 195.95 1.0166 4.6888 0.0068213
-100.62 0.39862 0.0010787 -24.363 -24.324 -0.012671 644.39 0.0015519 -24.847 -24.843 -0.015678 1.3497 2.0524 1549.1 -0.0067830 433.16 0.16478 0.084699 11.807 423.70 456.15 2.7723 0.99168 1.1823 196.44 1.0024 4.7161 0.0068932
-99.625 0.43414 0.0011680 -22.271 -22.228 -0.00057860 643.36 0.0015544 -22.794 -22.789 -0.0038103 1.3505 2.0547 1542.4 -0.0067639 425.95 0.16416 0.091731 10.901 424.68 457.31 2.7630 0.99496 1.1858 196.94 0.98838 4.7434 0.0069653
-98.625 0.47230 0.0012634 -20.174 -20.128 0.011472 642.32 0.0015569 -20.738 -20.733 0.0080027 1.3514 2.0570 1535.7 -0.0067447 418.92 0.16355 0.099240 10.077 425.66 458.48 2.7538 0.99825 1.1892 197.43 0.97464 4.7707 0.0070377
-97.625 0.51325 0.0013651 -18.072 -18.021 0.023482 641.28 0.0015594 -18.680 -18.674 0.019762 1.3522 2.0594 1529.0 -0.0067251 412.07 0.16294 0.10725 9.3239 426.65 459.64 2.7448 1.0016 1.1927 197.92 0.96112 4.7979 0.0071103
-96.625 0.55714 0.0014735 -15.965 -15.910 0.035452 640.24 0.0015619 -16.620 -16.614 0.031467 1.3531 2.0618 1522.3 -0.0067053 405.39 0.16233 0.11579 8.6365 427.63 460.81 2.7360 1.0049 1.1962 198.40 0.94783 4.8251 0.0071832
-95.625 0.60416 0.0015889 -13.853 -13.793 0.047385 639.20 0.0015645 -14.557 -14.550 0.043120 1.3540 2.0642 1515.7 -0.0066853 398.88 0.16171 0.12488 8.0078 428.62 461.98 2.7274 1.0082 1.1997 198.88 0.93475 4.8524 0.0072564
-94.625 0.65446 0.0017116 -11.735 -11.670 0.059281 638.16 0.0015670 -12.491 -12.484 0.054721 1.3550 2.0667 1509.0 -0.0066650 392.53 0.16110 0.13455 7.4323 429.61 463.15 2.7189 1.0116 1.2032 199.36 0.92188 4.8796 0.0073299
-93.625 0.70822 0.0018420 -9.6113 -9.5416 0.071142 637.12 0.0015696 -10.424 -10.416 0.066271 1.3560 2.0691 1502.3 -0.0066444 386.34 0.16048 0.14482 6.9050 430.60 464.32 2.7107 1.0149 1.2068 199.83 0.90921 4.9068 0.0074036
-92.625 0.76564 0.0019804 -7.4822 -7.4068 0.082969 636.07 0.0015722 -8.3535 -8.3452 0.077771 1.3570 2.0716 1495.6 -0.0066236 380.31 0.15987 0.15573 6.4212 431.60 465.49 2.7025 1.0183 1.2104 200.30 0.89673 4.9340 0.0074776
-91.625 0.82689 0.0021272 -5.3473 -5.2658 0.094763 635.02 0.0015747 -6.2808 -6.2719 0.089220 1.3580 2.0742 1488.9 -0.0066025 374.41 0.15925 0.16731 5.9769 432.59 466.67 2.6946 1.0217 1.2140 200.77 0.88445 4.9611 0.0075518
-90.625 0.89218 0.0022828 -3.2062 -3.1183 0.10652 633.98 0.0015773 -4.2056 -4.1959 0.10062 1.3591 2.0767 1482.2 -0.0065811 368.66 0.15864 0.17958 5.5685 433.59 467.84 2.6868 1.0251 1.2177 201.24 0.87236 4.9883 0.0076263
-89.625 0.96172 0.0024476 -1.0590 -0.96424 0.11826 632.93 0.0015800 -2.1279 -2.1174 0.11197 1.3602 2.0793 1475.5 -0.0065595 363.05 0.15802 0.19258 5.1928 434.59 469.02 2.6791 1.0285 1.2213 201.70 0.86045 5.0154 0.0077011
-88.625 1.0357 0.0026219 1.0947 1.1967 0.12996 631.88 0.0015826 -0.047516 -0.036215 0.12328 1.3613 2.0819 1468.8 -0.0065375 357.56 0.15740 0.20633 4.8466 435.59 470.20 2.6717 1.0320 1.2250 202.15 0.84873 5.0425 0.0077761
-87.625 1.1144 0.0028061 3.2549 3.3647 0.14164 630.83 0.0015852 2.0355 2.0476 0.13454 1.3625 2.0846 1462.1 -0.0065153 352.21 0.15679 0.22087 4.5276 436.60 471.39 2.6643 1.0354 1.2288 202.61 0.83718 5.0696 0.0078514
-86.625 1.1979 0.0030008 5.4219 5.5398 0.15328 629.77 0.0015879 4.1211 4.1342 0.14575 1.3637 2.0873 1455.4 -0.0064928 346.98 0.15617 0.23623 4.2331 437.61 472.57 2.6571 1.0389 1.2325 203.06 0.82580 5.0967 0.0079270
-85.625 1.2866 0.0032062 7.5957 7.7225 0.16491 628.72 0.0015905 6.2094 6.2235 0.15691 1.3649 2.0900 1448.8 -0.0064701 341.87 0.15555 0.25245 3.9612 438.61 473.75 2.6501 1.0424 1.2363 203.50 0.81460 5.1237 0.0080028
-84.625 1.3806 0.0034229 9.7767 9.9127 0.17651 627.66 0.0015932 8.3004 8.3155 0.16803 1.3661 2.0927 1442.1 -0.0064470 336.87 0.15494 0.26956 3.7097 439.63 474.94 2.6432 1.0460 1.2402 203.95 0.80356 5.1508 0.0080789
-83.625 1.4803 0.0036512 11.965 12.111 0.18808 626.60 0.0015959 10.394 10.410 0.17911 1.3674 2.0955 1435.4 -0.0064236 331.99 0.15432 0.28760 3.4771 440.64 476.13 2.6364 1.0495 1.2440 204.38 0.79269 5.1778 0.0081553
-82.625 1.5858 0.0038917 14.161 14.317 0.19964 625.54 0.0015986 12.491 12.508 0.19014 1.3687 2.0983 1428.7 -0.0063999 327.22 0.15370 0.30659 3.2616 441.65 477.31 2.6298 1.0531 1.2479 204.82 0.78199 5.2048 0.0082319
-81.625 1.6975 0.0041448 16.364 16.531 0.21117 624.48 0.0016013 14.590 14.609 0.20113 1.3700 2.1012 1422.0 -0.0063759 322.55 0.15309 0.32659 3.0619 442.67 478.50 2.6233 1.0567 1.2519 205.25 0.77144 5.2318 0.0083088
-80.625 1.8155 0.0044109 18.576 18.754 0.22269 623.42 0.0016041 16.692 16.712 0.21208 1.3714 2.1041 1415.4 -0.0063516 317.99 0.15247 0.34763 2.8766 443.69 479.70 2.6169 1.0603 1.2558 205.67 0.76106 5.2587 0.0083860
-79.625 1.9402 0.0046907 20.795 20.986 0.23419 622.36 0.0016068 18.797 18.819 0.22299 1.3728 2.1070 1408.7 -0.0063270 313.52 0.15186 0.36974 2.7046 444.71 480.89 2.6106 1.0639 1.2598 206.10 0.75083 5.2857 0.0084634
-78.625 2.0718 0.0049844 23.023 23.227 0.24567 621.29 0.0016096 20.905 20.928 0.23385 1.3742 2.1099 1402.0 -0.0063021 309.15 0.15124 0.39296 2.5448 445.73 482.08 2.6045 1.0676 1.2639 206.51 0.74076 5.3126 0.0085411
-77.625 2.2107 0.0052927 25.259 25.476 0.25713 620.22 0.0016123 23.016 23.040 0.24468 1.3757 2.1129 1395.3 -0.0062768 304.88 0.15062 0.41735 2.3961 446.75 483.27 2.5985 1.0712 1.2680 206.93 0.73084 5.3395 0.0086190
-76.625 2.3571 0.0056161 27.503 27.735 0.26859 619.15 0.0016151 25.130 25.156 0.25546 1.3772 2.1159 1388.7 -0.0062512 300.69 0.15001 0.44292 2.2577 447.78 484.47 2.5926 1.0749 1.2721 207.34 0.72107 5.3664 0.0086972
-75.625 2.5113 0.0059551 29.757 30.004 0.28002 618.08 0.0016179 27.247 27.275 0.26620 1.3787 2.1190 1382.0 -0.0062253 296.59 0.14939 0.46974 2.1288 448.81 485.67 2.5869 1.0787 1.2762 207.74 0.71146 5.3933 0.0087757
-74.625 2.6736 0.0063102 32.020 32.283 0.29145 617.01 0.0016207 29.366 29.396 0.27691 1.3802 2.1221 1375.4 -0.0061990 292.58 0.14878 0.49783 2.0087 449.83 486.86 2.5812 1.0824 1.2804 208.14 0.70200 5.4201 0.0088544
-73.625 2.8444 0.0066819 34.292 34.572 0.30287 615.93 0.0016236 31.489 31.521 0.28758 1.3818 2.1252 1368.7 -0.0061724 288.65 0.14816 0.52725 1.8966 450.86 488.06 2.5757 1.0862 1.2847 208.54 0.69268 5.4469 0.0089334
-72.625 3.0240 0.0070708 36.573 36.871 0.31427 614.85 0.0016264 33.615 33.649 0.29821 1.3834 2.1284 1362.0 -0.0061454 284.81 0.14755 0.55804 1.7920 451.90 489.26 2.5703 1.0900 1.2889 208.93 0.68351 5.4737 0.0090126
-71.625 3.2127 0.0074776 38.864 39.181 0.32567 613.78 0.0016293 35.745 35.781 0.30880 1.3851 2.1316 1355.4 -0.0061181 281.03 0.14694 0.59024 1.6942 452.93 490.46 2.5650 1.0938 1.2932 209.32 0.67448 5.5005 0.0090922
-70.625 3.4108 0.0079026 41.165 41.501 0.33706 612.69 0.0016321 37.877 37.915 0.31935 1.3867 2.1349 1348.7 -0.0060904 277.34 0.14632 0.62390 1.6028 453.96 491.66 2.5598 1.0976 1.2976 209.70 0.66560 5.5273 0.0091720
-69.625 3.6187 0.0083466 43.476 43.833 0.34844 611.61 0.0016350 40.013 40.053 0.32987 1.3884 2.1382 1342.1 -0.0060624 273.72 0.14571 0.65906 1.5173 455.00 492.86 2.5547 1.1015 1.3020 210.08 0.65687 5.5540 0.0092520
-68.625 3.8367 0.0088100 45.798 46.176 0.35982 610.53 0.0016379 42.152 42.195 0.34036 1.3902 2.1415 1335.5 -0.0060339 270.17 0.14510 0.69577 1.4372 456.04 494.06 2.5497 1.1054 1.3064 210.45 0.64827 5.5807 0.0093324
-67.625 4.0652 0.0092936 48.130 48.530 0.37119 609.44 0.0016409 44.294 44.340 0.35080 1.3919 2.1449 1328.8 -0.0060051 266.69 0.14449 0.73408 1.3622 457.08 495.26 2.5448 1.1093 1.3109 210.82 0.63981 5.6074 0.0094130
-66.625 4.3046 0.0097979 50.473 50.897 0.38257 608.35 0.0016438 46.439 46.488 0.36122 1.3937 2.1483 1322.2 -0.0059760 263.28 0.14388 0.77404 1.2919 458.12 496.46 2.5400 1.1133 1.3154 211.18 0.63150 5.6341 0.0094939
-65.625 4.5551 0.010323 52.827 53.275 0.39394 607.26 0.0016467 48.588 48.640 0.37160 1.3955 2.1518 1315.6 -0.0059464 259.93 0.14327 0.81570 1.2259 459.16 497.67 2.5353 1.1172 1.3200 211.54 0.62332 5.6608 0.0095750
-64.625 4.8173 0.010871 55.192 55.666 0.40531 606.16 0.0016497 50.740 50.795 0.38195 1.3974 2.1553 1308.9 -0.0059164 256.65 0.14266 0.85910 1.1640 460.21 498.87 2.5307 1.1212 1.3246 211.89 0.61527 5.6874 0.0096564
-63.625 5.0915 0.011441 57.568 58.070 0.41667 605.07 0.0016527 52.896 52.954 0.39226 1.3993 2.1588 1302.3 -0.0058861 253.42 0.14205 0.90429 1.1058 461.25 500.07 2.5262 1.1252 1.3293 212.24 0.60736 5.7140 0.0097382
-62.625 5.3781 0.012034 59.956 60.486 0.42805 603.97 0.0016557 55.055 55.117 0.40254 1.4012 2.1624 1295.7 -0.0058553 250.26 0.14144 0.95134 1.0511 462.30 501.28 2.5218 1.1293 1.3340 212.58 0.59958 5.7406 0.0098201
-61.625 5.6774 0.012652 62.356 62.916 0.43942 602.87 0.0016587 57.218 57.283 0.41279 1.4031 2.1660 1289.1 -0.0058241 247.16 0.14084 1.0003 0.99972 463.35 502.48 2.5175 1.1333 1.3387 212.92 0.59194 5.7672 0.0099024
-60.625 5.9899 0.013293 64.768 65.358 0.45080 601.77 0.0016618 59.385 59.453 0.42301 1.4051 2.1697 1282.5 -0.0057925 244.12 0.14023 1.0512 0.95131 464.40 503.68 2.5133 1.1374 1.3435 213.26 0.58442 5.7938 0.0099850
-59.625 6.3160 0.013960 67.193 67.815 0.46218 600.66 0.0016648 61.554 61.627 0.43320 1.4071 2.1734 1275.9 -0.0057605 241.13 0.13962 1.1041 0.90573 465.45 504.89 2.5091 1.1415 1.3483 213.58 0.57704 5.8203 0.010068
-58.625 6.6561 0.014653 69.630 70.286 0.47356 599.55 0.0016679 63.728 63.805 0.44335 1.4091 2.1772 1269.3 -0.0057280 238.19 0.13902 1.1591 0.86277 466.50 506.09 2.5051 1.1457 1.3532 213.90 0.56978 5.8468 0.010151
-57.625 7.0107 0.015372 72.080 72.770 0.48496 598.44 0.0016710 65.905 65.986 0.45348 1.4111 2.1810 1262.7 -0.0056951 235.31 0.13842 1.2161 0.82228 467.55 507.30 2.5011 1.1498 1.3581 214.22 0.56265 5.8733 0.010234
-56.625 7.3801 0.016119 74.542 75.269 0.49636 597.33 0.0016741 68.086 68.172 0.46358 1.4132 2.1848 1256.1 -0.0056617 232.48 0.13781 1.2754 0.78408 468.60 508.50 2.4972 1.1540 1.3631 214.53 0.55564 5.8998 0.010318
-55.625 7.7648 0.016894 77.018 77.783 0.50776 596.22 0.0016772 70.271 70.361 0.47364 1.4153 2.1887 1249.5 -0.0056279 229.69 0.13721 1.3369 0.74802 469.66 509.71 2.4934 1.1582 1.3681 214.84 0.54875 5.9263 0.010402
-54.625 8.1652 0.017697 79.508 80.312 0.51918 595.10 0.0016804 72.460 72.554 0.48368 1.4174 2.1927 1242.9 -0.0055937 226.96 0.13661 1.4006 0.71396 470.72 510.91 2.4897 1.1624 1.3731 215.14 0.54199 5.9527 0.010486
-53.625 8.5819 0.018530 82.011 82.856 0.53061 593.98 0.0016836 74.652 74.752 0.49369 1.4196 2.1967 1236.3 -0.0055589 224.27 0.13601 1.4667 0.68178 471.77 512.11 2.4860 1.1667 1.3782 215.43 0.53535 5.9792 0.010571
-52.625 9.0151 0.019393 84.528 85.416 0.54205 592.86 0.0016867 76.849 76.954 0.50368 1.4218 2.2007 1229.8 -0.0055237 221.63 0.13541 1.5353 0.65136 472.83 513.32 2.4824 1.1710 1.3834 215.72 0.52882 6.0056 0.010656
-51.625 9.4655 0.020287 87.059 87.991 0.55350 591.73 0.0016900 79.049 79.159 0.51363 1.4240 2.2048 1223.2 -0.0054880 219.04 0.13482 1.6062 0.62258 473.89 514.52 2.4789 1.1752 1.3886 216.00 0.52241 6.0320 0.010741
-50.625 9.9335 0.021212 89.605 90.583 0.56497 590.60 0.0016932 81.253 81.369 0.52356 1.4262 2.2089 1216.6 -0.0054519 216.48 0.13422 1.6797 0.59534 474.95 515.73 2.4755 1.1796 1.3938 216.28 0.51612 6.0584 0.010827
-49.625 10.419 0.022170 92.165 93.191 0.57645 589.47 0.0016964 83.462 83.584 0.53347 1.4285 2.2131 1210.1 -0.0054152 213.98 0.13363 1.7558 0.56954 476.01 516.93 2.4722 1.1839 1.3991 216.55 0.50994 6.0848 0.010913
-48.625 10.924 0.023161 94.739 95.815 0.58794 588.34 0.0016997 85.674 85.802 0.54334 1.4308 2.2173 1203.5 -0.0053780 211.51 0.13303 1.8345 0.54510 477.07 518.13 2.4689 1.1883 1.4044 216.82 0.50387 6.1112 0.010999
-47.625 11.448 0.024187 97.329 98.457 0.59945 587.20 0.0017030 87.891 88.025 0.55319 1.4331 2.2216 1196.9 -0.0053403 209.08 0.13244 1.9159 0.52194 478.14 519.33 2.4657 1.1927 1.4098 217.08 0.49792 6.1375 0.011085
-46.625 11.991 0.025247 99.935 101.12 0.61098 586.06 0.0017063 90.111 90.252 0.56302 1.4354 2.2259 1190.4 -0.0053020 206.69 0.13185 2.0001 0.49997 479.20 520.53 2.4625 1.1971 1.4153 217.33 0.49207 6.1639 0.011172
-45.625 12.554 0.026342 102.56 103.79 0.62252 584.92 0.0017096 92.336 92.484 0.57282 1.4378 2.2303 1183.8 -0.0052633 204.34 0.13126 2.0872 0.47912 480.27 521.74 2.4594 1.2015 1.4207 217.58 0.48633 6.1902 0.011259
-44.625 13.137 0.027474 105.19 106.49 0.63408 583.77 0.0017130 94.565 94.720 0.58260 1.4402 2.2347 1177.3 -0.0052240 202.03 0.13067 2.1771 0.45933 481.33 522.94 2.4564 1.2060 1.4263 217.82 0.48069 6.2165 0.011347
-43.625 13.741 0.028644 107.84 109.20 0.64566 582.62 0.0017164 96.799 96.961 0.59235 1.4426 2.2392 1170.7 -0.0051841 199.75 0.13008 2.2700 0.44053 482.40 524.14 2.4535 1.2104 1.4319 218.05 0.47516 6.2429 0.011435
-42.625 14.367 0.029851 110.51 111.93 0.65726 581.47 0.0017198 99.036 99.207 0.60208 1.4450 2.2437 1164.2 -0.0051437 197.51 0.12949 2.3659 0.42267 483.46 525.33 2.4506 1.2149 1.4375 218.28 0.46973 6.2692 0.011523
-41.625 15.015 0.031098 113.20 114.68 0.66888 580.32 0.0017232 101.28 101.46 0.61179 1.4475 2.2483 1157.7 -0.0051027 195.30 0.12891 2.4649 0.40569 484.53 526.53 2.4478 1.2195 1.4432 218.50 0.46440 6.2955 0.011612
-40.625 15.686 0.032384 115.90 117.44 0.68052 579.16 0.0017266 103.52 103.71 0.62147 1.4500 2.2529 1151.1 -0.0050611 193.13 0.12832 2.5671 0.38954 485.60 527.73 2.4450 1.2240 1.4489 218.72 0.45917 6.3218 0.011701
-39.625 16.380 0.033711 118.62 120.23 0.69219 578.00 0.0017301 105.78 105.97 0.63113 1.4525 2.2576 1144.6 -0.0050189 190.99 0.12774 2.6725 0.37418 486.67 528.93 2.4423 1.2286 1.4547 218.93 0.45403 6.3481 0.011790
-38.625 17.097 0.035080 121.35 123.04 0.70388 576.83 0.0017336 108.03 108.24 0.64077 1.4550 2.2623 1138.0 -0.0049761 188.88 0.12716 2.7813 0.35955 487.74 530.12 2.4397 1.2332 1.4606 219.13 0.44900 6.3744 0.011880
-37.625 17.838 0.036491 124.10 125.86 0.71559 575.66 0.0017371 110.29 110.51 0.65039 1.4576 2.2671 1131.5 -0.0049327 186.81 0.12658 2.8934 0.34562 488.81 531.32 2.4371 1.2378 1.4665 219.33 0.44405 6.4007 0.011970
-36.625 18.604 0.037946 126.87 128.71 0.72732 574.49 0.0017407 112.56 112.78 0.65999 1.4602 2.2719 1125.0 -0.0048887 184.76 0.12600 3.0089 0.33235 489.88 532.51 2.4346 1.2424 1.4724 219.52 0.43920 6.4270 0.012060
-35.625 19.395 0.039445 129.66 131.57 0.73908 573.32 0.0017442 114.83 115.06 0.66956 1.4628 2.2768 1118.5 -0.0048440 182.75 0.12542 3.1280 0.31969 490.95 533.70 2.4321 1.2471 1.4784 219.70 0.43444 6.4533 0.012151
-34.625 20.212 0.040989 132.47 134.46 0.75087 572.14 0.0017478 117.10 117.34 0.67912 1.4654 2.2818 1111.9 -0.0047987 180.76 0.12485 3.2506 0.30763 492.02 534.89 2.4297 1.2517 1.4845 219.88 0.42977 6.4797 0.012243
-33.625 21.056 0.042580 135.29 137.36 0.76268 570.96 0.0017514 119.38 119.63 0.68865 1.4681 2.2868 1105.4 -0.0047527 178.80 0.12427 3.3770 0.29612 493.09 536.08 2.4273 1.2564 1.4906 220.05 0.42519 6.5060 0.012334
-32.625 21.926 0.044218 138.13 140.29 0.77453 569.77 0.0017551 121.66 121.93 0.69817 1.4708 2.2918 1098.9 -0.0047061 176.87 0.12370 3.5071 0.28514 494.17 537.27 2.4250 1.2611 1.4968 220.21 0.42070 6.5323 0.012426
-31.625 22.823 0.045904 140.99 143.24 0.78639 568.58 0.0017588 123.95 124.23 0.70767 1.4735 2.2970 1092.3 -0.0046587 174.97 0.12313 3.6410 0.27465 495.24 538.46 2.4227 1.2659 1.5031 220.36 0.41629 6.5587 0.012519
-30.625 23.749 0.047639 143.87 146.21 0.79829 567.39 0.0017625 126.24 126.53 0.71714 1.4762 2.3021 1085.8 -0.0046107 173.09 0.12256 3.7787 0.26464 496.31 539.64 2.4205 1.2706 1.5094 220.51 0.41196 6.5850 0.012612
-29.625 24.703 0.049425 146.77 149.20 0.81022 566.19 0.0017662 128.54 128.84 0.72660 1.4790 2.3074 1079.3 -0.0045619 171.24 0.12200 3.9205 0.25507 497.38 540.83 2.4184 1.2754 1.5157 220.65 0.40772 6.6114 0.012706
-28.625 25.687 0.051262 149.69 152.22 0.82217 564.99 0.0017699 130.84 131.16 0.73604 1.4818 2.3126 1072.8 -0.0045124 169.42 0.12143 4.0663 0.24592 498.46 542.01 2.4162 1.2802 1.5222 220.79 0.40356 6.6378 0.012800
-27.625 26.700 0.053152 152.63 155.26 0.83416 563.78 0.0017737 133.15 133.48 0.74547 1.4846 2.3180 1066.2 -0.0044621 167.62 0.12087 4.2163 0.23717 499.53 543.19 2.4142 1.2850 1.5286 220.91 0.39947 6.6642 0.012894
-26.625 27.743 0.055095 155.58 158.32 0.84618 562.57 0.0017775 135.47 135.81 0.75487 1.4874 2.3234 1059.7 -0.0044111 165.84 0.12031 4.3705 0.22881 500.60 544.37 2.4122 1.2899 1.5352 221.03 0.39547 6.6906 0.012989
-25.625 28.817 0.057092 158.56 161.40 0.85823 561.36 0.0017814 137.78 138.14 0.76426 1.4902 2.3289 1053.2 -0.0043593 164.09 0.11975 4.5290 0.22080 501.68 545.55 2.4102 1.2947 1.5418 221.14 0.39154 6.7171 0.013084
-24.625 29.923 0.059145 161.56 164.50 0.87031 560.14 0.0017853 140.11 140.48 0.77363 1.4931 2.3344 1046.7 -0.0043067 162.36 0.11919 4.6918 0.21314 502.75 546.72 2.4083 1.2996 1.5485 221.25 0.38768 6.7436 0.013180
-23.625 31.061 0.061255 164.57 167.63 0.88242 558.92 0.0017892 142.44 142.82 0.78298 1.4960 2.3400 1040.1 -0.0042533 160.65 0.11863 4.8592 0.20580 503.82 547.90 2.4064 1.3045 1.5552 221.35 0.38391 6.7701 0.013277
-22.625 32.232 0.063423 167.61 170.78 0.89457 557.69 0.0017931 144.77 145.17 0.79232 1.4990 2.3457 1033.6 -0.0041990 158.97 0.11807 5.0311 0.19877 504.90 549.07 2.4045 1.3095 1.5621 221.44 0.38020 6.7967 0.013374
-21.625 33.435 0.065650 170.67 173.96 0.90676 556.46 0.0017971 147.11 147.52 0.80164 1.5019 2.3514 1027.1 -0.0041439 157.30 0.11752 5.2076 0.19203 505.97 550.24 2.4027 1.3144 1.5690 221.52 0.37656 6.8232 0.013471
-20.625 34.673 0.067938 173.75 177.16 0.91897 555.23 0.0018011 149.45 149.88 0.81095 1.5049 2.3572 1020.6 -0.0040879 155.66 0.11697 5.3889 0.18557 507.04 551.40 2.4010 1.3194 1.5759 221.59 0.37300 6.8499 0.013569
-19.625 35.946 0.070287 176.85 180.39 0.93123 553.99 0.0018051 151.80 152.25 0.82024 1.5079 2.3630 1014.0 -0.0040311 154.04 0.11642 5.5750 0.17937 508.11 552.57 2.3992 1.3244 1.5829 221.66 0.36950 6.8765 0.013668
-18.625 37.253 0.072698 179.97 183.64 0.94351 552.74 0.0018092 154.16 154.62 0.82952 1.5109 2.3689 1007.5 -0.0039733 152.44 0.11587 5.7660 0.17343 509.19 553.73 2.3976 1.3294 1.5901 221.72 0.36608 6.9032 0.013767
-17.625 38.596 0.075174 183.11 186.91 0.95584 551.49 0.0018133 156.52 157.00 0.83878 1.5140 2.3749 1001.0 -0.0039145 150.86 0.11532 5.9621 0.16773 510.26 554.89 2.3959 1.3345 1.5972 221.77 0.36272 6.9300 0.013867
-16.625 39.976 0.077715 186.28 190.21 0.96820 550.24 0.0018174 158.89 159.39 0.84803 1.5171 2.3810 994.44 -0.0038549 149.29 0.11478 6.1632 0.16225 511.33 556.05 2.3943 1.3395 1.6045 221.81 0.35942 6.9568 0.013968
-15.625 41.392 0.080323 189.46 193.54 0.98060 548.98 0.0018216 161.26 161.78 0.85726 1.5202 2.3871 987.91 -0.0037942 147.75 0.11423 6.3696 0.15700 512.40 557.20 2.3927 1.3446 1.6119 221.85 0.35619 6.9836 0.014069
-14.625 42.846 0.082999 192.67 196.89 0.99304 547.71 0.0018258 163.64 164.18 0.86649 1.5233 2.3933 981.37 -0.0037325 146.22 0.11369 6.5812 0.15195 513.47 558.36 2.3912 1.3497 1.6193 221.87 0.35302 7.0105 0.014170
-13.625 44.338 0.085744 195.90 200.27 1.0055 546.44 0.0018300 166.02 166.58 0.87569 1.5264 2.3996 974.83 -0.0036698 144.72 0.11315 6.7983 0.14710 514.54 559.51 2.3897 1.3549 1.6268 221.89 0.34992 7.0375 0.014273
-12.625 45.870 0.088560 199.16 203.68 1.0180 545.17 0.0018343 168.41 168.99 0.88489 1.5296 2.4059 968.29 -0.0036061 143.23 0.11261 7.0208 0.14243 515.61 560.65 2.3883 1.3600 1.6344 221.90 0.34688 7.0646 0.014376
-11.625 47.440 0.091448 202.44 207.11 1.0306 543.89 0.0018386 170.81 171.41 0.89407 1.5328 2.4124 961.75 -0.0035413 141.76 0.11208 7.2490 0.13795 516.68 561.80 2.3868 1.3652 1.6421 221.91 0.34389 7.0917 0.014479
-10.625 49.051 0.094410 205.74 210.57 1.0432 542.60 0.0018430 173.21 173.83 0.90324 1.5360 2.4189 955.20 -0.0034753 140.30 0.11154 7.4829 0.13364 517.75 562.94 2.3854 1.3704 1.6498 221.90 0.34097 7.1188 0.014584
-9.6250 50.703 0.097447 209.06 214.05 1.0558 541.31 0.0018474 175.61 176.26 0.91240 1.5393 2.4255 948.65 -0.0034082 138.86 0.11101 7.7226 0.12949 518.81 564.08 2.3841 1.3757 1.6577 221.88 0.33810 7.1461 0.014689
-8.6250 52.396 0.10056 212.40 217.57 1.0685 540.02 0.0018518 178.03 178.70 0.92154 1.5426 2.4321 942.10 -0.0033400 137.44 0.11048 7.9683 0.12550 519.88 565.21 2.3827 1.3809 1.6657 221.86 0.33529 7.1734 0.014795
-7.6250 54.131 0.10375 215.77 221.11 1.0812 538.72 0.0018563 180.45 181.14 0.93068 1.5459 2.4389 935.55 -0.0032705 136.03 0.10995 8.2200 0.12165 520.94 566.35 2.3814 1.3862 1.6737 221.83 0.33254 7.2008 0.014902
-6.6250 55.909 0.10703 219.17 224.68 1.0940 537.41 0.0018608 182.87 183.59 0.93980 1.5492 2.4457 928.99 -0.0031998 134.64 0.10942 8.4779 0.11795 522.01 567.48 2.3801 1.3915 1.6819 221.79 0.32984 7.2284 0.015009
-5.6250 57.730 0.11038 222.59 228.27 1.1068 536.10 0.0018653 185.30 186.05 0.94892 1.5525 2.4526 922.43 -0.0031279 133.27 0.10889 8.7420 0.11439 523.07 568.60 2.3789 1.3969 1.6902 221.74 0.32720 7.2560 0.015117
-4.6250 59.595 0.11382 226.03 231.90 1.1196 534.78 0.0018699 187.74 188.51 0.95802 1.5559 2.4596 915.87 -0.0030546 131.91 0.10837 9.0126 0.11096 524.13 569.72 2.3777 1.4022 1.6985 221.68 0.32461 7.2837 0.015226
-3.6250 61.505 0.11734 229.50 235.55 1.1325 533.45 0.0018746 190.19 190.98 0.96711 1.5593 2.4667 909.30 -0.0029800 130.56 0.10785 9.2896 0.10765 525.19 570.84 2.3765 1.4076 1.7070 221.62 0.32207 7.3115 0.015336
-2.6250 63.461 0.12095 232.99 239.24 1.1454 532.12 0.0018793 192.64 193.46 0.97620 1.5627 2.4739 902.73 -0.0029041 129.23 0.10733 9.5733 0.10446 526.25 571.96 2.3753 1.4131 1.7156 221.54 0.31958 7.3394 0.015447
-1.6250 65.462 0.12464 236.50 242.95 1.1584 530.78 0.0018840 195.10 195.95 0.98527 1.5662 2.4811 896.16 -0.0028267 127.91 0.10681 9.8638 0.10138 527.31 573.07 2.3742 1.4185 1.7243 221.45 0.31715 7.3674 0.015559
-0.62500 67.510 0.12843 240.05 246.69 1.1714 529.44 0.0018888 197.56 198.44 0.99434 1.5696 2.4885 889.58 -0.0027478 126.61 0.10629 10.161 0.098414 528.37 574.18 2.3731 1.4240 1.7331 221.36 0.31476 7.3956 0.015671
0.37500 69.606 0.13231 243.61 250.47 1.1845 528.09 0.0018936 200.03 200.94 1.0034 1.5731 2.4960 883.00 -0.0026675 125.32 0.10578 10.466 0.095552 529.42 575.28 2.3720 1.4295 1.7421 221.26 0.31242 7.4239 0.015785
1.3750 71.749 0.13629 247.20 254.27 1.1976 526.73 0.0018985 202.51 203.45 1.0124 1.5767 2.5035 876.42 -0.0025856 124.04 0.10527 10.777 0.092790 530.48 576.38 2.3709 1.4350 1.7512 221.14 0.31013 7.4523 0.015899
2.3750 73.941 0.14036 250.82 258.11 1.2107 525.37 0.0019034 204.99 205.96 1.0215 1.5802 2.5112 869.83 -0.0025022 122.78 0.10476 11.096 0.090123 531.53 577.47 2.3699 1.4406 1.7604 221.02 0.30789 7.4808 0.016015
3.3750 76.183 0.14453 254.47 261.97 1.2239 523.99 0.0019084 207.48 208.48 1.0305 1.5838 2.5190 863.24 -0.0024171 121.53 0.10425 11.422 0.087549 532.58 578.56 2.3688 1.4462 1.7697 220.89 0.30569 7.5095 0.016131
4.3750 78.475 0.14880 258.14 265.87 1.2372 522.62 0.0019134 209.98 211.01 1.0395 1.5874 2.5268 856.64 -0.0023303 120.29 0.10374 11.756 0.085062 533.63 579.65 2.3678 1.4518 1.7792 220.75 0.30354 7.5384 0.016249
5.3750 80.817 0.15317 261.83 269.79 1.2505 521.23 0.0019185 212.48 213.55 1.0486 1.5910 2.5348 850.04 -0.0022417 119.06 0.10324 12.098 0.082660 534.67 580.73 2.3669 1.4575 1.7888 220.60 0.30144 7.5674 0.016368
6.3750 83.211 0.15765 265.56 273.75 1.2638 519.84 0.0019237 215.00 216.10 1.0576 1.5946 2.5429 843.43 -0.0021514 117.85 0.10273 12.447 0.080340 535.72 581.81 2.3659 1.4632 1.7986 220.44 0.29938 7.5966 0.016487
7.3750 85.657 0.16223 269.31 277.74 1.2772 518.44 0.0019289 217.51 218.65 1.0666 1.5983 2.5511 836.82 -0.0020593 116.65 0.10223 12.805 0.078096 536.76 582.88 2.3650 1.4689 1.8085 220.27 0.29736 7.6259 0.016608
8.3750 88.156 0.16693 273.08 281.77 1.2907 517.03 0.0019341 220.04 221.22 1.0756 1.6020 2.5595 830.20 -0.0019652 115.46 0.10173 13.170 0.075928 537.80 583.95 2.3640 1.4746 1.8186 220.08 0.29538 7.6555 0.016730
9.3750 90.708 0.17174 276.89 285.82 1.3041 515.62 0.0019394 222.57 223.79 1.0846 1.6057 2.5679 823.58 -0.0018691 114.28 0.10124 13.545 0.073830 538.84 585.01 2.3631 1.4804 1.8288 219.89 0.29345 7.6852 0.016853
10.375 93.315 0.17666 280.72 289.91 1.3177 514.19 0.0019448 225.11 226.37 1.0936 1.6095 2.5765 816.96 -0.0017710 113.11 0.10074 13.927 0.071802 539.87 586.07 2.3622 1.4863 1.8392 219.69 0.29156 7.7151 0.016978
11.375 95.977 0.18170 284.58 294.03 1.3313 512.76 0.0019502 227.66 228.95 1.1025 1.6132 2.5852 810.32 -0.0016708 111.95 0.10025 14.319 0.069840 540.90 587.12 2.3614 1.4921 1.8498 219.48 0.28971 7.7452 0.017103
12.375 98.694 0.18686 288.47 298.19 1.3449 511.32 0.0019557 230.22 231.55 1.1115 1.6170 2.5940 803.68 -0.0015685 110.80 0.099756 14.719 0.067941 541.93 588.17 2.3605 1.4980 1.8605 219.26 0.28790 7.7756 0.017230
13.375 101.47 0.19215 292.38 302.38 1.3586 509.87 0.0019613 232.78 234.15 1.1205 1.6208 2.6030 797.04 -0.0014639 109.67 0.099267 15.128 0.066103 542.96 589.21 2.3597 1.5040 1.8715 219.03 0.28612 7.8061 0.017359
14.375 104.30 0.19756 296.32 306.60 1.3723 508.42 0.0019669 235.35 236.77 1.1295 1.6247 2.6121 790.39 -0.0013569 108.54 0.098779 15.547 0.064323 543.99 590.24 2.3588 1.5099 1.8826 218.79 0.28439 7.8369 0.017488
15.375 107.19 0.20310 300.30 310.85 1.3861 506.95 0.0019726 237.93 239.39 1.1384 1.6286 2.6214 783.73 -0.0012476 107.43 0.098294 15.974 0.062600 545.01 591.27 2.3580 1.5159 1.8940 218.53 0.28270 7.8680 0.017619
16.375 110.13 0.20877 304.30 315.15 1.4000 505.48 0.0019783 240.52 242.02 1.1474 1.6324 2.6308 777.07 -0.0011357 106.32 0.097810 16.412 0.060931 546.03 592.29 2.3572 1.5220 1.9055 218.27 0.28104 7.8993 0.017752
17.375 113.14 0.21458 308.33 319.47 1.4139 504.00 0.0019841 243.11 244.66 1.1564 1.6364 2.6403 770.40 -0.0010213 105.22 0.097328 16.859 0.059314 547.04 593.31 2.3564 1.5281 1.9172 217.99 0.27942 7.9308 0.017886
18.375 116.21 0.22052 312.39 323.83 1.4278 502.50 0.0019900 245.72 247.31 1.1653 1.6403 2.6501 763.72 -0.00090422 104.14 0.096848 17.317 0.057747 548.05 594.32 2.3557 1.5342 1.9292 217.71 0.27783 7.9626 0.018021
19.375 119.33 0.22661 316.48 328.23 1.4418 501.00 0.0019960 248.33 249.97 1.1743 1.6443 2.6599 757.04 -0.00078435 103.06 0.096371 17.785 0.056228 549.06 595.33 2.3549 1.5404 1.9414 217.41 0.27628 7.9947 0.018159
20.375 122.52 0.23285 320.60 332.66 1.4559 499.49 0.0020020 250.95 252.64 1.1832 1.6483 2.6700 750.35 -0.00066161 101.99 0.095895 18.263 0.054756 550.07 596.32 2.3541 1.5466 1.9538 217.10 0.27477 8.0272 0.018297
21.375 125.77 0.23924 324.75 337.13 1.4700 497.97 0.0020082 253.57 255.32 1.1922 1.6523 2.6802 743.64 -0.00053589 100.93 0.095420 18.752 0.053328 551.07 597.31 2.3534 1.5528 1.9665 216.78 0.27329 8.0599 0.018438
22.375 129.08 0.24578 328.92 341.64 1.4842 496.43 0.0020144 256.21 258.00 1.2012 1.6563 2.6906 736.94 -0.00040708 99.877 0.094948 19.252 0.051943 552.07 598.30 2.3526 1.5591 1.9795 216.45 0.27184 8.0929 0.018580
23.375 132.46 0.25247 333.13 346.18 1.4984 494.89 0.0020206 258.86 260.70 1.2101 1.6604 2.7012 730.22 -0.00027505 98.834 0.094478 19.763 0.050600 553.06 599.27 2.3519 1.5655 1.9927 216.11 0.27043 8.1263 0.018724
24.375 135.90 0.25934 337.37 350.76 1.5127 493.34 0.0020270 261.51 263.41 1.2191 1.6645 2.7120 723.49 -0.00013968 97.800 0.094009 20.285 0.049297 554.05 600.24 2.3512 1.5718 2.0061 215.75 0.26906 8.1600 0.018870
25.375 139.41 0.26636 341.65 355.38 1.5270 491.77 0.0020335 264.17 266.13 1.2280 1.6686 2.7230 716.76 -8.3775e-07 96.773 0.093543 20.820 0.048032 555.03 601.20 2.3504 1.5783 2.0199 215.39 0.26771 8.1941 0.019017
26.375 142.98 0.27356 345.95 360.03 1.5414 490.20 0.0020400 266.84 268.85 1.2370 1.6728 2.7342 710.01 0.00014161 95.755 0.093078 21.366 0.046804 556.01 602.15 2.3497 1.5847 2.0340 215.01 0.26640 8.2286 0.019167
27.375 146.62 0.28094 350.28 364.73 1.5558 488.61 0.0020466 269.52 271.59 1.2459 1.6770 2.7456 703.26 0.00028782 94.745 0.092615 21.924 0.045612 556.99 603.10 2.3490 1.5913 2.0484 214.62 0.26512 8.2634 0.019319
28.375 150.33 0.28850 354.65 369.46 1.5703 487.01 0.0020533 272.21 274.34 1.2549 1.6812 2.7573 696.49 0.00043793 93.742 0.092154 22.495 0.044454 557.96 604.03 2.3483 1.5978 2.0631 214.21 0.26387 8.2987 0.019472
29.375 154.10 0.29624 359.05 374.23 1.5849 485.40 0.0020601 274.91 277.10 1.2638 1.6854 2.7691 689.72 0.00059212 92.747 0.091695 23.079 0.043329 558.92 604.96 2.3476 1.6044 2.0781 213.80 0.26265 8.3344 0.019628
30.375 157.94 0.30418 363.48 379.04 1.5995 483.78 0.0020671 277.62 279.87 1.2728 1.6897 2.7813 682.93 0.00075055 91.760 0.091238 23.676 0.042237 559.88 605.88 2.3469 1.6111 2.0935 213.37 0.26147 8.3705 0.019786
31.375 161.86 0.31231 367.94 383.89 1.6142 482.15 0.0020741 280.34 282.66 1.2818 1.6939 2.7936 676.13 0.00091340 90.779 0.090782 24.287 0.041175 560.84 606.79 2.3462 1.6178 2.1092 212.93 0.26031 8.4071 0.019947
32.375 165.84 0.32065 372.44 388.78 1.6289 480.50 0.0020812 283.07 285.45 1.2908 1.6983 2.8063 669.32 0.0010809 89.806 0.090328 24.911 0.040143 561.79 607.69 2.3455 1.6246 2.1254 212.48 0.25919 8.4442 0.020110
33.375 169.90 0.32920 376.97 393.71 1.6438 478.83 0.0020884 285.81 288.26 1.2997 1.7026 2.8192 662.50 0.0012532 88.840 0.089876 25.549 0.039140 562.73 608.58 2.3448 1.6314 2.1419 212.01 0.25809 8.4818 0.020275
34.375 174.02 0.33797 381.54 398.68 1.6586 477.16 0.0020957 288.56 291.07 1.3087 1.7070 2.8324 655.67 0.0014305 87.880 0.089426 26.202 0.038164 563.67 609.46 2.3440 1.6383 2.1589 211.53 0.25702 8.5199 0.020443
35.375 178.22 0.34696 386.13 403.69 1.6735 475.47 0.0021032 291.32 293.90 1.3177 1.7114 2.8459 648.82 0.0016131 86.927 0.088977 26.870 0.037216 564.60 610.33 2.3433 1.6452 2.1763 211.04 0.25599 8.5586 0.020613
36.375 182.50 0.35618 390.77 408.74 1.6885 473.77 0.0021107 294.09 296.74 1.3267 1.7158 2.8597 641.96 0.0018012 85.980 0.088531 27.553 0.036293 565.52 611.19 2.3426 1.6522 2.1942 210.53 0.25498 8.5978 0.020786
37.375 186.84 0.36564 395.43 413.84 1.7036 472.05 0.0021184 296.87 299.60 1.3357 1.7203 2.8739 635.08 0.0019950 85.040 0.088085 28.252 0.035395 566.44 612.04 2.3419 1.6592 2.2125 210.01 0.25400 8.6376 0.020962
38.375 191.27 0.37535 400.14 418.98 1.7187 470.31 0.0021262 299.66 302.46 1.3447 1.7248 2.8884 628.19 0.0021949 84.105 0.087642 28.967 0.034522 567.35 612.88 2.3411 1.6663 2.2314 209.47 0.25305 8.6780 0.021141
39.375 195.77 0.38531 404.87 424.16 1.7339 468.56 0.0021342 302.46 305.34 1.3537 1.7293 2.9033 621.29 0.0024011 83.177 0.087200 29.699 0.033671 568.26 613.70 2.3404 1.6734 2.2508 208.92 0.25213 8.7190 0.021323
40.375 200.34 0.39554 409.65 429.38 1.7491 466.80 0.0021423 305.27 308.23 1.3627 1.7339 2.9185 614.37 0.0026140 82.254 0.086760 30.447 0.032844 569.15 614.52 2.3396 1.6806 2.2708 208.36 0.25123 8.7608 0.021508
41.375 205.00 0.40604 414.46 434.65 1.7645 465.01 0.0021505 308.10 311.14 1.3718 1.7385 2.9342 607.43 0.0028338 81.338 0.086322 31.214 0.032037 570.04 615.32 2.3389 1.6879 2.2913 207.78 0.25037 8.8032 0.021696
42.375 209.73 0.41682 419.30 439.96 1.7798 463.21 0.0021588 310.94 314.06 1.3808 1.7432 2.9502 600.47 0.0030609 80.426 0.085885 31.998 0.031252 570.92 616.11 2.3381 1.6952 2.3125 207.19 0.24953 8.8463 0.021888
43.375 214.54 0.42791 424.19 445.32 1.7953 461.40 0.0021673 313.79 316.99 1.3899 1.7478 2.9667 593.50 0.0032957 79.520 0.085449 32.800 0.030488 571.79 616.88 2.3373 1.7027 2.3344 206.58 0.24871 8.8902 0.022084
44.375 219.43 0.43929 429.11 450.72 1.8108 459.56 0.0021760 316.65 319.94 1.3989 1.7525 2.9837 586.51 0.0035386 78.619 0.085015 33.622 0.029742 572.65 617.65 2.3365 1.7101 2.3569 205.96 0.24793 8.9349 0.022283
45.375 224.41 0.45100 434.07 456.17 1.8264 457.71 0.0021848 319.52 322.90 1.4080 1.7573 3.0012 579.50 0.0037900 77.723 0.084583 34.463 0.029016 573.50 618.40 2.3357 1.7177 2.3802 205.32 0.24717 8.9805 0.022485
46.375 229.46 0.46303 439.06 461.66 1.8421 455.83 0.0021938 322.41 325.88 1.4171 1.7621 3.0192 572.46 0.0040504 76.832 0.084152 35.325 0.028308 574.34 619.13 2.3349 1.7253 2.4042 204.67 0.24644 9.0269 0.022692
47.375 234.60 0.47541 444.10 467.21 1.8578 453.94 0.0022029 325.31 328.87 1.4262 1.7669 3.0377 565.41 0.0043202 75.946 0.083723 36.208 0.027618 575.17 619.85 2.3340 1.7329 2.4291 204.00 0.24573 9.0742 0.022903
48.375 239.83 0.48815 449.17 472.79 1.8736 452.03 0.0022123 328.22 331.88 1.4353 1.7718 3.0569 558.34 0.0046000 75.064 0.083295 37.112 0.026945 576.00 620.55 2.3332 1.7407 2.4548 203.31 0.24505 9.1224 0.023119
49.375 245.13 0.50126 454.29 478.43 1.8895 450.09 0.0022218 331.15 334.90 1.4445 1.7767 3.0766 551.24 0.0048904 74.186 0.082868 38.039 0.026289 576.81 621.24 2.3323 1.7485 2.4815 202.61 0.24440 9.1716 0.023339
50.375 250.53 0.51477 459.44 484.12 1.9055 448.13 0.0022315 334.09 337.94 1.4536 1.7817 3.0970 544.13 0.0051920 73.313 0.082442 38.989 0.025648 577.61 621.91 2.3314 1.7564 2.5092 201.89 0.24377 9.2219 0.023564
51.375 256.01 0.52867 464.64 489.85 1.9215 446.15 0.0022414 337.04 341.00 1.4628 1.7867 3.1181 536.98 0.0055054 72.443 0.082018 39.962 0.025024 578.39 622.56 2.3304 1.7644 2.5379 201.16 0.24317 9.2733 0.023794
52.375 261.57 0.54301 469.88 495.64 1.9376 444.15 0.0022515 340.01 344.07 1.4720 1.7918 3.1400 529.82 0.0058313 71.577 0.081595 40.961 0.024414 579.17 623.20 2.3295 1.7724 2.5677 200.41 0.24260 9.3258 0.024029
53.375 267.23 0.55779 475.16 501.48 1.9538 442.12 0.0022618 343.00 347.17 1.4812 1.7969 3.1627 522.62 0.0061705 70.715 0.081174 41.985 0.023818 579.93 623.81 2.3285 1.7805 2.5987 199.63 0.24205 9.3795 0.024270
54.375 272.97 0.57304 480.48 507.37 1.9701 440.06 0.0022724 346.00 350.28 1.4904 1.8021 3.1862 515.40 0.0065239 69.856 0.080753 43.036 0.023237 580.68 624.41 2.3274 1.7887 2.6310 198.85 0.24154 9.4344 0.024516
55.375 278.81 0.58878 485.84 513.31 1.9864 437.98 0.0022832 349.02 353.40 1.4997 1.8073 3.2106 508.15 0.0068923 69.001 0.080334 44.114 0.022669 581.41 624.99 2.3264 1.7969 2.6646 198.04 0.24105 9.4907 0.024769
56.375 284.74 0.60503 491.25 519.30 2.0029 435.87 0.0022943 352.05 356.55 1.5090 1.8126 3.2360 500.87 0.0072767 68.148 0.079915 45.221 0.022114 582.13 625.54 2.3253 1.8052 2.6998 197.22 0.24059 9.5484 0.025028
57.375 290.76 0.62183 496.71 525.35 2.0194 433.73 0.0023056 355.10 359.72 1.5183 1.8179 3.2624 493.56 0.0076782 67.299 0.079498 46.358 0.021571 582.83 626.07 2.3241 1.8136 2.7365 196.37 0.24016 9.6075 0.025294
58.375 296.87 0.63920 502.21 531.45 2.0360 431.56 0.0023172 358.17 362.91 1.5276 1.8233 3.2900 486.22 0.0080980 66.451 0.079082 47.525 0.021041 583.52 626.58 2.3230 1.8220 2.7749 195.51 0.23976 9.6682 0.025568
59.375 303.08 0.65718 507.76 537.61 2.0527 429.36 0.0023290 361.25 366.12 1.5370 1.8288 3.3188 478.84 0.0085373 65.606 0.078666 48.726 0.020523 584.18 627.07 2.3218 1.8305 2.8152 194.63 0.23939 9.7305 0.025849
60.375 309.38 0.67579 513.35 543.82 2.0695 427.13 0.0023412 364.36 369.35 1.5464 1.8343 3.3489 471.43 0.0089976 64.763 0.078251 49.960 0.020016 584.83 627.53 2.3205 1.8391 2.8576 193.73 0.23905 9.7945 0.026138
61.375 315.78 0.69507 518.99 550.10 2.0864 424.87 0.0023537 367.48 372.60 1.5558 1.8400 3.3805 463.99 0.0094803 63.922 0.077838 51.229 0.019520 585.46 627.96 2.3192 1.8479 2.9022 192.82 0.23873 9.8603 0.026436
62.375 322.28 0.71507 524.68 556.43 2.1034 422.56 0.0023665 370.62 375.88 1.5653 1.8457 3.4136 456.50 0.0099871 63.083 0.077425 52.535 0.019035 586.07 628.37 2.3178 1.8567 2.9492 191.88 0.23845 9.9281 0.026744
63.375 328.88 0.73584 530.43 562.82 2.1205 420.22 0.0023797 373.79 379.18 1.5748 1.8514 3.4483 448.97 0.010520 62.244 0.077012 53.879 0.018560 586.66 628.74 2.3164 1.8656 2.9989 190.92 0.23819 9.9979 0.027061
64.375 335.58 0.75741 536.22 569.27 2.1377 417.85 0.0023932 376.97 382.51 1.5844 1.8573 3.4850 441.40 0.011081 61.407 0.076600 55.265 0.018095 587.22 629.09 2.3149 1.8747 3.0517 189.95 0.23796 10.070 0.027389
65.375 342.38 0.77985 542.06 575.79 2.1550 415.42 0.0024072 380.18 385.86 1.5939 1.8633 3.5236 433.79 0.011672 60.570 0.076189 56.692 0.017639 587.76 629.40 2.3133 1.8839 3.1077 188.95 0.23775 10.144 0.027729
66.375 349.28 0.80320 547.96 582.36 2.1724 412.96 0.0024215 383.41 389.25 1.6036 1.8693 3.5645 426.12 0.012296 59.733 0.075779 58.165 0.017193 588.28 629.68 2.3117 1.8933 3.1674 187.93 0.23757 10.221 0.028080
67.375 356.28 0.82755 553.91 589.01 2.1899 410.45 0.0024363 386.67 392.65 1.6133 1.8755 3.6078 418.41 0.012956 58.897 0.075368 59.684 0.016755 588.76 629.92 2.3100 1.9030 3.2311 186.89 0.23740 10.300 0.028446
68.375 363.40 0.85296 559.92 595.72 2.2075 407.89 0.0024516 389.95 396.09 1.6230 1.8818 3.6537 410.64 0.013655 58.059 0.074959 61.253 0.016326 589.22 630.13 2.3082 1.9129 3.2994 185.83 0.23724 10.382 0.028825
69.375 370.61 0.87952 565.99 602.49 2.2252 405.28 0.0024674 393.26 399.57 1.6328 1.8882 3.7027 402.81 0.014396 57.221 0.074549 62.875 0.015905 589.65 630.29 2.3064 1.9231 3.3727 184.74 0.23710 10.467 0.029221
70.375 377.94 0.90731 572.11 609.34 2.2431 402.62 0.0024838 396.60 403.07 1.6426 1.8947 3.7550 394.92 0.015183 56.381 0.074141 64.552 0.015491 590.04 630.41 2.3044 1.9336 3.4518 183.63 0.23697 10.555 0.029633
71.375 385.37 0.93643 578.30 616.26 2.2611 399.89 0.0025007 399.96 406.61 1.6525 1.9014 3.8109 386.97 0.016021 55.540 0.073732 66.288 0.015086 590.40 630.49 2.3024 1.9444 3.5371 182.50 0.23684 10.647 0.030064
72.375 392.92 0.96701 584.55 623.25 2.2792 397.11 0.0025182 403.36 410.18 1.6625 1.9083 3.8711 378.95 0.016915 54.696 0.073324 68.087 0.014687 590.73 630.51 2.3002 1.9556 3.6297 181.34 0.23671 10.743 0.030515
73.375 400.57 0.99918 590.86 630.31 2.2974 394.26 0.0025364 406.79 413.80 1.6726 1.9153 3.9359 370.85 0.017871 53.848 0.072917 69.953 0.014295 591.01 630.49 2.2979 1.9673 3.7303 180.16 0.23658 10.842 0.030989
74.375 403.68 undefined 592.93 632.69 2.3034 70.000 0.014286 592.93 632.69 2.3034 1.9671 3.6812 181.03 0.23274 10.876 0.031053 70.000 0.014286 592.93 632.69 2.3034 1.9671 3.6812 181.03 0.23274 10.876 0.031053
75.375 406.66 undefined 594.90 634.95 2.3090 70.000 0.014286 594.90 634.95 2.3090 1.9667 3.6315 181.94 0.22892 10.908 0.031111 70.000 0.014286 594.90 634.95 2.3090 1.9667 3.6315 181.94 0.22892 10.908 0.031111
76.375 409.62 undefined 596.87 637.21 2.3147 70.000 0.014286 596.87 637.21 2.3147 1.9664 3.5848 182.85 0.22521 10.941 0.031173 70.000 0.014286 596.87 637.21 2.3147 1.9664 3.5848 182.85 0.22521 10.941 0.031173
77.375 412.57 undefined 598.83 639.47 2.3203 70.000 0.014286 598.83 639.47 2.3203 1.9661 3.5409 183.75 0.22162 10.973 0.031240 70.000 0.014286 598.83 639.47 2.3203 1.9661 3.5409 183.75 0.22162 10.973 0.031240
78.375 415.51 undefined 600.80 641.73 2.3259 70.000 0.014286 600.80 641.73 2.3259 1.9659 3.4996 184.64 0.21813 11.006 0.031311 70.000 0.014286 600.80 641.73 2.3259 1.9659 3.4996 184.64 0.21813 11.006 0.031311
79.375 418.44 undefined 602.76 643.98 2.3315 70.000 0.014286 602.76 643.98 2.3315 1.9658 3.4608 185.52 0.21475 11.038 0.031386 70.000 0.014286 602.76 643.98 2.3315 1.9658 3.4608 185.52 0.21475 11.038 0.031386
80.375 421.36 undefined 604.73 646.23 2.3370 70.000 0.014286 604.73 646.23 2.3370 1.9657 3.4241 186.40 0.21147 11.070 0.031464 70.000 0.014286 604.73 646.23 2.3370 1.9657 3.4241 186.40 0.21147 11.070 0.031464
81.375 424.27 undefined 606.70 648.48 2.3426 70.000 0.014286 606.70 648.48 2.3426 1.9657 3.3896 187.28 0.20827 11.102 0.031545 70.000 0.014286 606.70 648.48 2.3426 1.9657 3.3896 187.28 0.20827 11.102 0.031545
82.375 427.16 undefined 608.66 650.74 2.3481 70.000 0.014286 608.66 650.74 2.3481 1.9658 3.3571 188.15 0.20517 11.134 0.031630 70.000 0.014286 608.66 650.74 2.3481 1.9658 3.3571 188.15 0.20517 11.134 0.031630
83.375 430.05 undefined 610.63 652.99 2.3537 70.000 0.014286 610.63 652.99 2.3537 1.9660 3.3264 189.01 0.20216 11.166 0.031717 70.000 0.014286 610.63 652.99 2.3537 1.9660 3.3264 189.01 0.20216 11.166 0.031717
84.375 432.93 undefined 612.59 655.24 2.3592 70.000 0.014286 612.59 655.24 2.3592 1.9662 3.2974 189.87 0.19922 11.199 0.031807 70.000 0.014286 612.59 655.24 2.3592 1.9662 3.2974 189.87 0.19922 11.199 0.031807
85.375 435.80 undefined 614.56 657.48 2.3647 70.000 0.014286 614.56 657.48 2.3647 1.9666 3.2700 190.72 0.19636 11.231 0.031900 70.000 0.014286 614.56 657.48 2.3647 1.9666 3.2700 190.72 0.19636 11.231 0.031900
86.375 438.65 undefined 616.53 659.73 2.3701 70.000 0.014286 616.53 659.73 2.3701 1.9672 3.2442 191.57 0.19358 11.263 0.031995 70.000 0.014286 616.53 659.73 2.3701 1.9672 3.2442 191.57 0.19358 11.263 0.031995
87.375 441.50 undefined 618.49 661.98 2.3756 70.000 0.014286 618.49 661.98 2.3756 1.9678 3.2197 192.41 0.19086 11.295 0.032092 70.000 0.014286 618.49 661.98 2.3756 1.9678 3.2197 192.41 0.19086 11.295 0.032092
88.375 444.35 undefined 620.46 664.23 2.3810 70.000 0.014286 620.46 664.23 2.3810 1.9686 3.1966 193.25 0.18822 11.326 0.032192 70.000 0.014286 620.46 664.23 2.3810 1.9686 3.1966 193.25 0.18822 11.326 0.032192
89.375 447.18 undefined 622.43 666.48 2.3865 70.000 0.014286 622.43 666.48 2.3865 1.9695 3.1747 194.09 0.18563 11.358 0.032294 70.000 0.014286 622.43 666.48 2.3865 1.9695 3.1747 194.09 0.18563 11.358 0.032294
90.375 450.01 undefined 624.40 668.73 2.3919 70.000 0.014286 624.40 668.73 2.3919 1.9705 3.1540 194.91 0.18311 11.390 0.032397 70.000 0.014286 624.40 668.73 2.3919 1.9705 3.1540 194.91 0.18311 11.390 0.032397
91.375 452.83 undefined 626.37 670.97 2.3973 70.000 0.014286 626.37 670.97 2.3973 1.9717 3.1344 195.74 0.18064 11.422 0.032503 70.000 0.014286 626.37 670.97 2.3973 1.9717 3.1344 195.74 0.18064 11.422 0.032503
92.375 455.64 undefined 628.35 673.22 2.4027 70.000 0.014286 628.35 673.22 2.4027 1.9730 3.1158 196.56 0.17823 11.454 0.032610 70.000 0.014286 628.35 673.22 2.4027 1.9730 3.1158 196.56 0.17823 11.454 0.032610
93.375 458.44 undefined 630.32 675.47 2.4081 70.000 0.014286 630.32 675.47 2.4081 1.9744 3.0982 197.37 0.17588 11.485 0.032719 70.000 0.014286 630.32 675.47 2.4081 1.9744 3.0982 197.37 0.17588 11.485 0.032719
94.375 461.24 undefined 632.29 677.72 2.4135 70.000 0.014286 632.29 677.72 2.4135 1.9759 3.0814 198.18 0.17357 11.517 0.032829 70.000 0.014286 632.29 677.72 2.4135 1.9759 3.0814 198.18 0.17357 11.517 0.032829
95.375 464.03 undefined 634.27 679.98 2.4189 70.000 0.014286 634.27 679.98 2.4189 1.9775 3.0655 198.99 0.17132 11.549 0.032941 70.000 0.014286 634.27 679.98 2.4189 1.9775 3.0655 198.99 0.17132 11.549 0.032941
96.375 466.81 undefined 636.25 682.23 2.4242 70.000 0.014286 636.25 682.23 2.4242 1.9792 3.0504 199.79 0.16911 11.580 0.033054 70.000 0.014286 636.25 682.23 2.4242 1.9792 3.0504 199.79 0.16911 11.580 0.033054
97.375 469.59 undefined 638.23 684.48 2.4296 70.000 0.014286 638.23 684.48 2.4296 1.9810 3.0360 200.59 0.16695 11.612 0.033169 70.000 0.014286 638.23 684.48 2.4296 1.9810 3.0360 200.59 0.16695 11.612 0.033169
98.375 472.37 undefined 640.21 686.74 2.4349 70.000 0.014286 640.21 686.74 2.4349 1.9828 3.0223 201.38 0.16483 11.643 0.033285 70.000 0.014286 640.21 686.74 2.4349 1.9828 3.0223 201.38 0.16483 11.643 0.033285
99.375 475.13 undefined 642.19 688.99 2.4403 70.000 0.014286 642.19 688.99 2.4403 1.9848 3.0092 202.17 0.16276 11.675 0.033402 70.000 0.014286 642.19 688.99 2.4403 1.9848 3.0092 202.17 0.16276 11.675 0.033402
100.38 477.90 undefined 644.18 691.25 2.4456 70.000 0.014286 644.18 691.25 2.4456 1.9868 2.9968 202.95 0.16073 11.706 0.033520 70.000 0.014286 644.18 691.25 2.4456 1.9868 2.9968 202.95 0.16073 11.706 0.033520
101.38 480.65 undefined 646.17 693.51 2.4509 70.000 0.014286 646.17 693.51 2.4509 1.9889 2.9849 203.73 0.15874 11.738 0.033640 70.000 0.014286 646.17 693.51 2.4509 1.9889 2.9849 203.73 0.15874 11.738 0.033640
102.38 483.40 undefined 648.16 695.77 2.4562 70.000 0.014286 648.16 695.77 2.4562 1.9911 2.9736 204.50 0.15679 11.769 0.033761 70.000 0.014286 648.16 695.77 2.4562 1.9911 2.9736 204.50 0.15679 11.769 0.033761
103.38 486.15 undefined 650.15 698.03 2.4615 70.000 0.014286 650.15 698.03 2.4615 1.9933 2.9628 205.28 0.15488 11.801 0.033882 70.000 0.014286 650.15 698.03 2.4615 1.9933 2.9628 205.28 0.15488 11.801 0.033882
104.38 488.89 undefined 652.15 700.30 2.4668 70.000 0.014286 652.15 700.30 2.4668 1.9956 2.9525 206.04 0.15301 11.832 0.034005 70.000 0.014286 652.15 700.30 2.4668 1.9956 2.9525 206.04 0.15301 11.832 0.034005
105.38 491.62 undefined 654.14 702.57 2.4721 70.000 0.014286 654.14 702.57 2.4721 1.9980 2.9427 206.81 0.15117 11.863 0.034129 70.000 0.014286 654.14 702.57 2.4721 1.9980 2.9427 206.81 0.15117 11.863 0.034129
106.38 494.35 undefined 656.14 704.83 2.4774 70.000 0.014286 656.14 704.83 2.4774 2.0004 2.9332 207.57 0.14937 11.894 0.034253 70.000 0.014286 656.14 704.83 2.4774 2.0004 2.9332 207.57 0.14937 11.894 0.034253
107.38 497.08 undefined 658.14 707.10 2.4826 70.000 0.014286 658.14 707.10 2.4826 2.0028 2.9242 208.33 0.14760 11.925 0.034379 70.000 0.014286 658.14 707.10 2.4826 2.0028 2.9242 208.33 0.14760 11.925 0.034379
108.38 499.80 undefined 660.15 709.38 2.4879 70.000 0.014286 660.15 709.38 2.4879 2.0053 2.9156 209.08 0.14586 11.957 0.034506 70.000 0.014286 660.15 709.38 2.4879 2.0053 2.9156 209.08 0.14586 11.957 0.034506
109.38 502.52 undefined 662.15 711.65 2.4931 70.000 0.014286 662.15 711.65 2.4931 2.0079 2.9074 209.83 0.14416 11.988 0.034633 70.000 0.014286 662.15 711.65 2.4931 2.0079 2.9074 209.83 0.14416 11.988 0.034633
110.38 505.23 undefined 664.16 713.93 2.4984 70.000 0.014286 664.16 713.93 2.4984 2.0105 2.8996 210.58 0.14249 12.019 0.034761 70.000 0.014286 664.16 713.93 2.4984 2.0105 2.8996 210.58 0.14249 12.019 0.034761
111.38 507.94 undefined 666.17 716.20 2.5036 70.000 0.014286 666.17 716.20 2.5036 2.0131 2.8920 211.32 0.14084 12.050 0.034890 70.000 0.014286 666.17 716.20 2.5036 2.0131 2.8920 211.32 0.14084 12.050 0.034890
112.38 510.64 undefined 668.19 718.49 2.5088 70.000 0.014286 668.19 718.49 2.5088 2.0157 2.8849 212.06 0.13923 12.081 0.035020 70.000 0.014286 668.19 718.49 2.5088 2.0157 2.8849 212.06 0.13923 12.081 0.035020
113.38 513.34 undefined 670.21 720.77 2.5141 70.000 0.014286 670.21 720.77 2.5141 2.0184 2.8780 212.79 0.13765 12.112 0.035151 70.000 0.014286 670.21 720.77 2.5141 2.0184 2.8780 212.79 0.13765 12.112 0.035151
114.38 516.04 undefined 672.23 723.05 2.5193 70.000 0.014286 672.23 723.05 2.5193 2.0212 2.8714 213.53 0.13609 12.143 0.035282 70.000 0.014286 672.23 723.05 2.5193 2.0212 2.8714 213.53 0.13609 12.143 0.035282
115.38 518.73 undefined 674.25 725.34 2.5245 70.000 0.014286 674.25 725.34 2.5245 2.0239 2.8651 214.26 0.13457 12.174 0.035415 70.000 0.014286 674.25 725.34 2.5245 2.0239 2.8651 214.26 0.13457 12.174 0.035415
116.38 521.42 undefined 676.27 727.63 2.5297 70.000 0.014286 676.27 727.63 2.5297 2.0267 2.8591 214.98 0.13307 12.205 0.035547 70.000 0.014286 676.27 727.63 2.5297 2.0267 2.8591 214.98 0.13307 12.205 0.035547
117.38 524.11 undefined 678.30 729.92 2.5349 70.000 0.014286 678.30 729.92 2.5349 2.0296 2.8534 215.71 0.13159 12.235 0.035681 70.000 0.014286 678.30 729.92 2.5349 2.0296 2.8534 215.71 0.13159 12.235 0.035681
118.38 526.79 undefined 680.33 732.22 2.5401 70.000 0.014286 680.33 732.22 2.5401 2.0324 2.8479 216.43 0.13014 12.266 0.035815 70.000 0.014286 680.33 732.22 2.5401 2.0324 2.8479 216.43 0.13014 12.266 0.035815
119.38 529.46 undefined 682.37 734.52 2.5453 70.000 0.014286 682.37 734.52 2.5453 2.0353 2.8426 217.15 0.12872 12.297 0.035950 70.000 0.014286 682.37 734.52 2.5453 2.0353 2.8426 217.15 0.12872 12.297 0.035950
120.38 532.14 undefined 684.40 736.82 2.5505 70.000 0.014286 684.40 736.82 2.5505 2.0382 2.8376 217.86 0.12731 12.328 0.036086 70.000 0.014286 684.40 736.82 2.5505 2.0382 2.8376 217.86 0.12731 12.328 0.036086
121.38 534.81 undefined 686.44 739.12 2.5557 70.000 0.014286 686.44 739.12 2.5557 2.0411 2.8328 218.57 0.12594 12.358 0.036222 70.000 0.014286 686.44 739.12 2.5557 2.0411 2.8328 218.57 0.12594 12.358 0.036222
122.38 537.47 undefined 688.49 741.42 2.5608 70.000 0.014286 688.49 741.42 2.5608 2.0441 2.8282 219.28 0.12458 12.389 0.036359 70.000 0.014286 688.49 741.42 2.5608 2.0441 2.8282 219.28 0.12458 12.389 0.036359
123.38 540.14 undefined 690.53 743.73 2.5660 70.000 0.014286 690.53 743.73 2.5660 2.0471 2.8238 219.99 0.12325 12.420 0.036497 70.000 0.014286 690.53 743.73 2.5660 2.0471 2.8238 219.99 0.12325 12.420 0.036497
124.38 542.80 undefined 692.58 746.04 2.5711 70.000 0.014286 692.58 746.04 2.5711 2.0501 2.8197 220.69 0.12194 12.450 0.036635 70.000 0.014286 692.58 746.04 2.5711 2.0501 2.8197 220.69 0.12194 12.450 0.036635
125.38 545.45 undefined 694.63 748.36 2.5763 70.000 0.014286 694.63 748.36 2.5763 2.0531 2.8157 221.39 0.12065 12.481 0.036774 70.000 0.014286 694.63 748.36 2.5763 2.0531 2.8157 221.39 0.12065 12.481 0.036774
126.38 548.11 undefined 696.69 750.67 2.5815 70.000 0.014286 696.69 750.67 2.5815 2.0561 2.8119 222.09 0.11938 12.511 0.036913 70.000 0.014286 696.69 750.67 2.5815 2.0561 2.8119 222.09 0.11938 12.511 0.036913
127.38 550.76 undefined 698.74 752.99 2.5866 70.000 0.014286 698.74 752.99 2.5866 2.0592 2.8083 222.78 0.11814 12.542 0.037053 70.000 0.014286 698.74 752.99 2.5866 2.0592 2.8083 222.78 0.11814 12.542 0.037053
128.38 553.40 undefined 700.80 755.31 2.5917 70.000 0.014286 700.80 755.31 2.5917 2.0623 2.8048 223.47 0.11691 12.572 0.037193 70.000 0.014286 700.80 755.31 2.5917 2.0623 2.8048 223.47 0.11691 12.572 0.037193
129.38 556.05 undefined 702.87 757.64 2.5969 70.000 0.014286 702.87 757.64 2.5969 2.0654 2.8015 224.16 0.11570 12.603 0.037334 70.000 0.014286 702.87 757.64 2.5969 2.0654 2.8015 224.16 0.11570 12.603 0.037334
130.38 558.69 undefined 704.93 759.96 2.6020 70.000 0.014286 704.93 759.96 2.6020 2.0685 2.7984 224.85 0.11451 12.633 0.037476 70.000 0.014286 704.93 759.96 2.6020 2.0685 2.7984 224.85 0.11451 12.633 0.037476
131.38 561.33 undefined 707.00 762.29 2.6071 70.000 0.014286 707.00 762.29 2.6071 2.0716 2.7954 225.53 0.11334 12.663 0.037618 70.000 0.014286 707.00 762.29 2.6071 2.0716 2.7954 225.53 0.11334 12.663 0.037618
132.38 563.96 undefined 709.08 764.63 2.6122 70.000 0.014286 709.08 764.63 2.6122 2.0748 2.7926 226.21 0.11219 12.694 0.037761 70.000 0.014286 709.08 764.63 2.6122 2.0748 2.7926 226.21 0.11219 12.694 0.037761
133.38 566.59 undefined 711.15 766.96 2.6174 70.000 0.014286 711.15 766.96 2.6174 2.0780 2.7900 226.89 0.11105 12.724 0.037904 70.000 0.014286 711.15 766.96 2.6174 2.0780 2.7900 226.89 0.11105 12.724 0.037904
134.38 569.22 undefined 713.23 769.30 2.6225 70.000 0.014286 713.23 769.30 2.6225 2.0811 2.7874 227.57 0.10993 12.754 0.038048 70.000 0.014286 713.23 769.30 2.6225 2.0811 2.7874 227.57 0.10993 12.754 0.038048
135.38 571.85 undefined 715.32 771.64 2.6276 70.000 0.014286 715.32 771.64 2.6276 2.0843 2.7850 228.24 0.10883 12.784 0.038192 70.000 0.014286 715.32 771.64 2.6276 2.0843 2.7850 228.24 0.10883 12.784 0.038192
136.38 574.47 undefined 717.40 773.99 2.6327 70.000 0.014286 717.40 773.99 2.6327 2.0876 2.7828 228.91 0.10775 12.814 0.038337 70.000 0.014286 717.40 773.99 2.6327 2.0876 2.7828 228.91 0.10775 12.814 0.038337
137.38 577.10 undefined 719.49 776.33 2.6378 70.000 0.014286 719.49 776.33 2.6378 2.0908 2.7806 229.58 0.10668 12.844 0.038482 70.000 0.014286 719.49 776.33 2.6378 2.0908 2.7806 229.58 0.10668 12.844 0.038482
138.38 579.71 undefined 721.58 778.68 2.6429 70.000 0.014286 721.58 778.68 2.6429 2.0940 2.7786 230.25 0.10563 12.875 0.038627 70.000 0.014286 721.58 778.68 2.6429 2.0940 2.7786 230.25 0.10563 12.875 0.038627
139.38 582.33 undefined 723.68 781.04 2.6479 70.000 0.014286 723.68 781.04 2.6479 2.0973 2.7767 230.91 0.10459 12.905 0.038774 70.000 0.014286 723.68 781.04 2.6479 2.0973 2.7767 230.91 0.10459 12.905 0.038774
140.38 584.94 undefined 725.78 783.39 2.6530 70.000 0.014286 725.78 783.39 2.6530 2.1005 2.7749 231.58 0.10357 12.935 0.038920 70.000 0.014286 725.78 783.39 2.6530 2.1005 2.7749 231.58 0.10357 12.935 0.038920
141.38 587.56 undefined 727.88 785.75 2.6581 70.000 0.014286 727.88 785.75 2.6581 2.1038 2.7733 232.24 0.10257 12.965 0.039068 70.000 0.014286 727.88 785.75 2.6581 2.1038 2.7733 232.24 0.10257 12.965 0.039068
142.38 590.16 undefined 729.99 788.12 2.6632 70.000 0.014286 729.99 788.12 2.6632 2.1071 2.7717 232.89 0.10158 12.995 0.039215 70.000 0.014286 729.99 788.12 2.6632 2.1071 2.7717 232.89 0.10158 12.995 0.039215
143.38 592.77 undefined 732.10 790.48 2.6682 70.000 0.014286 732.10 790.48 2.6682 2.1104 2.7702 233.55 0.10060 13.024 0.039363 70.000 0.014286 732.10 790.48 2.6682 2.1104 2.7702 233.55 0.10060 13.024 0.039363
144.38 595.37 undefined 734.21 792.85 2.6733 70.000 0.014286 734.21 792.85 2.6733 2.1137 2.7689 234.20 0.099637 13.054 0.039512 70.000 0.014286 734.21 792.85 2.6733 2.1137 2.7689 234.20 0.099637 13.054 0.039512
145.38 597.98 undefined 736.32 795.22 2.6784 70.000 0.014286 736.32 795.22 2.6784 2.1170 2.7676 234.85 0.098688 13.084 0.039661 70.000 0.014286 736.32 795.22 2.6784 2.1170 2.7676 234.85 0.098688 13.084 0.039661
146.38 600.57 undefined 738.44 797.60 2.6834 70.000 0.014286 738.44 797.60 2.6834 2.1203 2.7665 235.50 0.097753 13.114 0.039810 70.000 0.014286 738.44 797.60 2.6834 2.1203 2.7665 235.50 0.097753 13.114 0.039810
147.38 603.17 undefined 740.56 799.97 2.6885 70.000 0.014286 740.56 799.97 2.6885 2.1237 2.7654 236.15 0.096831 13.144 0.039960 70.000 0.014286 740.56 799.97 2.6885 2.1237 2.7654 236.15 0.096831 13.144 0.039960
148.38 605.77 undefined 742.69 802.35 2.6935 70.000 0.014286 742.69 802.35 2.6935 2.1270 2.7644 236.79 0.095922 13.174 0.040110 70.000 0.014286 742.69 802.35 2.6935 2.1270 2.7644 236.79 0.095922 13.174 0.040110
149.38 608.36 undefined 744.82 804.74 2.6986 70.000 0.014286 744.82 804.74 2.6986 2.1304 2.7636 237.43 0.095026 13.203 0.040261 70.000 0.014286 744.82 804.74 2.6986 2.1304 2.7636 237.43 0.095026 13.203 0.040261
150.38 610.95 undefined 746.95 807.13 2.7036 70.000 0.014286 746.95 807.13 2.7036 2.1337 2.7628 238.07 0.094142 13.233 0.040412 70.000 0.014286 746.95 807.13 2.7036 2.1337 2.7628 238.07 0.094142 13.233 0.040412
151.38 613.53 undefined 749.08 809.52 2.7086 70.000 0.014286 749.08 809.52 2.7086 2.1371 2.7621 238.71 0.093271 13.263 0.040564 70.000 0.014286 749.08 809.52 2.7086 2.1371 2.7621 238.71 0.093271 13.263 0.040564
152.38 616.12 undefined 751.22 811.91 2.7137 70.000 0.014286 751.22 811.91 2.7137 2.1405 2.7614 239.35 0.092411 13.292 0.040716 70.000 0.014286 751.22 811.91 2.7137 2.1405 2.7614 239.35 0.092411 13.292 0.040716
153.38 618.70 undefined 753.37 814.31 2.7187 70.000 0.014286 753.37 814.31 2.7187 2.1439 2.7609 239.98 0.091564 13.322 0.040868 70.000 0.014286 753.37 814.31 2.7187 2.1439 2.7609 239.98 0.091564 13.322 0.040868
154.38 621.28 undefined 755.51 816.71 2.7237 70.000 0.014286 755.51 816.71 2.7237 2.1472 2.7604 240.61 0.090728 13.351 0.041021 70.000 0.014286 755.51 816.71 2.7237 2.1472 2.7604 240.61 0.090728 13.351 0.041021
155.38 623.86 undefined 757.66 819.11 2.7287 70.000 0.014286 757.66 819.11 2.7287 2.1506 2.7600 241.24 0.089903 13.381 0.041174 70.000 0.014286 757.66 819.11 2.7287 2.1506 2.7600 241.24 0.089903 13.381 0.041174
156.38 626.44 undefined 759.81 821.51 2.7338 70.000 0.014286 759.81 821.51 2.7338 2.1541 2.7597 241.87 0.089090 13.410 0.041328 70.000 0.014286 759.81 821.51 2.7338 2.1541 2.7597 241.87 0.089090 13.410 0.041328
157.38 629.02 undefined 761.97 823.92 2.7388 70.000 0.014286 761.97 823.92 2.7388 2.1575 2.7594 242.50 0.088287 13.440 0.041482 70.000 0.014286 761.97 823.92 2.7388 2.1575 2.7594 242.50 0.088287 13.440 0.041482
158.38 631.59 undefined 764.13 826.34 2.7438 70.000 0.014286 764.13 826.34 2.7438 2.1609 2.7592 243.12 0.087496 13.469 0.041637 70.000 0.014286 764.13 826.34 2.7438 2.1609 2.7592 243.12 0.087496 13.469 0.041637
159.38 634.16 undefined 766.29 828.75 2.7488 70.000 0.014286 766.29 828.75 2.7488 2.1643 2.7591 243.74 0.086715 13.499 0.041792 70.000 0.014286 766.29 828.75 2.7488 2.1643 2.7591 243.74 0.086715 13.499 0.041792
160.38 636.73 undefined 768.46 831.17 2.7538 70.000 0.014286 768.46 831.17 2.7538 2.1678 2.7590 244.36 0.085944 13.528 0.041947 70.000 0.014286 768.46 831.17 2.7538 2.1678 2.7590 244.36 0.085944 13.528 0.041947
161.38 639.30 undefined 770.63 833.59 2.7588 70.000 0.014286 770.63 833.59 2.7588 2.1712 2.7591 244.98 0.085183 13.557 0.042103 70.000 0.014286 770.63 833.59 2.7588 2.1712 2.7591 244.98 0.085183 13.557 0.042103
162.38 641.86 undefined 772.80 836.02 2.7638 70.000 0.014286 772.80 836.02 2.7638 2.1746 2.7591 245.60 0.084433 13.587 0.042259 70.000 0.014286 772.80 836.02 2.7638 2.1746 2.7591 245.60 0.084433 13.587 0.042259
163.38 644.43 undefined 774.97 838.45 2.7688 70.000 0.014286 774.97 838.45 2.7688 2.1781 2.7593 246.21 0.083692 13.616 0.042415 70.000 0.014286 774.97 838.45 2.7688 2.1781 2.7593 246.21 0.083692 13.616 0.042415
164.38 646.99 undefined 777.15 840.88 2.7738 70.000 0.014286 777.15 840.88 2.7738 2.1815 2.7595 246.83 0.082961 13.645 0.042572 70.000 0.014286 777.15 840.88 2.7738 2.1815 2.7595 246.83 0.082961 13.645 0.042572
165.38 649.55 undefined 779.34 843.32 2.7788 70.000 0.014286 779.34 843.32 2.7788 2.1850 2.7597 247.44 0.082239 13.674 0.042729 70.000 0.014286 779.34 843.32 2.7788 2.1850 2.7597 247.44 0.082239 13.674 0.042729
166.38 652.11 undefined 781.52 845.75 2.7837 70.000 0.014286 781.52 845.75 2.7837 2.1885 2.7600 248.05 0.081527 13.703 0.042887 70.000 0.014286 781.52 845.75 2.7837 2.1885 2.7600 248.05 0.081527 13.703 0.042887
167.38 654.66 undefined 783.71 848.20 2.7887 70.000 0.014286 783.71 848.20 2.7887 2.1920 2.7604 248.66 0.080824 13.733 0.043045 70.000 0.014286 783.71 848.20 2.7887 2.1920 2.7604 248.66 0.080824 13.733 0.043045
168.38 657.22 undefined 785.91 850.64 2.7937 70.000 0.014286 785.91 850.64 2.7937 2.1954 2.7608 249.26 0.080130 13.762 0.043203 70.000 0.014286 785.91 850.64 2.7937 2.1954 2.7608 249.26 0.080130 13.762 0.043203
169.38 659.77 undefined 788.11 853.09 2.7987 70.000 0.014286 788.11 853.09 2.7987 2.1989 2.7613 249.87 0.079445 13.791 0.043362 70.000 0.014286 788.11 853.09 2.7987 2.1989 2.7613 249.87 0.079445 13.791 0.043362
170.38 662.32 undefined 790.31 855.54 2.8036 70.000 0.014286 790.31 855.54 2.8036 2.2024 2.7618 250.47 0.078768 13.820 0.043521 70.000 0.014286 790.31 855.54 2.8036 2.2024 2.7618 250.47 0.078768 13.820 0.043521
171.38 664.87 undefined 792.51 858.00 2.8086 70.000 0.014286 792.51 858.00 2.8086 2.2059 2.7624 251.07 0.078100 13.849 0.043680 70.000 0.014286 792.51 858.00 2.8086 2.2059 2.7624 251.07 0.078100 13.849 0.043680
172.38 667.42 undefined 794.72 860.46 2.8135 70.000 0.014286 794.72 860.46 2.8135 2.2094 2.7630 251.67 0.077440 13.878 0.043840 70.000 0.014286 794.72 860.46 2.8135 2.2094 2.7630 251.67 0.077440 13.878 0.043840
173.38 669.96 undefined 796.93 862.92 2.8185 70.000 0.014286 796.93 862.92 2.8185 2.2129 2.7637 252.26 0.076789 13.907 0.044000 70.000 0.014286 796.93 862.92 2.8185 2.2129 2.7637 252.26 0.076789 13.907 0.044000
174.38 672.51 undefined 799.14 865.38 2.8235 70.000 0.014286 799.14 865.38 2.8235 2.2164 2.7644 252.86 0.076145 13.936 0.044161 70.000 0.014286 799.14 865.38 2.8235 2.2164 2.7644 252.86 0.076145 13.936 0.044161
175.38 675.05 undefined 801.36 867.85 2.8284 70.000 0.014286 801.36 867.85 2.8284 2.2199 2.7652 253.45 0.075510 13.964 0.044322 70.000 0.014286 801.36 867.85 2.8284 2.2199 2.7652 253.45 0.075510 13.964 0.044322
176.38 677.59 undefined 803.58 870.32 2.8334 70.000 0.014286 803.58 870.32 2.8334 2.2234 2.7660 254.05 0.074882 13.993 0.044483 70.000 0.014286 803.58 870.32 2.8334 2.2234 2.7660 254.05 0.074882 13.993 0.044483
177.38 680.13 undefined 805.81 872.80 2.8383 70.000 0.014286 805.81 872.80 2.8383 2.2269 2.7668 254.64 0.074263 14.022 0.044645 70.000 0.014286 805.81 872.80 2.8383 2.2269 2.7668 254.64 0.074263 14.022 0.044645
178.38 682.67 undefined 808.04 875.28 2.8432 70.000 0.014286 808.04 875.28 2.8432 2.2304 2.7677 255.23 0.073650 14.051 0.044807 70.000 0.014286 808.04 875.28 2.8432 2.2304 2.7677 255.23 0.073650 14.051 0.044807
179.38 685.21 undefined 810.27 877.76 2.8482 70.000 0.014286 810.27 877.76 2.8482 2.2339 2.7687 255.81 0.073045 14.080 0.044969 70.000 0.014286 810.27 877.76 2.8482 2.2339 2.7687 255.81 0.073045 14.080 0.044969
180.38 687.74 undefined 812.51 880.25 2.8531 70.000 0.014286 812.51 880.25 2.8531 2.2375 2.7696 256.40 0.072448 14.108 0.045132 70.000 0.014286 812.51 880.25 2.8531 2.2375 2.7696 256.40 0.072448 14.108 0.045132
181.38 690.28 undefined 814.74 882.73 2.8580 70.000 0.014286 814.74 882.73 2.8580 2.2410 2.7706 256.98 0.071858 14.137 0.045295 70.000 0.014286 814.74 882.73 2.8580 2.2410 2.7706 256.98 0.071858 14.137 0.045295
182.38 692.81 undefined 816.99 885.23 2.8630 70.000 0.014286 816.99 885.23 2.8630 2.2445 2.7717 257.57 0.071275 14.166 0.045458 70.000 0.014286 816.99 885.23 2.8630 2.2445 2.7717 257.57 0.071275 14.166 0.045458
183.38 695.34 undefined 819.23 887.72 2.8679 70.000 0.014286 819.23 887.72 2.8679 2.2481 2.7728 258.15 0.070698 14.194 0.045622 70.000 0.014286 819.23 887.72 2.8679 2.2481 2.7728 258.15 0.070698 14.194 0.045622
184.38 697.87 undefined 821.48 890.22 2.8728 70.000 0.014286 821.48 890.22 2.8728 2.2516 2.7739 258.73 0.070129 14.223 0.045786 70.000 0.014286 821.48 890.22 2.8728 2.2516 2.7739 258.73 0.070129 14.223 0.045786
185.38 700.40 undefined 823.74 892.72 2.8777 70.000 0.014286 823.74 892.72 2.8777 2.2551 2.7751 259.31 0.069567 14.251 0.045951 70.000 0.014286 823.74 892.72 2.8777 2.2551 2.7751 259.31 0.069567 14.251 0.045951
186.38 702.92 undefined 825.99 895.23 2.8827 70.000 0.014286 825.99 895.23 2.8827 2.2587 2.7763 259.88 0.069011 14.280 0.046115 70.000 0.014286 825.99 895.23 2.8827 2.2587 2.7763 259.88 0.069011 14.280 0.046115
187.38 705.45 undefined 828.25 897.74 2.8876 70.000 0.014286 828.25 897.74 2.8876 2.2622 2.7775 260.46 0.068461 14.308 0.046280 70.000 0.014286 828.25 897.74 2.8876 2.2622 2.7775 260.46 0.068461 14.308 0.046280
188.38 707.97 undefined 830.52 900.25 2.8925 70.000 0.014286 830.52 900.25 2.8925 2.2657 2.7788 261.03 0.067918 14.337 0.046446 70.000 0.014286 830.52 900.25 2.8925 2.2657 2.7788 261.03 0.067918 14.337 0.046446
189.38 710.49 undefined 832.79 902.77 2.8974 70.000 0.014286 832.79 902.77 2.8974 2.2693 2.7801 261.60 0.067382 14.365 0.046612 70.000 0.014286 832.79 902.77 2.8974 2.2693 2.7801 261.60 0.067382 14.365 0.046612
190.38 713.02 undefined 835.06 905.29 2.9023 70.000 0.014286 835.06 905.29 2.9023 2.2728 2.7815 262.18 0.066852 14.394 0.046778 70.000 0.014286 835.06 905.29 2.9023 2.2728 2.7815 262.18 0.066852 14.394 0.046778
191.38 715.54 undefined 837.33 907.81 2.9072 70.000 0.014286 837.33 907.81 2.9072 2.2764 2.7828 262.75 0.066327 14.422 0.046944 70.000 0.014286 837.33 907.81 2.9072 2.2764 2.7828 262.75 0.066327 14.422 0.046944
192.38 718.05 undefined 839.61 910.34 2.9121 70.000 0.014286 839.61 910.34 2.9121 2.2799 2.7842 263.31 0.065809 14.450 0.047111 70.000 0.014286 839.61 910.34 2.9121 2.2799 2.7842 263.31 0.065809 14.450 0.047111
193.38 720.57 undefined 841.89 912.86 2.9170 70.000 0.014286 841.89 912.86 2.9170 2.2835 2.7857 263.88 0.065297 14.479 0.047278 70.000 0.014286 841.89 912.86 2.9170 2.2835 2.7857 263.88 0.065297 14.479 0.047278
194.38 723.09 undefined 844.18 915.40 2.9219 70.000 0.014286 844.18 915.40 2.9219 2.2870 2.7871 264.45 0.064791 14.507 0.047446 70.000 0.014286 844.18 915.40 2.9219 2.2870 2.7871 264.45 0.064791 14.507 0.047446
195.38 725.60 undefined 846.47 917.93 2.9268 70.000 0.014286 846.47 917.93 2.9268 2.2906 2.7886 265.01 0.064290 14.535 0.047614 70.000 0.014286 846.47 917.93 2.9268 2.2906 2.7886 265.01 0.064290 14.535 0.047614
196.38 728.12 undefined 848.76 920.47 2.9317 70.000 0.014286 848.76 920.47 2.9317 2.2942 2.7902 265.57 0.063795 14.563 0.047782 70.000 0.014286 848.76 920.47 2.9317 2.2942 2.7902 265.57 0.063795 14.563 0.047782
197.38 730.63 undefined 851.05 923.02 2.9366 70.000 0.014286 851.05 923.02 2.9366 2.2977 2.7917 266.13 0.063306 14.592 0.047950 70.000 0.014286 851.05 923.02 2.9366 2.2977 2.7917 266.13 0.063306 14.592 0.047950
198.38 733.14 undefined 853.35 925.56 2.9414 70.000 0.014286 853.35 925.56 2.9414 2.3013 2.7933 266.69 0.062822 14.620 0.048119 70.000 0.014286 853.35 925.56 2.9414 2.3013 2.7933 266.69 0.062822 14.620 0.048119
199.38 735.65 undefined 855.66 928.11 2.9463 70.000 0.014286 855.66 928.11 2.9463 2.3048 2.7949 267.25 0.062344 14.648 0.048288 70.000 0.014286 855.66 928.11 2.9463 2.3048 2.7949 267.25 0.062344 14.648 0.048288
200.38 738.16 undefined 857.96 930.67 2.9512 70.000 0.014286 857.96 930.67 2.9512 2.3084 2.7965 267.81 0.061871 14.676 0.048458 70.000 0.014286 857.96 930.67 2.9512 2.3084 2.7965 267.81 0.061871 14.676 0.048458
201.38 740.67 undefined 860.27 933.23 2.9561 70.000 0.014286 860.27 933.23 2.9561 2.3120 2.7982 268.36 0.061403 14.704 0.048628 70.000 0.014286 860.27 933.23 2.9561 2.3120 2.7982 268.36 0.061403 14.704 0.048628
202.38 743.17 undefined 862.59 935.79 2.9609 70.000 0.014286 862.59 935.79 2.9609 2.3155 2.7999 268.92 0.060941 14.732 0.048798 70.000 0.014286 862.59 935.79 2.9609 2.3155 2.7999 268.92 0.060941 14.732 0.048798
203.38 745.68 undefined 864.90 938.35 2.9658 70.000 0.014286 864.90 938.35 2.9658 2.3191 2.8016 269.47 0.060483 14.760 0.048968 70.000 0.014286 864.90 938.35 2.9658 2.3191 2.8016 269.47 0.060483 14.760 0.048968
204.38 748.18 undefined 867.22 940.92 2.9707 70.000 0.014286 867.22 940.92 2.9707 2.3226 2.8033 270.02 0.060031 14.788 0.049139 70.000 0.014286 867.22 940.92 2.9707 2.3226 2.8033 270.02 0.060031 14.788 0.049139
205.38 750.68 undefined 869.55 943.49 2.9755 70.000 0.014286 869.55 943.49 2.9755 2.3262 2.8050 270.57 0.059583 14.816 0.049310 70.000 0.014286 869.55 943.49 2.9755 2.3262 2.8050 270.57 0.059583 14.816 0.049310
206.38 753.19 undefined 871.88 946.06 2.9804 70.000 0.014286 871.88 946.06 2.9804 2.3298 2.8068 271.12 0.059141 14.844 0.049481 70.000 0.014286 871.88 946.06 2.9804 2.3298 2.8068 271.12 0.059141 14.844 0.049481
207.38 755.69 undefined 874.21 948.64 2.9852 70.000 0.014286 874.21 948.64 2.9852 2.3333 2.8086 271.67 0.058703 14.872 0.049653 70.000 0.014286 874.21 948.64 2.9852 2.3333 2.8086 271.67 0.058703 14.872 0.049653
208.38 758.19 undefined 876.54 951.22 2.9901 70.000 0.014286 876.54 951.22 2.9901 2.3369 2.8104 272.22 0.058270 14.900 0.049825 70.000 0.014286 876.54 951.22 2.9901 2.3369 2.8104 272.22 0.058270 14.900 0.049825
209.38 760.68 undefined 878.88 953.81 2.9950 70.000 0.014286 878.88 953.81 2.9950 2.3405 2.8123 272.76 0.057842 14.927 0.049997 70.000 0.014286 878.88 953.81 2.9950 2.3405 2.8123 272.76 0.057842 14.927 0.049997
210.38 763.18 undefined 881.22 956.40 2.9998 70.000 0.014286 881.22 956.40 2.9998 2.3440 2.8141 273.31 0.057418 14.955 0.050170 70.000 0.014286 881.22 956.40 2.9998 2.3440 2.8141 273.31 0.057418 14.955 0.050170
211.38 765.68 undefined 883.57 958.99 3.0046 70.000 0.014286 883.57 958.99 3.0046 2.3476 2.8160 273.85 0.056999 14.983 0.050343 70.000 0.014286 883.57 958.99 3.0046 2.3476 2.8160 273.85 0.056999 14.983 0.050343
212.38 768.17 undefined 885.92 961.58 3.0095 70.000 0.014286 885.92 961.58 3.0095 2.3512 2.8179 274.39 0.056584 15.011 0.050516 70.000 0.014286 885.92 961.58 3.0095 2.3512 2.8179 274.39 0.056584 15.011 0.050516
213.38 770.67 undefined 888.27 964.18 3.0143 70.000 0.014286 888.27 964.18 3.0143 2.3547 2.8199 274.93 0.056174 15.038 0.050690 70.000 0.014286 888.27 964.18 3.0143 2.3547 2.8199 274.93 0.056174 15.038 0.050690
214.38 773.16 undefined 890.63 966.78 3.0192 70.000 0.014286 890.63 966.78 3.0192 2.3583 2.8218 275.47 0.055768 15.066 0.050864 70.000 0.014286 890.63 966.78 3.0192 2.3583 2.8218 275.47 0.055768 15.066 0.050864
215.38 775.65 undefined 892.99 969.39 3.0240 70.000 0.014286 892.99 969.39 3.0240 2.3619 2.8238 276.01 0.055366 15.094 0.051038 70.000 0.014286 892.99 969.39 3.0240 2.3619 2.8238 276.01 0.055366 15.094 0.051038
216.38 778.15 undefined 895.35 972.00 3.0288 70.000 0.014286 895.35 972.00 3.0288 2.3654 2.8258 276.55 0.054969 15.121 0.051213 70.000 0.014286 895.35 972.00 3.0288 2.3654 2.8258 276.55 0.054969 15.121 0.051213
217.38 780.64 undefined 897.72 974.61 3.0337 70.000 0.014286 897.72 974.61 3.0337 2.3690 2.8278 277.08 0.054576 15.149 0.051388 70.000 0.014286 897.72 974.61 3.0337 2.3690 2.8278 277.08 0.054576 15.149 0.051388
218.38 783.13 undefined 900.09 977.23 3.0385 70.000 0.014286 900.09 977.23 3.0385 2.3726 2.8298 277.62 0.054186 15.176 0.051563 70.000 0.014286 900.09 977.23 3.0385 2.3726 2.8298 277.62 0.054186 15.176 0.051563
219.38 785.61 undefined 902.47 979.85 3.0433 70.000 0.014286 902.47 979.85 3.0433 2.3761 2.8318 278.15 0.053801 15.204 0.051738 70.000 0.014286 902.47 979.85 3.0433 2.3761 2.8318 278.15 0.053801 15.204 0.051738
220.38 788.10 undefined 904.84 982.47 3.0481 70.000 0.014286 904.84 982.47 3.0481 2.3797 2.8339 278.68 0.053420 15.231 0.051914 70.000 0.014286 904.84 982.47 3.0481 2.3797 2.8339 278.68 0.053420 15.231 0.051914
221.38 790.59 undefined 907.22 985.10 3.0530 70.000 0.014286 907.22 985.10 3.0530 2.3833 2.8359 279.21 0.053043 15.259 0.052090 70.000 0.014286 907.22 985.10 3.0530 2.3833 2.8359 279.21 0.053043 15.259 0.052090
222.38 793.08 undefined 909.61 987.73 3.0578 70.000 0.014286 909.61 987.73 3.0578 2.3868 2.8380 279.74 0.052670 15.286 0.052267 70.000 0.014286 909.61 987.73 3.0578 2.3868 2.8380 279.74 0.052670 15.286 0.052267
223.38 795.56 undefined 912.00 990.36 3.0626 70.000 0.014286 912.00 990.36 3.0626 2.3904 2.8401 280.27 0.052300 15.314 0.052443 70.000 0.014286 912.00 990.36 3.0626 2.3904 2.8401 280.27 0.052300 15.314 0.052443
224.38 798.04 undefined 914.39 993.00 3.0674 70.000 0.014286 914.39 993.00 3.0674 2.3939 2.8422 280.80 0.051934 15.341 0.052620 70.000 0.014286 914.39 993.00 3.0674 2.3939 2.8422 280.80 0.051934 15.341 0.052620
225.38 800.53 undefined 916.79 995.64 3.0722 70.000 0.014286 916.79 995.64 3.0722 2.3975 2.8444 281.33 0.051572 15.368 0.052798 70.000 0.014286 916.79 995.64 3.0722 2.3975 2.8444 281.33 0.051572 15.368 0.052798
226.38 803.01 undefined 919.19 998.28 3.0770 70.000 0.014286 919.19 998.28 3.0770 2.4011 2.8465 281.85 0.051214 15.396 0.052975 70.000 0.014286 919.19 998.28 3.0770 2.4011 2.8465 281.85 0.051214 15.396 0.052975
227.38 805.49 undefined 921.59 1000.9 3.0818 70.000 0.014286 921.59 1000.9 3.0818 2.4046 2.8487 282.38 0.050859 15.423 0.053153 70.000 0.014286 921.59 1000.9 3.0818 2.4046 2.8487 282.38 0.050859 15.423 0.053153
228.38 807.97 undefined 924.00 1003.6 3.0866 70.000 0.014286 924.00 1003.6 3.0866 2.4082 2.8509 282.90 0.050508 15.450 0.053331 70.000 0.014286 924.00 1003.6 3.0866 2.4082 2.8509 282.90 0.050508 15.450 0.053331
229.38 810.45 undefined 926.41 1006.2 3.0914 70.000 0.014286 926.41 1006.2 3.0914 2.4117 2.8531 283.42 0.050160 15.477 0.053510 70.000 0.014286 926.41 1006.2 3.0914 2.4117 2.8531 283.42 0.050160 15.477 0.053510
230.38 812.93 undefined 928.82 1008.9 3.0962 70.000 0.014286 928.82 1008.9 3.0962 2.4153 2.8553 283.94 0.049816 15.505 0.053689 70.000 0.014286 928.82 1008.9 3.0962 2.4153 2.8553 283.94 0.049816 15.505 0.053689
231.38 815.41 undefined 931.24 1011.6 3.1010 70.000 0.014286 931.24 1011.6 3.1010 2.4189 2.8575 284.46 0.049475 15.532 0.053868 70.000 0.014286 931.24 1011.6 3.1010 2.4189 2.8575 284.46 0.049475 15.532 0.053868
232.38 817.88 undefined 933.66 1014.2 3.1058 70.000 0.014286 933.66 1014.2 3.1058 2.4224 2.8597 284.98 0.049138 15.559 0.054047 70.000 0.014286 933.66 1014.2 3.1058 2.4224 2.8597 284.98 0.049138 15.559 0.054047
233.38 820.36 undefined 936.08 1016.9 3.1106 70.000 0.014286 936.08 1016.9 3.1106 2.4260 2.8620 285.50 0.048804 15.586 0.054227 70.000 0.014286 936.08 1016.9 3.1106 2.4260 2.8620 285.50 0.048804 15.586 0.054227
234.38 822.84 undefined 938.51 1019.6 3.1154 70.000 0.014286 938.51 1019.6 3.1154 2.4295 2.8642 286.02 0.048473 15.613 0.054407 70.000 0.014286 938.51 1019.6 3.1154 2.4295 2.8642 286.02 0.048473 15.613 0.054407
235.38 825.31 undefined 940.94 1022.2 3.1202 70.000 0.014286 940.94 1022.2 3.1202 2.4331 2.8665 286.53 0.048146 15.640 0.054587 70.000 0.014286 940.94 1022.2 3.1202 2.4331 2.8665 286.53 0.048146 15.640 0.054587
236.38 827.79 undefined 943.37 1024.9 3.1250 70.000 0.014286 943.37 1024.9 3.1250 2.4366 2.8688 287.05 0.047821 15.667 0.054768 70.000 0.014286 943.37 1024.9 3.1250 2.4366 2.8688 287.05 0.047821 15.667 0.054768
237.38 830.26 undefined 945.81 1027.6 3.1298 70.000 0.014286 945.81 1027.6 3.1298 2.4402 2.8711 287.56 0.047500 15.694 0.054949 70.000 0.014286 945.81 1027.6 3.1298 2.4402 2.8711 287.56 0.047500 15.694 0.054949
238.38 832.73 undefined 948.25 1030.3 3.1345 70.000 0.014286 948.25 1030.3 3.1345 2.4437 2.8734 288.08 0.047182 15.721 0.055130 70.000 0.014286 948.25 1030.3 3.1345 2.4437 2.8734 288.08 0.047182 15.721 0.055130
239.38 835.20 undefined 950.70 1033.0 3.1393 70.000 0.014286 950.70 1033.0 3.1393 2.4473 2.8757 288.59 0.046867 15.748 0.055311 70.000 0.014286 950.70 1033.0 3.1393 2.4473 2.8757 288.59 0.046867 15.748 0.055311
240.38 837.67 undefined 953.15 1035.7 3.1441 70.000 0.014286 953.15 1035.7 3.1441 2.4508 2.8780 289.10 0.046555 15.775 0.055493 70.000 0.014286 953.15 1035.7 3.1441 2.4508 2.8780 289.10 0.046555 15.775 0.055493
241.38 840.14 undefined 955.60 1038.4 3.1489 70.000 0.014286 955.60 1038.4 3.1489 2.4543 2.8804 289.61 0.046247 15.802 0.055675 70.000 0.014286 955.60 1038.4 3.1489 2.4543 2.8804 289.61 0.046247 15.802 0.055675
242.38 842.61 undefined 958.06 1041.1 3.1536 70.000 0.014286 958.06 1041.1 3.1536 2.4579 2.8827 290.12 0.045941 15.829 0.055858 70.000 0.014286 958.06 1041.1 3.1536 2.4579 2.8827 290.12 0.045941 15.829 0.055858
243.38 845.08 undefined 960.52 1043.8 3.1584 70.000 0.014286 960.52 1043.8 3.1584 2.4614 2.8851 290.62 0.045638 15.856 0.056040 70.000 0.014286 960.52 1043.8 3.1584 2.4614 2.8851 290.62 0.045638 15.856 0.056040
244.38 847.55 undefined 962.98 1046.5 3.1632 70.000 0.014286 962.98 1046.5 3.1632 2.4649 2.8874 291.13 0.045337 15.882 0.056223 70.000 0.014286 962.98 1046.5 3.1632 2.4649 2.8874 291.13 0.045337 15.882 0.056223
245.38 850.02 undefined 965.45 1049.2 3.1679 70.000 0.014286 965.45 1049.2 3.1679 2.4685 2.8898 291.64 0.045040 15.909 0.056406 70.000 0.014286 965.45 1049.2 3.1679 2.4685 2.8898 291.64 0.045040 15.909 0.056406
246.38 852.48 undefined 967.92 1051.9 3.1727 70.000 0.014286 967.92 1051.9 3.1727 2.4720 2.8922 292.14 0.044746 15.936 0.056590 70.000 0.014286 967.92 1051.9 3.1727 2.4720 2.8922 292.14 0.044746 15.936 0.056590
247.38 854.95 undefined 970.39 1054.6 3.1774 70.000 0.014286 970.39 1054.6 3.1774 2.4755 2.8946 292.65 0.044454 15.963 0.056773 70.000 0.014286 970.39 1054.6 3.1774 2.4755 2.8946 292.65 0.044454 15.963 0.056773
248.38 857.41 undefined 972.87 1057.3 3.1822 70.000 0.014286 972.87 1057.3 3.1822 2.4791 2.8970 293.15 0.044165 15.989 0.056957 70.000 0.014286 972.87 1057.3 3.1822 2.4791 2.8970 293.15 0.044165 15.989 0.056957
249.38 859.88 undefined 975.35 1060.0 3.1869 70.000 0.014286 975.35 1060.0 3.1869 2.4826 2.8994 293.65 0.043879 16.016 0.057142 70.000 0.014286 975.35 1060.0 3.1869 2.4826 2.8994 293.65 0.043879 16.016 0.057142
250.38 862.34 undefined 977.83 1062.8 3.1917 70.000 0.014286 977.83 1062.8 3.1917 2.4861 2.9019 294.15 0.043595 16.042 0.057326 70.000 0.014286 977.83 1062.8 3.1917 2.4861 2.9019 294.15 0.043595 16.042 0.057326
251.38 864.80 undefined 980.32 1065.5 3.1964 70.000 0.014286 980.32 1065.5 3.1964 2.4896 2.9043 294.65 0.043314 16.069 0.057511 70.000 0.014286 980.32 1065.5 3.1964 2.4896 2.9043 294.65 0.043314 16.069 0.057511
252.38 867.27 undefined 982.81 1068.2 3.2012 70.000 0.014286 982.81 1068.2 3.2012 2.4932 2.9068 295.15 0.043036 16.096 0.057696 70.000 0.014286 982.81 1068.2 3.2012 2.4932 2.9068 295.15 0.043036 16.096 0.057696
253.38 869.73 undefined 985.31 1071.0 3.2059 70.000 0.014286 985.31 1071.0 3.2059 2.4967 2.9092 295.65 0.042760 16.122 0.057882 70.000 0.014286 985.31 1071.0 3.2059 2.4967 2.9092 295.65 0.042760 16.122 0.057882
254.38 872.19 undefined 987.81 1073.7 3.2107 70.000 0.014286 987.81 1073.7 3.2107 2.5002 2.9117 296.15 0.042486 16.149 0.058067 70.000 0.014286 987.81 1073.7 3.2107 2.5002 2.9117 296.15 0.042486 16.149 0.058067
255.38 874.65 undefined 990.31 1076.5 3.2154 70.000 0.014286 990.31 1076.5 3.2154 2.5037 2.9141 296.64 0.042216 16.175 0.058253 70.000 0.014286 990.31 1076.5 3.2154 2.5037 2.9141 296.64 0.042216 16.175 0.058253
256.38 877.11 undefined 992.81 1079.2 3.2201 70.000 0.014286 992.81 1079.2 3.2201 2.5072 2.9166 297.14 0.041947 16.202 0.058439 70.000 0.014286 992.81 1079.2 3.2201 2.5072 2.9166 297.14 0.041947 16.202 0.058439
257.38 879.57 undefined 995.32 1082.0 3.2249 70.000 0.014286 995.32 1082.0 3.2249 2.5107 2.9191 297.63 0.041681 16.228 0.058625 70.000 0.014286 995.32 1082.0 3.2249 2.5107 2.9191 297.63 0.041681 16.228 0.058625
258.38 882.03 undefined 997.84 1084.7 3.2296 70.000 0.014286 997.84 1084.7 3.2296 2.5142 2.9216 298.12 0.041418 16.254 0.058812 70.000 0.014286 997.84 1084.7 3.2296 2.5142 2.9216 298.12 0.041418 16.254 0.058812
259.38 884.48 undefined 1000.4 1087.5 3.2343 70.000 0.014286 1000.4 1087.5 3.2343 2.5177 2.9241 298.62 0.041157 16.281 0.058999 70.000 0.014286 1000.4 1087.5 3.2343 2.5177 2.9241 298.62 0.041157 16.281 0.058999
260.38 886.94 undefined 1002.9 1090.2 3.2391 70.000 0.014286 1002.9 1090.2 3.2391 2.5212 2.9266 299.11 0.040898 16.307 0.059186 70.000 0.014286 1002.9 1090.2 3.2391 2.5212 2.9266 299.11 0.040898 16.307 0.059186
261.38 889.40 undefined 1005.4 1093.0 3.2438 70.000 0.014286 1005.4 1093.0 3.2438 2.5247 2.9291 299.60 0.040642 16.333 0.059373 70.000 0.014286 1005.4 1093.0 3.2438 2.5247 2.9291 299.60 0.040642 16.333 0.059373
262.38 891.85 undefined 1007.9 1095.8 3.2485 70.000 0.014286 1007.9 1095.8 3.2485 2.5282 2.9316 300.09 0.040388 16.360 0.059561 70.000 0.014286 1007.9 1095.8 3.2485 2.5282 2.9316 300.09 0.040388 16.360 0.059561
263.38 894.31 undefined 1010.5 1098.5 3.2532 70.000 0.014286 1010.5 1098.5 3.2532 2.5317 2.9342 300.58 0.040136 16.386 0.059749 70.000 0.014286 1010.5 1098.5 3.2532 2.5317 2.9342 300.58 0.040136 16.386 0.059749
264.38 896.76 undefined 1013.0 1101.3 3.2579 70.000 0.014286 1013.0 1101.3 3.2579 2.5352 2.9367 301.07 0.039886 16.412 0.059937 70.000 0.014286 1013.0 1101.3 3.2579 2.5352 2.9367 301.07 0.039886 16.412 0.059937
265.38 899.22 undefined 1015.5 1104.1 3.2627 70.000 0.014286 1015.5 1104.1 3.2627 2.5387 2.9392 301.55 0.039639 16.438 0.060125 70.000 0.014286 1015.5 1104.1 3.2627 2.5387 2.9392 301.55 0.039639 16.438 0.060125
266.38 901.67 undefined 1018.1 1106.9 3.2674 70.000 0.014286 1018.1 1106.9 3.2674 2.5422 2.9418 302.04 0.039394 16.464 0.060313 70.000 0.014286 1018.1 1106.9 3.2674 2.5422 2.9418 302.04 0.039394 16.464 0.060313
267.38 904.13 undefined 1020.6 1109.7 3.2721 70.000 0.014286 1020.6 1109.7 3.2721 2.5457 2.9443 302.53 0.039151 16.491 0.060502 70.000 0.014286 1020.6 1109.7 3.2721 2.5457 2.9443 302.53 0.039151 16.491 0.060502
268.38 906.58 undefined 1023.2 1112.4 3.2768 70.000 0.014286 1023.2 1112.4 3.2768 2.5491 2.9469 303.01 0.038910 16.517 0.060691 70.000 0.014286 1023.2 1112.4 3.2768 2.5491 2.9469 303.01 0.038910 16.517 0.060691
269.38 909.03 undefined 1025.7 1115.2 3.2815 70.000 0.014286 1025.7 1115.2 3.2815 2.5526 2.9494 303.50 0.038671 16.543 0.060880 70.000 0.014286 1025.7 1115.2 3.2815 2.5526 2.9494 303.50 0.038671 16.543 0.060880
270.38 911.48 undefined 1028.3 1118.0 3.2862 70.000 0.014286 1028.3 1118.0 3.2862 2.5561 2.9520 303.98 0.038434 16.569 0.061069 70.000 0.014286 1028.3 1118.0 3.2862 2.5561 2.9520 303.98 0.038434 16.569 0.061069
271.38 913.93 undefined 1030.8 1120.8 3.2909 70.000 0.014286 1030.8 1120.8 3.2909 2.5596 2.9546 304.46 0.038200 16.595 0.061258 70.000 0.014286 1030.8 1120.8 3.2909 2.5596 2.9546 304.46 0.038200 16.595 0.061258
272.38 916.38 undefined 1033.4 1123.6 3.2956 70.000 0.014286 1033.4 1123.6 3.2956 2.5630 2.9571 304.94 0.037967 16.621 0.061447 70.000 0.014286 1033.4 1123.6 3.2956 2.5630 2.9571 304.94 0.037967 16.621 0.061447
273.38 918.83 undefined 1035.9 1126.4 3.3003 70.000 0.014286 1035.9 1126.4 3.3003 2.5665 2.9597 305.42 0.037736 16.647 0.061637 70.000 0.014286 1035.9 1126.4 3.3003 2.5665 2.9597 305.42 0.037736 16.647 0.061637
274.38 921.28 undefined 1038.5 1129.3 3.3050 70.000 0.014286 1038.5 1129.3 3.3050 2.5700 2.9623 305.90 0.037508 16.673 0.061826 70.000 0.014286 1038.5 1129.3 3.3050 2.5700 2.9623 305.90 0.037508 16.673 0.061826
275.38 923.73 undefined 1041.1 1132.1 3.3097 70.000 0.014286 1041.1 1132.1 3.3097 2.5734 2.9649 306.38 0.037281 16.699 0.062015 70.000 0.014286 1041.1 1132.1 3.3097 2.5734 2.9649 306.38 0.037281 16.699 0.062015
276.38 926.18 undefined 1043.7 1134.9 3.3144 70.000 0.014286 1043.7 1134.9 3.3144 2.5769 2.9675 306.86 0.037056 16.725 0.062204 70.000 0.014286 1043.7 1134.9 3.3144 2.5769 2.9675 306.86 0.037056 16.725 0.062204
277.38 928.62 undefined 1046.2 1137.7 3.3191 70.000 0.014286 1046.2 1137.7 3.3191 2.5803 2.9701 307.34 0.036833 16.750 0.062393 70.000 0.014286 1046.2 1137.7 3.3191 2.5803 2.9701 307.34 0.036833 16.750 0.062393
278.38 931.07 undefined 1048.8 1140.5 3.3238 70.000 0.014286 1048.8 1140.5 3.3238 2.5838 2.9727 307.81 0.036612 16.776 0.062581 70.000 0.014286 1048.8 1140.5 3.3238 2.5838 2.9727 307.81 0.036612 16.776 0.062581
279.38 933.52 undefined 1051.4 1143.4 3.3284 70.000 0.014286 1051.4 1143.4 3.3284 2.5872 2.9753 308.29 0.036393 16.802 0.062768 70.000 0.014286 1051.4 1143.4 3.3284 2.5872 2.9753 308.29 0.036393 16.802 0.062768
280.38 935.96 undefined 1054.0 1146.2 3.3331 70.000 0.014286 1054.0 1146.2 3.3331 2.5907 2.9779 308.76 0.036176 16.828 0.062953 70.000 0.014286 1054.0 1146.2 3.3331 2.5907 2.9779 308.76 0.036176 16.828 0.062953
281.38 938.41 undefined 1056.6 1149.0 3.3378 70.000 0.014286 1056.6 1149.0 3.3378 2.5941 2.9806 309.24 0.035961 16.854 0.063131 70.000 0.014286 1056.6 1149.0 3.3378 2.5941 2.9806 309.24 0.035961 16.854 0.063131
282.38 940.85 undefined 1059.2 1151.9 3.3425 70.000 0.014286 1059.2 1151.9 3.3425 2.5976 2.9832 309.71 0.035747 16.879 0.063315 70.000 0.014286 1059.2 1151.9 3.3425 2.5976 2.9832 309.71 0.035747 16.879 0.063315
283.38 943.30 undefined 1061.8 1154.7 3.3472 70.000 0.014286 1061.8 1154.7 3.3472 2.6010 2.9858 310.18 0.035536 16.905 0.063513 70.000 0.014286 1061.8 1154.7 3.3472 2.6010 2.9858 310.18 0.035536 16.905 0.063513
284.38 945.74 undefined 1064.4 1157.5 3.3518 70.000 0.014286 1064.4 1157.5 3.3518 2.6044 2.9884 310.65 0.035326 16.931 0.063711 70.000 0.014286 1064.4 1157.5 3.3518 2.6044 2.9884 310.65 0.035326 16.931 0.063711
285.38 948.18 undefined 1067.0 1160.4 3.3565 70.000 0.014286 1067.0 1160.4 3.3565 2.6079 2.9911 311.13 0.035117 16.956 0.063909 70.000 0.014286 1067.0 1160.4 3.3565 2.6079 2.9911 311.13 0.035117 16.956 0.063909
286.38 950.63 undefined 1069.6 1163.2 3.3612 70.000 0.014286 1069.6 1163.2 3.3612 2.6113 2.9937 311.60 0.034911 16.982 0.064107 70.000 0.014286 1069.6 1163.2 3.3612 2.6113 2.9937 311.60 0.034911 16.982 0.064107
287.38 953.07 undefined 1072.2 1166.1 3.3658 70.000 0.014286 1072.2 1166.1 3.3658 2.6147 2.9963 312.06 0.034706 17.007 0.064306 70.000 0.014286 1072.2 1166.1 3.3658 2.6147 2.9963 312.06 0.034706 17.007 0.064306
288.38 955.51 undefined 1074.8 1168.9 3.3705 70.000 0.014286 1074.8 1168.9 3.3705 2.6181 2.9990 312.53 0.034503 17.033 0.064505 70.000 0.014286 1074.8 1168.9 3.3705 2.6181 2.9990 312.53 0.034503 17.033 0.064505
289.38 957.95 undefined 1077.4 1171.8 3.3752 70.000 0.014286 1077.4 1171.8 3.3752 2.6216 3.0016 313.00 0.034301 17.058 0.064705 70.000 0.014286 1077.4 1171.8 3.3752 2.6216 3.0016 313.00 0.034301 17.058 0.064705
290.38 960.39 undefined 1080.1 1174.7 3.3798 70.000 0.014286 1080.1 1174.7 3.3798 2.6250 3.0043 313.47 0.034101 17.084 0.064904 70.000 0.014286 1080.1 1174.7 3.3798 2.6250 3.0043 313.47 0.034101 17.084 0.064904
291.38 962.83 undefined 1082.7 1177.5 3.3845 70.000 0.014286 1082.7 1177.5 3.3845 2.6284 3.0069 313.93 0.033903 17.109 0.065104 70.000 0.014286 1082.7 1177.5 3.3845 2.6284 3.0069 313.93 0.033903 17.109 0.065104
292.38 965.27 undefined 1085.3 1180.4 3.3891 70.000 0.014286 1085.3 1180.4 3.3891 2.6318 3.0096 314.40 0.033707 17.135 0.065305 70.000 0.014286 1085.3 1180.4 3.3891 2.6318 3.0096 314.40 0.033707 17.135 0.065305
293.38 967.71 undefined 1088.0 1183.3 3.3938 70.000 0.014286 1088.0 1183.3 3.3938 2.6352 3.0123 314.86 0.033512 17.160 0.065505 70.000 0.014286 1088.0 1183.3 3.3938 2.6352 3.0123 314.86 0.033512 17.160 0.065505
294.38 970.15 undefined 1090.6 1186.2 3.3984 70.000 0.014286 1090.6 1186.2 3.3984 2.6386 3.0149 315.33 0.033318 17.186 0.065706 70.000 0.014286 1090.6 1186.2 3.3984 2.6386 3.0149 315.33 0.033318 17.186 0.065706
295.38 972.59 undefined 1093.2 1189.0 3.4031 70.000 0.014286 1093.2 1189.0 3.4031 2.6420 3.0176 315.79 0.033126 17.211 0.065907 70.000 0.014286 1093.2 1189.0 3.4031 2.6420 3.0176 315.79 0.033126 17.211 0.065907
296.38 975.03 undefined 1095.9 1191.9 3.4077 70.000 0.014286 1095.9 1191.9 3.4077 2.6454 3.0202 316.25 0.032936 17.236 0.066109 70.000 0.014286 1095.9 1191.9 3.4077 2.6454 3.0202 316.25 0.032936 17.236 0.066109
297.38 977.47 undefined 1098.5 1194.8 3.4124 70.000 0.014286 1098.5 1194.8 3.4124 2.6488 3.0229 316.72 0.032747 17.262 0.066311 70.000 0.014286 1098.5 1194.8 3.4124 2.6488 3.0229 316.72 0.032747 17.262 0.066311
298.38 979.90 undefined 1101.2 1197.7 3.4170 70.000 0.014286 1101.2 1197.7 3.4170 2.6522 3.0256 317.18 0.032560 17.287 0.066513 70.000 0.014286 1101.2 1197.7 3.4170 2.6522 3.0256 317.18 0.032560 17.287 0.066513
299.38 982.34 undefined 1103.8 1200.6 3.4216 70.000 0.014286 1103.8 1200.6 3.4216 2.6556 3.0283 317.64 0.032374 17.312 0.066715 70.000 0.014286 1103.8 1200.6 3.4216 2.6556 3.0283 317.64 0.032374 17.312 0.066715
300.38 984.78 undefined 1106.5 1203.5 3.4263 70.000 0.014286 1106.5 1203.5 3.4263 2.6589 3.0309 318.10 0.032190 17.337 0.066918 70.000 0.014286 1106.5 1203.5 3.4263 2.6589 3.0309 318.10 0.032190 17.337 0.066918