Temperature (C) Pressure (psia) Quality (l+v) Internal Energy (l+v, kJ/kg) Enthalpy (l+v, kJ/kg) Entropy (l+v, J/g*K) Density (l, kg/m3) Volume (l, m3/kg) Internal Energy (l, kJ/kg) Enthalpy (l, kJ/kg) Entropy (l, J/g*K) Cv (l, J/g*K) Cp (l, J/g*K) Sound Spd. (l, m/s) Joule-Thomson (l, F/psia) Viscosity (l, uPa*s) Therm. Cond. (l, W/m*K) Density (v, kg/m3) Volume (v, m3/kg) Internal Energy (v, kJ/kg) Enthalpy (v, kJ/kg) Entropy (v, J/g*K) Cv (v, J/g*K) Cp (v, J/g*K) Sound Spd. (v, m/s) Joule-Thomson (v, F/psia) Viscosity (v, uPa*s) Therm. Cond. (v, W/m*K)
-187.62 2.4953e-08 4.7398e-13 -196.64 -196.64 -1.3959 733.13 0.0013640 -196.64 -196.64 -1.3959 1.3553 1.9158 2136.4 -0.0077592 10960. 0.20792 1.0669e-08 9.3732e+07 350.13 366.26 5.1858 0.69067 0.87923 143.28 6.1051 2.3259 0.0017061
-186.62 3.7339e-08 6.7037e-13 -194.73 -194.73 -1.3736 732.08 0.0013660 -194.73 -194.73 -1.3736 1.3539 1.9166 2129.6 -0.0077546 10073. 0.20765 1.5780e-08 6.3371e+07 350.82 367.14 5.1200 0.69462 0.88317 144.03 5.9178 2.3534 0.0017533
-185.62 5.5322e-08 9.3686e-13 -192.81 -192.81 -1.3516 731.04 0.0013679 -192.81 -192.81 -1.3516 1.3525 1.9174 2122.9 -0.0077498 9276.1 0.20737 2.3112e-08 4.3267e+07 351.52 368.02 5.0561 0.69857 0.88713 144.77 5.7383 2.3808 0.0018007
-184.62 8.1182e-08 1.2939e-12 -190.89 -190.89 -1.3298 730.00 0.0013699 -190.89 -190.89 -1.3298 1.3513 1.9182 2116.1 -0.0077448 8557.8 0.20708 3.3533e-08 2.9821e+07 352.22 368.91 4.9939 0.70253 0.89108 145.51 5.5662 2.4083 0.0018485
-183.62 1.1803e-07 1.7660e-12 -188.97 -188.97 -1.3083 728.96 0.0013718 -188.97 -188.97 -1.3083 1.3501 1.9191 2109.3 -0.0077395 7909.8 0.20678 4.8211e-08 2.0742e+07 352.92 369.81 4.9333 0.70648 0.89504 146.24 5.4011 2.4357 0.0018965
-182.62 1.7009e-07 2.3823e-12 -187.05 -187.05 -1.2869 727.92 0.0013738 -187.05 -187.05 -1.2869 1.3490 1.9201 2102.5 -0.0077340 7324.3 0.20647 6.8704e-08 1.4555e+07 353.63 370.70 4.8744 0.71043 0.89899 146.97 5.2426 2.4632 0.0019448
-181.62 2.4299e-07 3.1760e-12 -185.13 -185.13 -1.2658 726.88 0.0013757 -185.13 -185.13 -1.2658 1.3480 1.9210 2095.7 -0.0077283 6794.5 0.20616 9.7079e-08 1.0301e+07 354.35 371.60 4.8170 0.71438 0.90294 147.69 5.0904 2.4906 0.0019934
-180.62 3.4425e-07 4.1839e-12 -183.21 -183.21 -1.2450 725.85 0.0013777 -183.21 -183.21 -1.2450 1.3470 1.9220 2088.9 -0.0077225 6314.4 0.20584 1.3605e-07 7.3504e+06 355.06 372.51 4.7612 0.71833 0.90688 148.41 4.9442 2.5181 0.0020423
-179.62 4.8378e-07 5.4451e-12 -181.29 -181.29 -1.2243 724.81 0.0013797 -181.29 -181.29 -1.2243 1.3461 1.9231 2082.0 -0.0077164 5878.8 0.20551 1.8915e-07 5.2868e+06 355.78 373.42 4.7068 0.72227 0.91082 149.13 4.8038 2.5456 0.0020915
-178.62 6.7459e-07 6.9986e-12 -179.37 -179.37 -1.2038 723.78 0.0013816 -179.37 -179.37 -1.2038 1.3453 1.9241 2075.2 -0.0077102 5482.9 0.20517 2.6096e-07 3.8320e+06 356.51 374.33 4.6538 0.72620 0.91475 149.84 4.6688 2.5731 0.0021410
-177.62 9.3358e-07 8.8794e-12 -177.44 -177.44 -1.1836 722.75 0.0013836 -177.44 -177.44 -1.1836 1.3445 1.9252 2068.4 -0.0077039 5122.6 0.20483 3.5737e-07 2.7982e+06 357.23 375.25 4.6022 0.73012 0.91867 150.54 4.5390 2.6005 0.0021907
-176.62 1.2826e-06 1.1113e-11 -175.52 -175.52 -1.1635 721.72 0.0013856 -175.52 -175.52 -1.1635 1.3437 1.9263 2061.5 -0.0076973 4794.1 0.20447 4.8588e-07 2.0581e+06 357.97 376.17 4.5519 0.73403 0.92258 151.25 4.4142 2.6280 0.0022408
-175.62 1.7496e-06 1.3706e-11 -173.59 -173.59 -1.1437 720.69 0.0013876 -173.59 -173.59 -1.1437 1.3430 1.9274 2054.7 -0.0076907 4494.3 0.20411 6.5601e-07 1.5244e+06 358.70 377.09 4.5029 0.73792 0.92648 151.95 4.2941 2.6555 0.0022912
-174.62 2.3705e-06 1.6637e-11 -171.66 -171.66 -1.1240 719.66 0.0013895 -171.66 -171.66 -1.1240 1.3423 1.9286 2047.9 -0.0076838 4220.2 0.20375 8.7976e-07 1.1367e+06 359.44 378.02 4.4551 0.74181 0.93036 152.64 4.1784 2.6830 0.0023418
-173.62 3.1903e-06 1.9838e-11 -169.73 -169.73 -1.1045 718.64 0.0013915 -169.73 -169.73 -1.1045 1.3417 1.9298 2041.0 -0.0076769 3969.3 0.20338 1.1721e-06 8.5314e+05 360.19 378.95 4.4085 0.74568 0.93423 153.33 4.0671 2.7105 0.0023928
-172.62 4.2661e-06 2.3176e-11 -167.80 -167.80 -1.0852 717.61 0.0013935 -167.80 -167.80 -1.0852 1.3411 1.9310 2034.2 -0.0076698 3739.3 0.20300 1.5518e-06 6.4441e+05 360.93 379.89 4.3631 0.74953 0.93809 154.02 3.9599 2.7379 0.0024440
-171.62 5.6692e-06 2.6426e-11 -165.87 -165.87 -1.0661 716.58 0.0013955 -165.87 -165.87 -1.0661 1.3405 1.9322 2027.3 -0.0076625 3528.0 0.20261 2.0419e-06 4.8974e+05 361.69 380.83 4.3188 0.75337 0.94193 154.71 3.8566 2.7654 0.0024955
-170.62 7.4884e-06 2.9232e-11 -163.94 -163.94 -1.0472 715.56 0.0013975 -163.94 -163.94 -1.0472 1.3400 1.9334 2020.5 -0.0076552 3333.8 0.20222 2.6708e-06 3.7442e+05 362.44 381.77 4.2755 0.75720 0.94575 155.39 3.7570 2.7929 0.0025473
-169.62 9.8334e-06 3.1066e-11 -162.00 -162.00 -1.0284 714.54 0.0013995 -162.00 -162.00 -1.0284 1.3395 1.9347 2013.6 -0.0076477 3154.9 0.20182 3.4733e-06 2.8791e+05 363.20 382.72 4.2334 0.76100 0.94956 156.07 3.6609 2.8204 0.0025994
-168.62 1.2839e-05 3.1170e-11 -160.07 -160.07 -1.0098 713.52 0.0014015 -160.07 -160.07 -1.0098 1.3390 1.9359 2006.8 -0.0076401 2989.9 0.20141 4.4917e-06 2.2263e+05 363.96 383.67 4.1922 0.76479 0.95335 156.74 3.5683 2.8479 0.0026518
-167.62 1.6672e-05 2.8487e-11 -158.13 -158.13 -0.99134 712.49 0.0014035 -158.13 -158.13 -0.99134 1.3386 1.9372 2000.0 -0.0076323 2837.5 0.20100 5.7771e-06 1.7310e+05 364.73 384.63 4.1521 0.76856 0.95712 157.41 3.4790 2.8754 0.0027045
-166.62 2.1533e-05 2.1570e-11 -156.19 -156.19 -0.97306 711.47 0.0014055 -156.19 -156.19 -0.97306 1.3382 1.9385 1993.1 -0.0076245 2696.5 0.20058 7.3914e-06 1.3529e+05 365.50 385.59 4.1129 0.77232 0.96087 158.08 3.3927 2.9029 0.0027575
-165.62 2.7666e-05 8.4807e-12 -154.25 -154.25 -0.95494 710.45 0.0014075 -154.25 -154.25 -0.95494 1.3378 1.9398 1986.3 -0.0076165 2566.0 0.20016 9.4084e-06 1.0629e+05 366.27 386.55 4.0746 0.77605 0.96460 158.75 3.3095 2.9304 0.0028108
-164.62 221.59 undefined -152.65 -150.49 -0.94006 710.00 0.0014085 -152.65 -150.49 -0.94006 1.3388 1.9404 1984.8 -0.0076123 2480.1 0.20017 710.00 0.0014085 -152.65 -150.49 -0.94006 1.3388 1.9404 1984.8 -0.0076123 2480.1 0.20017
-163.62 620.48 undefined -151.31 -145.28 -0.92777 710.00 0.0014085 -151.31 -145.28 -0.92777 1.3410 1.9404 1987.6 -0.0076111 2426.5 0.20052 710.00 0.0014085 -151.31 -145.28 -0.92777 1.3410 1.9404 1987.6 -0.0076111 2426.5 0.20052
-162.62 1017.7 undefined -149.96 -140.08 -0.91557 710.00 0.0014085 -149.96 -140.08 -0.91557 1.3431 1.9405 1990.4 -0.0076099 2375.3 0.20087 710.00 0.0014085 -149.96 -140.08 -0.91557 1.3431 1.9405 1990.4 -0.0076099 2375.3 0.20087
-161.62 1413.4 undefined -148.62 -134.90 -0.90347 710.00 0.0014085 -148.62 -134.90 -0.90347 1.3452 1.9406 1993.3 -0.0076086 2326.3 0.20123 710.00 0.0014085 -148.62 -134.90 -0.90347 1.3452 1.9406 1993.3 -0.0076086 2326.3 0.20123
-160.62 1807.5 undefined -147.27 -129.72 -0.89145 710.00 0.0014085 -147.27 -129.72 -0.89145 1.3474 1.9408 1996.1 -0.0076072 2279.5 0.20158 710.00 0.0014085 -147.27 -129.72 -0.89145 1.3474 1.9408 1996.1 -0.0076072 2279.5 0.20158
-159.62 2200.0 undefined -145.93 -124.56 -0.87952 710.00 0.0014085 -145.93 -124.56 -0.87952 1.3495 1.9409 1998.9 -0.0076058 2234.6 0.20194 710.00 0.0014085 -145.93 -124.56 -0.87952 1.3495 1.9409 1998.9 -0.0076058 2234.6 0.20194
-158.62 2591.0 undefined -144.58 -119.41 -0.86768 710.00 0.0014085 -144.58 -119.41 -0.86768 1.3516 1.9411 2001.7 -0.0076044 2191.6 0.20229 710.00 0.0014085 -144.58 -119.41 -0.86768 1.3516 1.9411 2001.7 -0.0076044 2191.6 0.20229
-157.62 2980.5 undefined -143.22 -114.28 -0.85592 710.00 0.0014085 -143.22 -114.28 -0.85592 1.3537 1.9412 2004.5 -0.0076029 2150.3 0.20265 710.00 0.0014085 -143.22 -114.28 -0.85592 1.3537 1.9412 2004.5 -0.0076029 2150.3 0.20265
-156.62 3368.5 undefined -141.87 -109.16 -0.84424 710.00 0.0014085 -141.87 -109.16 -0.84424 1.3557 1.9414 2007.3 -0.0076013 2110.7 0.20300 710.00 0.0014085 -141.87 -109.16 -0.84424 1.3557 1.9414 2007.3 -0.0076013 2110.7 0.20300
-155.62 3755.0 undefined -140.51 -104.05 -0.83265 710.00 0.0014085 -140.51 -104.05 -0.83265 1.3578 1.9416 2010.0 -0.0075997 2072.7 0.20336 710.00 0.0014085 -140.51 -104.05 -0.83265 1.3578 1.9416 2010.0 -0.0075997 2072.7 0.20336
-154.62 4140.1 undefined -139.15 -98.949 -0.82113 710.00 0.0014085 -139.15 -98.949 -0.82113 1.3599 1.9419 2012.8 -0.0075980 2036.1 0.20371 710.00 0.0014085 -139.15 -98.949 -0.82113 1.3599 1.9419 2012.8 -0.0075980 2036.1 0.20371
-153.62 4523.7 undefined -137.79 -93.862 -0.80970 710.00 0.0014085 -137.79 -93.862 -0.80970 1.3620 1.9421 2015.6 -0.0075963 2001.0 0.20407 710.00 0.0014085 -137.79 -93.862 -0.80970 1.3620 1.9421 2015.6 -0.0075963 2001.0 0.20407
-152.62 4905.9 undefined -136.43 -88.788 -0.79834 710.00 0.0014085 -136.43 -88.788 -0.79834 1.3641 1.9423 2018.3 -0.0075946 1967.2 0.20442 710.00 0.0014085 -136.43 -88.788 -0.79834 1.3641 1.9423 2018.3 -0.0075946 1967.2 0.20442
-151.62 5286.7 undefined -135.06 -83.724 -0.78706 710.00 0.0014085 -135.06 -83.724 -0.78706 1.3661 1.9426 2021.0 -0.0075928 1934.6 0.20478 710.00 0.0014085 -135.06 -83.724 -0.78706 1.3661 1.9426 2021.0 -0.0075928 1934.6 0.20478
-150.62 5666.1 undefined -133.70 -78.673 -0.77586 710.00 0.0014085 -133.70 -78.673 -0.77586 1.3682 1.9429 2023.7 -0.0075910 1903.3 0.20514 710.00 0.0014085 -133.70 -78.673 -0.77586 1.3682 1.9429 2023.7 -0.0075910 1903.3 0.20514
-149.62 6044.2 undefined -132.33 -73.632 -0.76473 710.00 0.0014085 -132.33 -73.632 -0.76473 1.3702 1.9432 2026.4 -0.0075892 1873.0 0.20550 710.00 0.0014085 -132.33 -73.632 -0.76473 1.3702 1.9432 2026.4 -0.0075892 1873.0 0.20550
-148.62 6420.9 undefined -130.96 -68.603 -0.75367 710.00 0.0014085 -130.96 -68.603 -0.75367 1.3723 1.9435 2029.1 -0.0075873 1843.9 0.20585 710.00 0.0014085 -130.96 -68.603 -0.75367 1.3723 1.9435 2029.1 -0.0075873 1843.9 0.20585
-147.62 6796.3 undefined -129.58 -63.584 -0.74269 710.00 0.0014085 -129.58 -63.584 -0.74269 1.3744 1.9438 2031.7 -0.0075853 1815.8 0.20621 710.00 0.0014085 -129.58 -63.584 -0.74269 1.3744 1.9438 2031.7 -0.0075853 1815.8 0.20621
-146.62 7170.3 undefined -128.21 -58.577 -0.73177 710.00 0.0014085 -128.21 -58.577 -0.73177 1.3764 1.9441 2034.4 -0.0075834 1788.6 0.20657 710.00 0.0014085 -128.21 -58.577 -0.73177 1.3764 1.9441 2034.4 -0.0075834 1788.6 0.20657
-145.62 7543.0 undefined -126.83 -53.580 -0.72093 710.00 0.0014085 -126.83 -53.580 -0.72093 1.3785 1.9444 2037.0 -0.0075814 1762.4 0.20693 710.00 0.0014085 -126.83 -53.580 -0.72093 1.3785 1.9444 2037.0 -0.0075814 1762.4 0.20693
-144.62 7914.5 undefined -125.45 -48.593 -0.71016 710.00 0.0014085 -125.45 -48.593 -0.71016 1.3805 1.9448 2039.6 -0.0075793 1737.1 0.20729 710.00 0.0014085 -125.45 -48.593 -0.71016 1.3805 1.9448 2039.6 -0.0075793 1737.1 0.20729
-143.62 8284.6 undefined -124.07 -43.617 -0.69945 710.00 0.0014085 -124.07 -43.617 -0.69945 1.3826 1.9452 2042.2 -0.0075773 1712.6 0.20765 710.00 0.0014085 -124.07 -43.617 -0.69945 1.3826 1.9452 2042.2 -0.0075773 1712.6 0.20765
-142.62 8653.5 undefined -122.68 -38.652 -0.68881 710.00 0.0014085 -122.68 -38.652 -0.68881 1.3846 1.9455 2044.8 -0.0075752 1688.8 0.20801 710.00 0.0014085 -122.68 -38.652 -0.68881 1.3846 1.9455 2044.8 -0.0075752 1688.8 0.20801
-141.62 9021.1 undefined -121.30 -33.696 -0.67823 710.00 0.0014085 -121.30 -33.696 -0.67823 1.3867 1.9459 2047.3 -0.0075730 1665.9 0.20837 710.00 0.0014085 -121.30 -33.696 -0.67823 1.3867 1.9459 2047.3 -0.0075730 1665.9 0.20837
-140.62 9387.5 undefined -119.91 -28.751 -0.66772 710.00 0.0014085 -119.91 -28.751 -0.66772 1.3887 1.9463 2049.8 -0.0075709 1643.7 0.20873 710.00 0.0014085 -119.91 -28.751 -0.66772 1.3887 1.9463 2049.8 -0.0075709 1643.7 0.20873
-139.62 9752.6 undefined -118.52 -23.815 -0.65727 710.00 0.0014085 -118.52 -23.815 -0.65727 1.3907 1.9467 2052.4 -0.0075686 1622.2 0.20909 710.00 0.0014085 -118.52 -23.815 -0.65727 1.3907 1.9467 2052.4 -0.0075686 1622.2 0.20909
-138.62 10116. undefined -117.13 -18.890 -0.64689 710.00 0.0014085 -117.13 -18.890 -0.64689 1.3928 1.9472 2054.9 -0.0075664 1601.3 0.20945 710.00 0.0014085 -117.13 -18.890 -0.64689 1.3928 1.9472 2054.9 -0.0075664 1601.3 0.20945
-137.62 10479. undefined -115.74 -13.974 -0.63657 710.00 0.0014085 -115.74 -13.974 -0.63657 1.3948 1.9476 2057.3 -0.0075641 1581.1 0.20981 710.00 0.0014085 -115.74 -13.974 -0.63657 1.3948 1.9476 2057.3 -0.0075641 1581.1 0.20981
-136.62 10841. undefined -114.34 -9.0675 -0.62630 710.00 0.0014085 -114.34 -9.0675 -0.62630 1.3969 1.9480 2059.8 -0.0075618 1561.5 0.21017 710.00 0.0014085 -114.34 -9.0675 -0.62630 1.3969 1.9480 2059.8 -0.0075618 1561.5 0.21017
-135.62 11201. undefined -112.94 -4.1708 -0.61610 710.00 0.0014085 -112.94 -4.1708 -0.61610 1.3989 1.9485 2062.2 -0.0075594 1542.5 0.21053 710.00 0.0014085 -112.94 -4.1708 -0.61610 1.3989 1.9485 2062.2 -0.0075594 1542.5 0.21053
-134.62 11560. undefined -111.54 0.71653 -0.60596 710.00 0.0014085 -111.54 0.71653 -0.60596 1.4010 1.9490 2064.7 -0.0075570 1524.0 0.21089 710.00 0.0014085 -111.54 0.71653 -0.60596 1.4010 1.9490 2064.7 -0.0075570 1524.0 0.21089
-133.62 11918. undefined -110.14 5.5945 -0.59588 710.00 0.0014085 -110.14 5.5945 -0.59588 1.4030 1.9495 2067.1 -0.0075545 1506.1 0.21125 710.00 0.0014085 -110.14 5.5945 -0.59588 1.4030 1.9495 2067.1 -0.0075545 1506.1 0.21125
-132.62 12275. undefined -108.74 10.463 -0.58585 710.00 0.0014085 -108.74 10.463 -0.58585 1.4051 1.9500 2069.5 -0.0075521 1488.7 0.21162 710.00 0.0014085 -108.74 10.463 -0.58585 1.4051 1.9500 2069.5 -0.0075521 1488.7 0.21162
-131.62 12630. undefined -107.33 15.323 -0.57588 710.00 0.0014085 -107.33 15.323 -0.57588 1.4072 1.9505 2071.8 -0.0075495 1471.7 0.21198 710.00 0.0014085 -107.33 15.323 -0.57588 1.4072 1.9505 2071.8 -0.0075495 1471.7 0.21198
-130.62 12985. undefined -105.92 20.174 -0.56596 710.00 0.0014085 -105.92 20.174 -0.56596 1.4092 1.9510 2074.2 -0.0075469 1455.3 0.21234 710.00 0.0014085 -105.92 20.174 -0.56596 1.4092 1.9510 2074.2 -0.0075469 1455.3 0.21234
-129.62 13338. undefined -104.51 25.015 -0.55610 710.00 0.0014085 -104.51 25.015 -0.55610 1.4113 1.9516 2076.5 -0.0075443 1439.3 0.21270 710.00 0.0014085 -104.51 25.015 -0.55610 1.4113 1.9516 2076.5 -0.0075443 1439.3 0.21270
-128.62 13691. undefined -103.10 29.848 -0.54630 710.00 0.0014085 -103.10 29.848 -0.54630 1.4134 1.9521 2078.8 -0.0075417 1423.7 0.21307 710.00 0.0014085 -103.10 29.848 -0.54630 1.4134 1.9521 2078.8 -0.0075417 1423.7 0.21307
-127.62 14042. undefined -101.69 34.673 -0.53654 710.00 0.0014085 -101.69 34.673 -0.53654 1.4154 1.9527 2081.1 -0.0075390 1408.6 0.21343 710.00 0.0014085 -101.69 34.673 -0.53654 1.4154 1.9527 2081.1 -0.0075390 1408.6 0.21343
-126.62 14392. undefined -100.27 39.488 -0.52684 710.00 0.0014085 -100.27 39.488 -0.52684 1.4175 1.9533 2083.4 -0.0075362 1393.8 0.21380 710.00 0.0014085 -100.27 39.488 -0.52684 1.4175 1.9533 2083.4 -0.0075362 1393.8 0.21380
-125.62 14741. undefined -98.850 44.295 -0.51719 710.00 0.0014085 -98.850 44.295 -0.51719 1.4196 1.9539 2085.7 -0.0075334 1379.5 0.21416 710.00 0.0014085 -98.850 44.295 -0.51719 1.4196 1.9539 2085.7 -0.0075334 1379.5 0.21416
-124.62 15089. undefined -97.429 49.094 -0.50760 710.00 0.0014085 -97.429 49.094 -0.50760 1.4217 1.9545 2087.9 -0.0075305 1365.5 0.21453 710.00 0.0014085 -97.429 49.094 -0.50760 1.4217 1.9545 2087.9 -0.0075305 1365.5 0.21453
-123.62 15435. undefined -96.007 53.884 -0.49805 710.00 0.0014085 -96.007 53.884 -0.49805 1.4238 1.9551 2090.2 -0.0075276 1351.8 0.21489 710.00 0.0014085 -96.007 53.884 -0.49805 1.4238 1.9551 2090.2 -0.0075276 1351.8 0.21489
-122.62 15781. undefined -94.582 58.666 -0.48855 710.00 0.0014085 -94.582 58.666 -0.48855 1.4259 1.9558 2092.4 -0.0075247 1338.6 0.21526 710.00 0.0014085 -94.582 58.666 -0.48855 1.4259 1.9558 2092.4 -0.0075247 1338.6 0.21526
-121.62 16126. undefined -93.155 63.440 -0.47910 710.00 0.0014085 -93.155 63.440 -0.47910 1.4280 1.9564 2094.6 -0.0075217 1325.6 0.21562 710.00 0.0014085 -93.155 63.440 -0.47910 1.4280 1.9564 2094.6 -0.0075217 1325.6 0.21562
-120.62 16469. undefined -91.726 68.206 -0.46970 710.00 0.0014085 -91.726 68.206 -0.46970 1.4301 1.9571 2096.7 -0.0075186 1313.0 0.21599 710.00 0.0014085 -91.726 68.206 -0.46970 1.4301 1.9571 2096.7 -0.0075186 1313.0 0.21599
-119.62 16812. undefined -90.295 72.963 -0.46035 710.00 0.0014085 -90.295 72.963 -0.46035 1.4322 1.9578 2098.9 -0.0075155 1300.6 0.21635 710.00 0.0014085 -90.295 72.963 -0.46035 1.4322 1.9578 2098.9 -0.0075155 1300.6 0.21635
-118.62 17153. undefined -88.861 77.713 -0.45105 710.00 0.0014085 -88.861 77.713 -0.45105 1.4343 1.9585 2101.0 -0.0075123 1288.6 0.21672 710.00 0.0014085 -88.861 77.713 -0.45105 1.4343 1.9585 2101.0 -0.0075123 1288.6 0.21672
-117.62 17494. undefined -87.426 82.455 -0.44179 710.00 0.0014085 -87.426 82.455 -0.44179 1.4365 1.9592 2103.2 -0.0075091 1276.9 0.21709 710.00 0.0014085 -87.426 82.455 -0.44179 1.4365 1.9592 2103.2 -0.0075091 1276.9 0.21709
-116.62 17833. undefined -85.988 87.190 -0.43257 710.00 0.0014085 -85.988 87.190 -0.43257 1.4386 1.9600 2105.3 -0.0075058 1265.4 0.21745 710.00 0.0014085 -85.988 87.190 -0.43257 1.4386 1.9600 2105.3 -0.0075058 1265.4 0.21745
-115.62 18172. undefined -84.549 91.916 -0.42340 710.00 0.0014085 -84.549 91.916 -0.42340 1.4408 1.9607 2107.4 -0.0075025 1254.2 0.21782 710.00 0.0014085 -84.549 91.916 -0.42340 1.4408 1.9607 2107.4 -0.0075025 1254.2 0.21782
-114.62 18509. undefined -83.107 96.635 -0.41428 710.00 0.0014085 -83.107 96.635 -0.41428 1.4429 1.9615 2109.4 -0.0074991 1243.3 0.21819 710.00 0.0014085 -83.107 96.635 -0.41428 1.4429 1.9615 2109.4 -0.0074991 1243.3 0.21819
-113.62 18846. undefined -81.663 101.35 -0.40520 710.00 0.0014085 -81.663 101.35 -0.40520 1.4451 1.9623 2111.5 -0.0074957 1232.6 0.21856 710.00 0.0014085 -81.663 101.35 -0.40520 1.4451 1.9623 2111.5 -0.0074957 1232.6 0.21856
-112.62 19181. undefined -80.217 106.05 -0.39616 710.00 0.0014085 -80.217 106.05 -0.39616 1.4473 1.9631 2113.6 -0.0074922 1222.2 0.21892 710.00 0.0014085 -80.217 106.05 -0.39616 1.4473 1.9631 2113.6 -0.0074922 1222.2 0.21892
-111.62 19516. undefined -78.768 110.75 -0.38717 710.00 0.0014085 -78.768 110.75 -0.38717 1.4495 1.9639 2115.6 -0.0074886 1212.0 0.21929 710.00 0.0014085 -78.768 110.75 -0.38717 1.4495 1.9639 2115.6 -0.0074886 1212.0 0.21929
-110.62 19849. undefined -77.318 115.44 -0.37821 710.00 0.0014085 -77.318 115.44 -0.37821 1.4517 1.9648 2117.6 -0.0074849 1202.0 0.21966 710.00 0.0014085 -77.318 115.44 -0.37821 1.4517 1.9648 2117.6 -0.0074849 1202.0 0.21966
-109.62 20182. undefined -75.865 120.12 -0.36930 710.00 0.0014085 -75.865 120.12 -0.36930 1.4539 1.9657 2119.6 -0.0074812 1192.3 0.22003 710.00 0.0014085 -75.865 120.12 -0.36930 1.4539 1.9657 2119.6 -0.0074812 1192.3 0.22003
-108.62 20513. undefined -74.410 124.79 -0.36043 710.00 0.0014085 -74.410 124.79 -0.36043 1.4561 1.9665 2121.6 -0.0074775 1182.7 0.22040 710.00 0.0014085 -74.410 124.79 -0.36043 1.4561 1.9665 2121.6 -0.0074775 1182.7 0.22040
-107.62 20844. undefined -72.953 129.46 -0.35160 710.00 0.0014085 -72.953 129.46 -0.35160 1.4583 1.9675 2123.6 -0.0074737 1173.4 0.22077 710.00 0.0014085 -72.953 129.46 -0.35160 1.4583 1.9675 2123.6 -0.0074737 1173.4 0.22077
-106.62 21174. undefined -71.494 134.12 -0.34281 710.00 0.0014085 -71.494 134.12 -0.34281 1.4605 1.9684 2125.5 -0.0074698 1164.3 0.22114 710.00 0.0014085 -71.494 134.12 -0.34281 1.4605 1.9684 2125.5 -0.0074698 1164.3 0.22114
-105.62 21503. undefined -70.032 138.78 -0.33406 710.00 0.0014085 -70.032 138.78 -0.33406 1.4628 1.9693 2127.5 -0.0074658 1155.3 0.22151 710.00 0.0014085 -70.032 138.78 -0.33406 1.4628 1.9693 2127.5 -0.0074658 1155.3 0.22151
-104.62 21831. undefined -68.568 143.43 -0.32535 710.00 0.0014085 -68.568 143.43 -0.32535 1.4650 1.9703 2129.4 -0.0074618 1146.6 0.22188 710.00 0.0014085 -68.568 143.43 -0.32535 1.4650 1.9703 2129.4 -0.0074618 1146.6 0.22188
-103.62 22157. undefined -67.102 148.07 -0.31668 710.00 0.0014085 -67.102 148.07 -0.31668 1.4673 1.9713 2131.3 -0.0074577 1138.0 0.22225 710.00 0.0014085 -67.102 148.07 -0.31668 1.4673 1.9713 2131.3 -0.0074577 1138.0 0.22225
-102.62 22483. undefined -65.633 152.70 -0.30804 710.00 0.0014085 -65.633 152.70 -0.30804 1.4696 1.9723 2133.2 -0.0074536 1129.6 0.22262 710.00 0.0014085 -65.633 152.70 -0.30804 1.4696 1.9723 2133.2 -0.0074536 1129.6 0.22262
-101.62 22809. undefined -64.163 157.33 -0.29944 710.00 0.0014085 -64.163 157.33 -0.29944 1.4719 1.9733 2135.1 -0.0074493 1121.4 0.22299 710.00 0.0014085 -64.163 157.33 -0.29944 1.4719 1.9733 2135.1 -0.0074493 1121.4 0.22299
-100.62 23133. undefined -62.690 161.95 -0.29088 710.00 0.0014085 -62.690 161.95 -0.29088 1.4742 1.9743 2136.9 -0.0074451 1113.4 0.22337 710.00 0.0014085 -62.690 161.95 -0.29088 1.4742 1.9743 2136.9 -0.0074451 1113.4 0.22337
-99.625 23456. undefined -61.214 166.57 -0.28235 710.00 0.0014085 -61.214 166.57 -0.28235 1.4765 1.9754 2138.8 -0.0074407 1105.5 0.22374 710.00 0.0014085 -61.214 166.57 -0.28235 1.4765 1.9754 2138.8 -0.0074407 1105.5 0.22374
-98.625 23779. undefined -59.737 171.17 -0.27386 710.00 0.0014085 -59.737 171.17 -0.27386 1.4788 1.9765 2140.6 -0.0074363 1097.7 0.22411 710.00 0.0014085 -59.737 171.17 -0.27386 1.4788 1.9765 2140.6 -0.0074363 1097.7 0.22411
-97.625 24100. undefined -58.257 175.78 -0.26540 710.00 0.0014085 -58.257 175.78 -0.26540 1.4812 1.9776 2142.5 -0.0074318 1090.1 0.22448 710.00 0.0014085 -58.257 175.78 -0.26540 1.4812 1.9776 2142.5 -0.0074318 1090.1 0.22448
-96.625 24421. undefined -56.774 180.37 -0.25698 710.00 0.0014085 -56.774 180.37 -0.25698 1.4835 1.9787 2144.3 -0.0074272 1082.7 0.22485 710.00 0.0014085 -56.774 180.37 -0.25698 1.4835 1.9787 2144.3 -0.0074272 1082.7 0.22485
-95.625 24740. undefined -55.290 184.96 -0.24859 710.00 0.0014085 -55.290 184.96 -0.24859 1.4859 1.9798 2146.1 -0.0074226 1075.4 0.22523 710.00 0.0014085 -55.290 184.96 -0.24859 1.4859 1.9798 2146.1 -0.0074226 1075.4 0.22523
-94.625 25059. undefined -53.803 189.55 -0.24024 710.00 0.0014085 -53.803 189.55 -0.24024 1.4883 1.9810 2147.9 -0.0074179 1068.3 0.22560 710.00 0.0014085 -53.803 189.55 -0.24024 1.4883 1.9810 2147.9 -0.0074179 1068.3 0.22560
-93.625 25377. undefined -52.313 194.13 -0.23192 710.00 0.0014085 -52.313 194.13 -0.23192 1.4907 1.9822 2149.6 -0.0074131 1061.3 0.22597 710.00 0.0014085 -52.313 194.13 -0.23192 1.4907 1.9822 2149.6 -0.0074131 1061.3 0.22597
-92.625 25695. undefined -50.821 198.70 -0.22363 710.00 0.0014085 -50.821 198.70 -0.22363 1.4931 1.9834 2151.4 -0.0074082 1054.4 0.22635 710.00 0.0014085 -50.821 198.70 -0.22363 1.4931 1.9834 2151.4 -0.0074082 1054.4 0.22635
-91.625 26011. undefined -49.327 203.26 -0.21538 710.00 0.0014085 -49.327 203.26 -0.21538 1.4955 1.9846 2153.1 -0.0074033 1047.6 0.22672 710.00 0.0014085 -49.327 203.26 -0.21538 1.4955 1.9846 2153.1 -0.0074033 1047.6 0.22672
-90.625 26327. undefined -47.830 207.83 -0.20716 710.00 0.0014085 -47.830 207.83 -0.20716 1.4979 1.9859 2154.9 -0.0073983 1041.0 0.22710 710.00 0.0014085 -47.830 207.83 -0.20716 1.4979 1.9859 2154.9 -0.0073983 1041.0 0.22710
-89.625 26641. undefined -46.331 212.38 -0.19897 710.00 0.0014085 -46.331 212.38 -0.19897 1.5004 1.9872 2156.6 -0.0073932 1034.5 0.22747 710.00 0.0014085 -46.331 212.38 -0.19897 1.5004 1.9872 2156.6 -0.0073932 1034.5 0.22747
-88.625 26955. undefined -44.830 216.93 -0.19081 710.00 0.0014085 -44.830 216.93 -0.19081 1.5028 1.9885 2158.3 -0.0073881 1028.1 0.22785 710.00 0.0014085 -44.830 216.93 -0.19081 1.5028 1.9885 2158.3 -0.0073881 1028.1 0.22785
-87.625 27268. undefined -43.325 221.47 -0.18268 710.00 0.0014085 -43.325 221.47 -0.18268 1.5053 1.9898 2160.0 -0.0073829 1021.9 0.22822 710.00 0.0014085 -43.325 221.47 -0.18268 1.5053 1.9898 2160.0 -0.0073829 1021.9 0.22822
-86.625 27580. undefined -41.819 226.01 -0.17458 710.00 0.0014085 -41.819 226.01 -0.17458 1.5078 1.9911 2161.7 -0.0073776 1015.7 0.22860 710.00 0.0014085 -41.819 226.01 -0.17458 1.5078 1.9911 2161.7 -0.0073776 1015.7 0.22860
-85.625 27892. undefined -40.310 230.55 -0.16651 710.00 0.0014085 -40.310 230.55 -0.16651 1.5103 1.9925 2163.4 -0.0073722 1009.7 0.22898 710.00 0.0014085 -40.310 230.55 -0.16651 1.5103 1.9925 2163.4 -0.0073722 1009.7 0.22898
-84.625 28202. undefined -38.798 235.07 -0.15847 710.00 0.0014085 -38.798 235.07 -0.15847 1.5128 1.9939 2165.0 -0.0073668 1003.7 0.22935 710.00 0.0014085 -38.798 235.07 -0.15847 1.5128 1.9939 2165.0 -0.0073668 1003.7 0.22935
-83.625 28512. undefined -37.284 239.60 -0.15046 710.00 0.0014085 -37.284 239.60 -0.15046 1.5154 1.9953 2166.7 -0.0073613 997.91 0.22973 710.00 0.0014085 -37.284 239.60 -0.15046 1.5154 1.9953 2166.7 -0.0073613 997.91 0.22973
-82.625 28821. undefined -35.767 244.11 -0.14248 710.00 0.0014085 -35.767 244.11 -0.14248 1.5179 1.9967 2168.3 -0.0073557 992.18 0.23011 710.00 0.0014085 -35.767 244.11 -0.14248 1.5179 1.9967 2168.3 -0.0073557 992.18 0.23011
-81.625 29129. undefined -34.248 248.63 -0.13453 710.00 0.0014085 -34.248 248.63 -0.13453 1.5205 1.9982 2169.9 -0.0073500 986.56 0.23048 710.00 0.0014085 -34.248 248.63 -0.13453 1.5205 1.9982 2169.9 -0.0073500 986.56 0.23048
-80.625 29437. undefined -32.726 253.13 -0.12660 710.00 0.0014085 -32.726 253.13 -0.12660 1.5231 1.9996 2171.5 -0.0073443 981.03 0.23086 710.00 0.0014085 -32.726 253.13 -0.12660 1.5231 1.9996 2171.5 -0.0073443 981.03 0.23086
-79.625 29744. undefined -31.202 257.64 -0.11870 710.00 0.0014085 -31.202 257.64 -0.11870 1.5257 2.0011 2173.2 -0.0073385 975.59 0.23124 710.00 0.0014085 -31.202 257.64 -0.11870 1.5257 2.0011 2173.2 -0.0073385 975.59 0.23124
-78.625 30049. undefined -29.675 262.13 -0.11083 710.00 0.0014085 -29.675 262.13 -0.11083 1.5283 2.0027 2174.7 -0.0073326 970.25 0.23162 710.00 0.0014085 -29.675 262.13 -0.11083 1.5283 2.0027 2174.7 -0.0073326 970.25 0.23162
-77.625 30355. undefined -28.145 266.63 -0.10299 710.00 0.0014085 -28.145 266.63 -0.10299 1.5309 2.0042 2176.3 -0.0073267 965.00 0.23199 710.00 0.0014085 -28.145 266.63 -0.10299 1.5309 2.0042 2176.3 -0.0073267 965.00 0.23199
-76.625 30659. undefined -26.613 271.11 -0.095174 710.00 0.0014085 -26.613 271.11 -0.095174 1.5336 2.0058 2177.9 -0.0073207 959.83 0.23237 710.00 0.0014085 -26.613 271.11 -0.095174 1.5336 2.0058 2177.9 -0.0073207 959.83 0.23237
-75.625 30963. undefined -25.078 275.60 -0.087383 710.00 0.0014085 -25.078 275.60 -0.087383 1.5363 2.0074 2179.5 -0.0073146 954.75 0.23275 710.00 0.0014085 -25.078 275.60 -0.087383 1.5363 2.0074 2179.5 -0.0073146 954.75 0.23275
-74.625 31265. undefined -23.541 280.08 -0.079619 710.00 0.0014085 -23.541 280.08 -0.079619 1.5389 2.0090 2181.0 -0.0073084 949.76 0.23313 710.00 0.0014085 -23.541 280.08 -0.079619 1.5389 2.0090 2181.0 -0.0073084 949.76 0.23313
-73.625 31567. undefined -22.000 284.55 -0.071879 710.00 0.0014085 -22.000 284.55 -0.071879 1.5416 2.0106 2182.6 -0.0073022 944.85 0.23351 710.00 0.0014085 -22.000 284.55 -0.071879 1.5416 2.0106 2182.6 -0.0073022 944.85 0.23351
-72.625 31869. undefined -20.457 289.02 -0.064165 710.00 0.0014085 -20.457 289.02 -0.064165 1.5444 2.0123 2184.1 -0.0072959 940.01 0.23389 710.00 0.0014085 -20.457 289.02 -0.064165 1.5444 2.0123 2184.1 -0.0072959 940.01 0.23389
-71.625 32169. undefined -18.912 293.48 -0.056476 710.00 0.0014085 -18.912 293.48 -0.056476 1.5471 2.0140 2185.6 -0.0072895 935.26 0.23427 710.00 0.0014085 -18.912 293.48 -0.056476 1.5471 2.0140 2185.6 -0.0072895 935.26 0.23427
-70.625 32469. undefined -17.363 297.94 -0.048811 710.00 0.0014085 -17.363 297.94 -0.048811 1.5498 2.0157 2187.1 -0.0072830 930.58 0.23465 710.00 0.0014085 -17.363 297.94 -0.048811 1.5498 2.0157 2187.1 -0.0072830 930.58 0.23465
-69.625 32768. undefined -15.812 302.40 -0.041171 710.00 0.0014085 -15.812 302.40 -0.041171 1.5526 2.0174 2188.6 -0.0072765 925.98 0.23503 710.00 0.0014085 -15.812 302.40 -0.041171 1.5526 2.0174 2188.6 -0.0072765 925.98 0.23503
-68.625 33067. undefined -14.258 306.85 -0.033554 710.00 0.0014085 -14.258 306.85 -0.033554 1.5554 2.0191 2190.1 -0.0072699 921.45 0.23541 710.00 0.0014085 -14.258 306.85 -0.033554 1.5554 2.0191 2190.1 -0.0072699 921.45 0.23541
-67.625 33365. undefined -12.701 311.30 -0.025961 710.00 0.0014085 -12.701 311.30 -0.025961 1.5582 2.0209 2191.6 -0.0072632 917.00 0.23579 710.00 0.0014085 -12.701 311.30 -0.025961 1.5582 2.0209 2191.6 -0.0072632 917.00 0.23579
-66.625 33662. undefined -11.142 315.74 -0.018391 710.00 0.0014085 -11.142 315.74 -0.018391 1.5610 2.0227 2193.0 -0.0072565 912.61 0.23618 710.00 0.0014085 -11.142 315.74 -0.018391 1.5610 2.0227 2193.0 -0.0072565 912.61 0.23618
-65.625 33958. undefined -9.5792 320.18 -0.010844 710.00 0.0014085 -9.5792 320.18 -0.010844 1.5638 2.0245 2194.5 -0.0072497 908.29 0.23656 710.00 0.0014085 -9.5792 320.18 -0.010844 1.5638 2.0245 2194.5 -0.0072497 908.29 0.23656
-64.625 34253. undefined -8.0139 324.62 -0.0033198 710.00 0.0014085 -8.0139 324.62 -0.0033198 1.5667 2.0264 2196.0 -0.0072428 904.04 0.23694 710.00 0.0014085 -8.0139 324.62 -0.0033198 1.5667 2.0264 2196.0 -0.0072428 904.04 0.23694
-63.625 34548. undefined -6.4458 329.05 0.0041822 710.00 0.0014085 -6.4458 329.05 0.0041822 1.5695 2.0283 2197.4 -0.0072359 899.85 0.23732 710.00 0.0014085 -6.4458 329.05 0.0041822 1.5695 2.0283 2197.4 -0.0072359 899.85 0.23732
-62.625 34843. undefined -4.8749 333.48 0.011662 710.00 0.0014085 -4.8749 333.48 0.011662 1.5724 2.0301 2198.8 -0.0072289 895.73 0.23771 710.00 0.0014085 -4.8749 333.48 0.011662 1.5724 2.0301 2198.8 -0.0072289 895.73 0.23771
-61.625 35136. undefined -3.3010 337.90 0.019120 710.00 0.0014085 -3.3010 337.90 0.019120 1.5753 2.0321 2200.3 -0.0072218 891.67 0.23809 710.00 0.0014085 -3.3010 337.90 0.019120 1.5753 2.0321 2200.3 -0.0072218 891.67 0.23809
-60.625 35429. undefined -1.7242 342.32 0.026557 710.00 0.0014085 -1.7242 342.32 0.026557 1.5782 2.0340 2201.7 -0.0072146 887.68 0.23847 710.00 0.0014085 -1.7242 342.32 0.026557 1.5782 2.0340 2201.7 -0.0072146 887.68 0.23847
-59.625 35721. undefined -0.14451 346.74 0.033973 710.00 0.0014085 -0.14451 346.74 0.033973 1.5812 2.0360 2203.1 -0.0072074 883.74 0.23886 710.00 0.0014085 -0.14451 346.74 0.033973 1.5812 2.0360 2203.1 -0.0072074 883.74 0.23886
-58.625 36012. undefined 1.4381 351.15 0.041367 710.00 0.0014085 1.4381 351.15 0.041367 1.5841 2.0379 2204.5 -0.0072001 879.86 0.23924 710.00 0.0014085 1.4381 351.15 0.041367 1.5841 2.0379 2204.5 -0.0072001 879.86 0.23924
-57.625 36303. undefined 3.0237 355.56 0.048741 710.00 0.0014085 3.0237 355.56 0.048741 1.5871 2.0399 2205.9 -0.0071928 876.04 0.23962 710.00 0.0014085 3.0237 355.56 0.048741 1.5871 2.0399 2205.9 -0.0071928 876.04 0.23962
-56.625 36593. undefined 4.6123 359.97 0.056095 710.00 0.0014085 4.6123 359.97 0.056095 1.5901 2.0420 2207.3 -0.0071854 872.27 0.24001 710.00 0.0014085 4.6123 359.97 0.056095 1.5901 2.0420 2207.3 -0.0071854 872.27 0.24001
-55.625 36883. undefined 6.2038 364.37 0.063429 710.00 0.0014085 6.2038 364.37 0.063429 1.5931 2.0440 2208.6 -0.0071779 868.57 0.24039 710.00 0.0014085 6.2038 364.37 0.063429 1.5931 2.0440 2208.6 -0.0071779 868.57 0.24039
-54.625 37171. undefined 7.7984 368.77 0.070742 710.00 0.0014085 7.7984 368.77 0.070742 1.5961 2.0461 2210.0 -0.0071704 864.91 0.24078 710.00 0.0014085 7.7984 368.77 0.070742 1.5961 2.0461 2210.0 -0.0071704 864.91 0.24078
-53.625 37460. undefined 9.3960 373.16 0.078036 710.00 0.0014085 9.3960 373.16 0.078036 1.5991 2.0482 2211.3 -0.0071628 861.31 0.24116 710.00 0.0014085 9.3960 373.16 0.078036 1.5991 2.0482 2211.3 -0.0071628 861.31 0.24116
-52.625 37747. undefined 10.997 377.56 0.085311 710.00 0.0014085 10.997 377.56 0.085311 1.6022 2.0503 2212.7 -0.0071551 857.76 0.24155 710.00 0.0014085 10.997 377.56 0.085311 1.6022 2.0503 2212.7 -0.0071551 857.76 0.24155
-51.625 38034. undefined 12.600 381.94 0.092567 710.00 0.0014085 12.600 381.94 0.092567 1.6052 2.0525 2214.0 -0.0071474 854.26 0.24194 710.00 0.0014085 12.600 381.94 0.092567 1.6052 2.0525 2214.0 -0.0071474 854.26 0.24194
-50.625 38320. undefined 14.207 386.33 0.099804 710.00 0.0014085 14.207 386.33 0.099804 1.6083 2.0546 2215.4 -0.0071396 850.81 0.24232 710.00 0.0014085 14.207 386.33 0.099804 1.6083 2.0546 2215.4 -0.0071396 850.81 0.24232
-49.625 38606. undefined 15.817 390.71 0.10702 710.00 0.0014085 15.817 390.71 0.10702 1.6114 2.0568 2216.7 -0.0071317 847.41 0.24271 710.00 0.0014085 15.817 390.71 0.10702 1.6114 2.0568 2216.7 -0.0071317 847.41 0.24271
-48.625 38890. undefined 17.430 395.09 0.11422 710.00 0.0014085 17.430 395.09 0.11422 1.6145 2.0590 2218.0 -0.0071238 844.06 0.24309 710.00 0.0014085 17.430 395.09 0.11422 1.6145 2.0590 2218.0 -0.0071238 844.06 0.24309
-47.625 39175. undefined 19.046 399.47 0.12140 710.00 0.0014085 19.046 399.47 0.12140 1.6176 2.0612 2219.3 -0.0071159 840.76 0.24348 710.00 0.0014085 19.046 399.47 0.12140 1.6176 2.0612 2219.3 -0.0071159 840.76 0.24348
-46.625 39458. undefined 20.665 403.84 0.12857 710.00 0.0014085 20.665 403.84 0.12857 1.6208 2.0635 2220.6 -0.0071079 837.50 0.24387 710.00 0.0014085 20.665 403.84 0.12857 1.6208 2.0635 2220.6 -0.0071079 837.50 0.24387
-45.625 39741. undefined 22.288 408.21 0.13571 710.00 0.0014085 22.288 408.21 0.13571 1.6240 2.0658 2221.9 -0.0070998 834.29 0.24426 710.00 0.0014085 22.288 408.21 0.13571 1.6240 2.0658 2221.9 -0.0070998 834.29 0.24426
-44.625 40024. undefined 23.913 412.58 0.14284 710.00 0.0014085 23.913 412.58 0.14284 1.6271 2.0681 2223.2 -0.0070916 831.12 0.24465 710.00 0.0014085 23.913 412.58 0.14284 1.6271 2.0681 2223.2 -0.0070916 831.12 0.24465
-43.625 40306. undefined 25.542 416.95 0.14995 710.00 0.0014085 25.542 416.95 0.14995 1.6303 2.0704 2224.5 -0.0070834 827.99 0.24503 710.00 0.0014085 25.542 416.95 0.14995 1.6303 2.0704 2224.5 -0.0070834 827.99 0.24503
-42.625 40587. undefined 27.174 421.31 0.15705 710.00 0.0014085 27.174 421.31 0.15705 1.6335 2.0727 2225.8 -0.0070752 824.91 0.24542 710.00 0.0014085 27.174 421.31 0.15705 1.6335 2.0727 2225.8 -0.0070752 824.91 0.24542
-41.625 40867. undefined 28.809 425.67 0.16413 710.00 0.0014085 28.809 425.67 0.16413 1.6368 2.0751 2227.1 -0.0070669 821.87 0.24581 710.00 0.0014085 28.809 425.67 0.16413 1.6368 2.0751 2227.1 -0.0070669 821.87 0.24581
-40.625 41147. undefined 30.447 430.02 0.17119 710.00 0.0014085 30.447 430.02 0.17119 1.6400 2.0775 2228.3 -0.0070585 818.87 0.24620 710.00 0.0014085 30.447 430.02 0.17119 1.6400 2.0775 2228.3 -0.0070585 818.87 0.24620
-39.625 41427. undefined 32.089 434.38 0.17823 710.00 0.0014085 32.089 434.38 0.17823 1.6433 2.0799 2229.6 -0.0070501 815.91 0.24659 710.00 0.0014085 32.089 434.38 0.17823 1.6433 2.0799 2229.6 -0.0070501 815.91 0.24659
-38.625 41705. undefined 33.734 438.73 0.18526 710.00 0.0014085 33.734 438.73 0.18526 1.6465 2.0823 2230.8 -0.0070417 813.00 0.24698 710.00 0.0014085 33.734 438.73 0.18526 1.6465 2.0823 2230.8 -0.0070417 813.00 0.24698
-37.625 41983. undefined 35.382 443.08 0.19227 710.00 0.0014085 35.382 443.08 0.19227 1.6498 2.0847 2232.1 -0.0070332 810.12 0.24737 710.00 0.0014085 35.382 443.08 0.19227 1.6498 2.0847 2232.1 -0.0070332 810.12 0.24737
-36.625 42261. undefined 37.033 447.43 0.19927 710.00 0.0014085 37.033 447.43 0.19927 1.6531 2.0872 2233.3 -0.0070246 807.27 0.24776 710.00 0.0014085 37.033 447.43 0.19927 1.6531 2.0872 2233.3 -0.0070246 807.27 0.24776
-35.625 42538. undefined 38.688 451.77 0.20625 710.00 0.0014085 38.688 451.77 0.20625 1.6564 2.0897 2234.5 -0.0070160 804.47 0.24815 710.00 0.0014085 38.688 451.77 0.20625 1.6564 2.0897 2234.5 -0.0070160 804.47 0.24815
-34.625 42814. undefined 40.346 456.11 0.21322 710.00 0.0014085 40.346 456.11 0.21322 1.6598 2.0922 2235.8 -0.0070074 801.70 0.24854 710.00 0.0014085 40.346 456.11 0.21322 1.6598 2.0922 2235.8 -0.0070074 801.70 0.24854
-33.625 43090. undefined 42.008 460.45 0.22017 710.00 0.0014085 42.008 460.45 0.22017 1.6631 2.0947 2237.0 -0.0069987 798.97 0.24893 710.00 0.0014085 42.008 460.45 0.22017 1.6631 2.0947 2237.0 -0.0069987 798.97 0.24893
-32.625 43365. undefined 43.673 464.79 0.22711 710.00 0.0014085 43.673 464.79 0.22711 1.6665 2.0973 2238.2 -0.0069899 796.28 0.24932 710.00 0.0014085 43.673 464.79 0.22711 1.6665 2.0973 2238.2 -0.0069899 796.28 0.24932
-31.625 43640. undefined 45.341 469.13 0.23403 710.00 0.0014085 45.341 469.13 0.23403 1.6699 2.0998 2239.4 -0.0069811 793.62 0.24972 710.00 0.0014085 45.341 469.13 0.23403 1.6699 2.0998 2239.4 -0.0069811 793.62 0.24972
-30.625 43914. undefined 47.012 473.46 0.24093 710.00 0.0014085 47.012 473.46 0.24093 1.6733 2.1024 2240.6 -0.0069723 790.99 0.25011 710.00 0.0014085 47.012 473.46 0.24093 1.6733 2.1024 2240.6 -0.0069723 790.99 0.25011
-29.625 44188. undefined 48.687 477.79 0.24783 710.00 0.0014085 48.687 477.79 0.24783 1.6767 2.1050 2241.8 -0.0069634 788.40 0.25050 710.00 0.0014085 48.687 477.79 0.24783 1.6767 2.1050 2241.8 -0.0069634 788.40 0.25050
-28.625 44461. undefined 50.366 482.12 0.25470 710.00 0.0014085 50.366 482.12 0.25470 1.6801 2.1076 2243.0 -0.0069545 785.84 0.25089 710.00 0.0014085 50.366 482.12 0.25470 1.6801 2.1076 2243.0 -0.0069545 785.84 0.25089
-27.625 44733. undefined 52.048 486.45 0.26157 710.00 0.0014085 52.048 486.45 0.26157 1.6835 2.1103 2244.2 -0.0069455 783.31 0.25129 710.00 0.0014085 52.048 486.45 0.26157 1.6835 2.1103 2244.2 -0.0069455 783.31 0.25129
-26.625 45005. undefined 53.733 490.77 0.26842 710.00 0.0014085 53.733 490.77 0.26842 1.6870 2.1129 2245.4 -0.0069365 780.82 0.25168 710.00 0.0014085 53.733 490.77 0.26842 1.6870 2.1129 2245.4 -0.0069365 780.82 0.25168
-25.625 45276. undefined 55.422 495.10 0.27525 710.00 0.0014085 55.422 495.10 0.27525 1.6904 2.1156 2246.6 -0.0069275 778.35 0.25207 710.00 0.0014085 55.422 495.10 0.27525 1.6904 2.1156 2246.6 -0.0069275 778.35 0.25207
-24.625 45547. undefined 57.114 499.42 0.28208 710.00 0.0014085 57.114 499.42 0.28208 1.6939 2.1183 2247.7 -0.0069184 775.92 0.25247 710.00 0.0014085 57.114 499.42 0.28208 1.6939 2.1183 2247.7 -0.0069184 775.92 0.25247
-23.625 45817. undefined 58.809 503.74 0.28889 710.00 0.0014085 58.809 503.74 0.28889 1.6974 2.1210 2248.9 -0.0069093 773.52 0.25286 710.00 0.0014085 58.809 503.74 0.28889 1.6974 2.1210 2248.9 -0.0069093 773.52 0.25286
-22.625 46087. undefined 60.509 508.05 0.29568 710.00 0.0014085 60.509 508.05 0.29568 1.7009 2.1238 2250.1 -0.0069001 771.15 0.25326 710.00 0.0014085 60.509 508.05 0.29568 1.7009 2.1238 2250.1 -0.0069001 771.15 0.25326
-21.625 46356. undefined 62.211 512.37 0.30246 710.00 0.0014085 62.211 512.37 0.30246 1.7044 2.1265 2251.2 -0.0068909 768.80 0.25365 710.00 0.0014085 62.211 512.37 0.30246 1.7044 2.1265 2251.2 -0.0068909 768.80 0.25365
-20.625 46625. undefined 63.917 516.69 0.30923 710.00 0.0014085 63.917 516.69 0.30923 1.7080 2.1293 2252.4 -0.0068817 766.49 0.25405 710.00 0.0014085 63.917 516.69 0.30923 1.7080 2.1293 2252.4 -0.0068817 766.49 0.25405
-19.625 46893. undefined 65.627 521.00 0.31599 710.00 0.0014085 65.627 521.00 0.31599 1.7115 2.1321 2253.5 -0.0068724 764.20 0.25444 710.00 0.0014085 65.627 521.00 0.31599 1.7115 2.1321 2253.5 -0.0068724 764.20 0.25444
-18.625 47160. undefined 67.340 525.31 0.32274 710.00 0.0014085 67.340 525.31 0.32274 1.7151 2.1349 2254.7 -0.0068631 761.94 0.25484 710.00 0.0014085 67.340 525.31 0.32274 1.7151 2.1349 2254.7 -0.0068631 761.94 0.25484
-17.625 47427. undefined 69.057 529.62 0.32947 710.00 0.0014085 69.057 529.62 0.32947 1.7186 2.1377 2255.8 -0.0068538 759.71 0.25523 710.00 0.0014085 69.057 529.62 0.32947 1.7186 2.1377 2255.8 -0.0068538 759.71 0.25523
-16.625 47694. undefined 70.778 533.93 0.33619 710.00 0.0014085 70.778 533.93 0.33619 1.7222 2.1406 2256.9 -0.0068445 757.51 0.25563 710.00 0.0014085 70.778 533.93 0.33619 1.7222 2.1406 2256.9 -0.0068445 757.51 0.25563
-15.625 47960. undefined 72.502 538.23 0.34290 710.00 0.0014085 72.502 538.23 0.34290 1.7258 2.1434 2258.1 -0.0068351 755.33 0.25603 710.00 0.0014085 72.502 538.23 0.34290 1.7258 2.1434 2258.1 -0.0068351 755.33 0.25603
-14.625 48225. undefined 74.229 542.54 0.34959 710.00 0.0014085 74.229 542.54 0.34959 1.7294 2.1463 2259.2 -0.0068256 753.18 0.25642 710.00 0.0014085 74.229 542.54 0.34959 1.7294 2.1463 2259.2 -0.0068256 753.18 0.25642
-13.625 48490. undefined 75.961 546.84 0.35627 710.00 0.0014085 75.961 546.84 0.35627 1.7331 2.1492 2260.3 -0.0068162 751.06 0.25682 710.00 0.0014085 75.961 546.84 0.35627 1.7331 2.1492 2260.3 -0.0068162 751.06 0.25682
-12.625 48754. undefined 77.696 551.15 0.36295 710.00 0.0014085 77.696 551.15 0.36295 1.7367 2.1521 2261.4 -0.0068067 748.96 0.25722 710.00 0.0014085 77.696 551.15 0.36295 1.7367 2.1521 2261.4 -0.0068067 748.96 0.25722
-11.625 49018. undefined 79.434 555.45 0.36961 710.00 0.0014085 79.434 555.45 0.36961 1.7403 2.1551 2262.5 -0.0067972 746.88 0.25761 710.00 0.0014085 79.434 555.45 0.36961 1.7403 2.1551 2262.5 -0.0067972 746.88 0.25761
-10.625 49282. undefined 81.176 559.75 0.37626 710.00 0.0014085 81.176 559.75 0.37626 1.7440 2.1580 2263.7 -0.0067877 744.83 0.25801 710.00 0.0014085 81.176 559.75 0.37626 1.7440 2.1580 2263.7 -0.0067877 744.83 0.25801
-9.6250 49545. undefined 82.922 564.05 0.38289 710.00 0.0014085 82.922 564.05 0.38289 1.7477 2.1610 2264.8 -0.0067781 742.80 0.25841 710.00 0.0014085 82.922 564.05 0.38289 1.7477 2.1610 2264.8 -0.0067781 742.80 0.25841
-8.6250 49807. undefined 84.672 568.34 0.38952 710.00 0.0014085 84.672 568.34 0.38952 1.7513 2.1639 2265.9 -0.0067686 740.80 0.25881 710.00 0.0014085 84.672 568.34 0.38952 1.7513 2.1639 2265.9 -0.0067686 740.80 0.25881
-7.6250 50069. undefined 86.425 572.64 0.39614 710.00 0.0014085 86.425 572.64 0.39614 1.7550 2.1669 2267.0 -0.0067590 738.82 0.25921 710.00 0.0014085 86.425 572.64 0.39614 1.7550 2.1669 2267.0 -0.0067590 738.82 0.25921
-6.6250 50330. undefined 88.182 576.94 0.40274 710.00 0.0014085 88.182 576.94 0.40274 1.7587 2.1699 2268.0 -0.0067493 736.87 0.25961 710.00 0.0014085 88.182 576.94 0.40274 1.7587 2.1699 2268.0 -0.0067493 736.87 0.25961
-5.6250 50591. undefined 89.942 581.23 0.40933 710.00 0.0014085 89.942 581.23 0.40933 1.7624 2.1730 2269.1 -0.0067397 734.93 0.26001 710.00 0.0014085 89.942 581.23 0.40933 1.7624 2.1730 2269.1 -0.0067397 734.93 0.26001
-4.6250 50852. undefined 91.706 585.52 0.41592 710.00 0.0014085 91.706 585.52 0.41592 1.7662 2.1760 2270.2 -0.0067300 733.02 0.26041 710.00 0.0014085 91.706 585.52 0.41592 1.7662 2.1760 2270.2 -0.0067300 733.02 0.26041
-3.6250 51112. undefined 93.475 589.82 0.42249 710.00 0.0014085 93.475 589.82 0.42249 1.7699 2.1791 2271.3 -0.0067203 731.13 0.26081 710.00 0.0014085 93.475 589.82 0.42249 1.7699 2.1791 2271.3 -0.0067203 731.13 0.26081
-2.6250 51371. undefined 95.246 594.11 0.42905 710.00 0.0014085 95.246 594.11 0.42905 1.7737 2.1821 2272.4 -0.0067106 729.26 0.26121 710.00 0.0014085 95.246 594.11 0.42905 1.7737 2.1821 2272.4 -0.0067106 729.26 0.26121
-1.6250 51630. undefined 97.022 598.40 0.43560 710.00 0.0014085 97.022 598.40 0.43560 1.7774 2.1852 2273.5 -0.0067009 727.41 0.26161 710.00 0.0014085 97.022 598.40 0.43560 1.7774 2.1852 2273.5 -0.0067009 727.41 0.26161
-0.62500 51889. undefined 98.801 602.69 0.44214 710.00 0.0014085 98.801 602.69 0.44214 1.7812 2.1883 2274.5 -0.0066912 725.59 0.26201 710.00 0.0014085 98.801 602.69 0.44214 1.7812 2.1883 2274.5 -0.0066912 725.59 0.26201
0.37500 52147. undefined 100.58 606.98 0.44867 710.00 0.0014085 100.58 606.98 0.44867 1.7850 2.1914 2275.6 -0.0066814 723.78 0.26241 710.00 0.0014085 100.58 606.98 0.44867 1.7850 2.1914 2275.6 -0.0066814 723.78 0.26241
1.3750 52404. undefined 102.37 611.27 0.45519 710.00 0.0014085 102.37 611.27 0.45519 1.7888 2.1946 2276.7 -0.0066716 722.00 0.26281 710.00 0.0014085 102.37 611.27 0.45519 1.7888 2.1946 2276.7 -0.0066716 722.00 0.26281
2.3750 52661. undefined 104.16 615.55 0.46170 710.00 0.0014085 104.16 615.55 0.46170 1.7925 2.1977 2277.7 -0.0066618 720.23 0.26321 710.00 0.0014085 104.16 615.55 0.46170 1.7925 2.1977 2277.7 -0.0066618 720.23 0.26321
3.3750 52918. undefined 105.96 619.84 0.46820 710.00 0.0014085 105.96 619.84 0.46820 1.7964 2.2009 2278.8 -0.0066520 718.49 0.26361 710.00 0.0014085 105.96 619.84 0.46820 1.7964 2.2009 2278.8 -0.0066520 718.49 0.26361
4.3750 53174. undefined 107.75 624.13 0.47470 710.00 0.0014085 107.75 624.13 0.47470 1.8002 2.2040 2279.8 -0.0066422 716.76 0.26402 710.00 0.0014085 107.75 624.13 0.47470 1.8002 2.2040 2279.8 -0.0066422 716.76 0.26402
5.3750 53430. undefined 109.56 628.41 0.48118 710.00 0.0014085 109.56 628.41 0.48118 1.8040 2.2072 2280.9 -0.0066324 715.05 0.26442 710.00 0.0014085 109.56 628.41 0.48118 1.8040 2.2072 2280.9 -0.0066324 715.05 0.26442
6.3750 53685. undefined 111.36 632.70 0.48765 710.00 0.0014085 111.36 632.70 0.48765 1.8078 2.2104 2281.9 -0.0066225 713.36 0.26482 710.00 0.0014085 111.36 632.70 0.48765 1.8078 2.2104 2281.9 -0.0066225 713.36 0.26482
7.3750 53940. undefined 113.17 636.98 0.49411 710.00 0.0014085 113.17 636.98 0.49411 1.8117 2.2136 2283.0 -0.0066127 711.69 0.26523 710.00 0.0014085 113.17 636.98 0.49411 1.8117 2.2136 2283.0 -0.0066127 711.69 0.26523
8.3750 54194. undefined 114.99 641.26 0.50057 710.00 0.0014085 114.99 641.26 0.50057 1.8155 2.2168 2284.0 -0.0066028 710.04 0.26563 710.00 0.0014085 114.99 641.26 0.50057 1.8155 2.2168 2284.0 -0.0066028 710.04 0.26563
9.3750 54448. undefined 116.80 645.55 0.50701 710.00 0.0014085 116.80 645.55 0.50701 1.8194 2.2201 2285.1 -0.0065929 708.41 0.26603 710.00 0.0014085 116.80 645.55 0.50701 1.8194 2.2201 2285.1 -0.0065929 708.41 0.26603
10.375 54702. undefined 118.62 649.83 0.51345 710.00 0.0014085 118.62 649.83 0.51345 1.8233 2.2233 2286.1 -0.0065830 706.79 0.26644 710.00 0.0014085 118.62 649.83 0.51345 1.8233 2.2233 2286.1 -0.0065830 706.79 0.26644
11.375 54955. undefined 120.45 654.11 0.51987 710.00 0.0014085 120.45 654.11 0.51987 1.8272 2.2266 2287.1 -0.0065731 705.19 0.26684 710.00 0.0014085 120.45 654.11 0.51987 1.8272 2.2266 2287.1 -0.0065731 705.19 0.26684
12.375 55207. undefined 122.28 658.39 0.52629 710.00 0.0014085 122.28 658.39 0.52629 1.8311 2.2298 2288.2 -0.0065632 703.61 0.26725 710.00 0.0014085 122.28 658.39 0.52629 1.8311 2.2298 2288.2 -0.0065632 703.61 0.26725
13.375 55459. undefined 124.11 662.67 0.53270 710.00 0.0014085 124.11 662.67 0.53270 1.8350 2.2331 2289.2 -0.0065533 702.05 0.26765 710.00 0.0014085 124.11 662.67 0.53270 1.8350 2.2331 2289.2 -0.0065533 702.05 0.26765
14.375 55711. undefined 125.95 666.96 0.53910 710.00 0.0014085 125.95 666.96 0.53910 1.8389 2.2364 2290.2 -0.0065434 700.50 0.26806 710.00 0.0014085 125.95 666.96 0.53910 1.8389 2.2364 2290.2 -0.0065434 700.50 0.26806
15.375 55962. undefined 127.79 671.24 0.54549 710.00 0.0014085 127.79 671.24 0.54549 1.8428 2.2397 2291.3 -0.0065335 698.97 0.26846 710.00 0.0014085 127.79 671.24 0.54549 1.8428 2.2397 2291.3 -0.0065335 698.97 0.26846
16.375 56213. undefined 129.63 675.52 0.55187 710.00 0.0014085 129.63 675.52 0.55187 1.8467 2.2431 2292.3 -0.0065236 697.46 0.26887 710.00 0.0014085 129.63 675.52 0.55187 1.8467 2.2431 2292.3 -0.0065236 697.46 0.26887
17.375 56464. undefined 131.48 679.80 0.55825 710.00 0.0014085 131.48 679.80 0.55825 1.8506 2.2464 2293.3 -0.0065136 695.96 0.26927 710.00 0.0014085 131.48 679.80 0.55825 1.8506 2.2464 2293.3 -0.0065136 695.96 0.26927
18.375 56714. undefined 133.34 684.08 0.56461 710.00 0.0014085 133.34 684.08 0.56461 1.8546 2.2497 2294.3 -0.0065037 694.47 0.26968 710.00 0.0014085 133.34 684.08 0.56461 1.8546 2.2497 2294.3 -0.0065037 694.47 0.26968
19.375 56963. undefined 135.19 688.36 0.57097 710.00 0.0014085 135.19 688.36 0.57097 1.8585 2.2531 2295.3 -0.0064938 693.01 0.27009 710.00 0.0014085 135.19 688.36 0.57097 1.8585 2.2531 2295.3 -0.0064938 693.01 0.27009
20.375 57212. undefined 137.05 692.64 0.57732 710.00 0.0014085 137.05 692.64 0.57732 1.8625 2.2565 2296.3 -0.0064838 691.55 0.27049 710.00 0.0014085 137.05 692.64 0.57732 1.8625 2.2565 2296.3 -0.0064838 691.55 0.27049
21.375 57461. undefined 138.92 696.92 0.58366 710.00 0.0014085 138.92 696.92 0.58366 1.8664 2.2598 2297.3 -0.0064739 690.12 0.27090 710.00 0.0014085 138.92 696.92 0.58366 1.8664 2.2598 2297.3 -0.0064739 690.12 0.27090
22.375 57709. undefined 140.79 701.19 0.58999 710.00 0.0014085 140.79 701.19 0.58999 1.8704 2.2632 2298.3 -0.0064639 688.69 0.27131 710.00 0.0014085 140.79 701.19 0.58999 1.8704 2.2632 2298.3 -0.0064639 688.69 0.27131
23.375 57957. undefined 142.66 705.47 0.59632 710.00 0.0014085 142.66 705.47 0.59632 1.8744 2.2666 2299.3 -0.0064540 687.29 0.27172 710.00 0.0014085 142.66 705.47 0.59632 1.8744 2.2666 2299.3 -0.0064540 687.29 0.27172
24.375 58204. undefined 144.53 709.75 0.60263 710.00 0.0014085 144.53 709.75 0.60263 1.8784 2.2700 2300.3 -0.0064440 685.89 0.27213 710.00 0.0014085 144.53 709.75 0.60263 1.8784 2.2700 2300.3 -0.0064440 685.89 0.27213
25.375 58451. undefined 146.41 714.03 0.60894 710.00 0.0014085 146.41 714.03 0.60894 1.8823 2.2734 2301.3 -0.0064341 684.52 0.27253 710.00 0.0014085 146.41 714.03 0.60894 1.8823 2.2734 2301.3 -0.0064341 684.52 0.27253
26.375 58698. undefined 148.30 718.31 0.61525 710.00 0.0014085 148.30 718.31 0.61525 1.8863 2.2769 2302.3 -0.0064242 683.15 0.27294 710.00 0.0014085 148.30 718.31 0.61525 1.8863 2.2769 2302.3 -0.0064242 683.15 0.27294
27.375 58944. undefined 150.19 722.59 0.62154 710.00 0.0014085 150.19 722.59 0.62154 1.8903 2.2803 2303.3 -0.0064142 681.80 0.27335 710.00 0.0014085 150.19 722.59 0.62154 1.8903 2.2803 2303.3 -0.0064142 681.80 0.27335
28.375 59190. undefined 152.08 726.87 0.62783 710.00 0.0014085 152.08 726.87 0.62783 1.8943 2.2837 2304.3 -0.0064043 680.46 0.27376 710.00 0.0014085 152.08 726.87 0.62783 1.8943 2.2837 2304.3 -0.0064043 680.46 0.27376
29.375 59435. undefined 153.98 731.15 0.63410 710.00 0.0014085 153.98 731.15 0.63410 1.8984 2.2872 2305.3 -0.0063943 679.14 0.27417 710.00 0.0014085 153.98 731.15 0.63410 1.8984 2.2872 2305.3 -0.0063943 679.14 0.27417
30.375 59680. undefined 155.88 735.43 0.64038 710.00 0.0014085 155.88 735.43 0.64038 1.9024 2.2907 2306.3 -0.0063844 677.83 0.27458 710.00 0.0014085 155.88 735.43 0.64038 1.9024 2.2907 2306.3 -0.0063844 677.83 0.27458
31.375 59925. undefined 157.78 739.71 0.64664 710.00 0.0014085 157.78 739.71 0.64664 1.9064 2.2941 2307.3 -0.0063745 676.53 0.27499 710.00 0.0014085 157.78 739.71 0.64664 1.9064 2.2941 2307.3 -0.0063745 676.53 0.27499
32.375 60169. undefined 159.69 743.99 0.65290 710.00 0.0014085 159.69 743.99 0.65290 1.9104 2.2976 2308.3 -0.0063646 675.25 0.27540 710.00 0.0014085 159.69 743.99 0.65290 1.9104 2.2976 2308.3 -0.0063646 675.25 0.27540
33.375 60413. undefined 161.60 748.27 0.65915 710.00 0.0014085 161.60 748.27 0.65915 1.9145 2.3011 2309.3 -0.0063546 673.98 0.27581 710.00 0.0014085 161.60 748.27 0.65915 1.9145 2.3011 2309.3 -0.0063546 673.98 0.27581
34.375 60656. undefined 163.52 752.55 0.66539 710.00 0.0014085 163.52 752.55 0.66539 1.9185 2.3046 2310.2 -0.0063447 672.72 0.27622 710.00 0.0014085 163.52 752.55 0.66539 1.9185 2.3046 2310.2 -0.0063447 672.72 0.27622
35.375 60899. undefined 165.44 756.83 0.67162 710.00 0.0014085 165.44 756.83 0.67162 1.9226 2.3081 2311.2 -0.0063348 671.47 0.27663 710.00 0.0014085 165.44 756.83 0.67162 1.9226 2.3081 2311.2 -0.0063348 671.47 0.27663
36.375 61142. undefined 167.36 761.11 0.67785 710.00 0.0014085 167.36 761.11 0.67785 1.9266 2.3116 2312.2 -0.0063249 670.24 0.27705 710.00 0.0014085 167.36 761.11 0.67785 1.9266 2.3116 2312.2 -0.0063249 670.24 0.27705
37.375 61384. undefined 169.29 765.39 0.68407 710.00 0.0014085 169.29 765.39 0.68407 1.9307 2.3152 2313.2 -0.0063150 669.02 0.27746 710.00 0.0014085 169.29 765.39 0.68407 1.9307 2.3152 2313.2 -0.0063150 669.02 0.27746
38.375 61626. undefined 171.22 769.67 0.69029 710.00 0.0014085 171.22 769.67 0.69029 1.9348 2.3187 2314.1 -0.0063052 667.81 0.27787 710.00 0.0014085 171.22 769.67 0.69029 1.9348 2.3187 2314.1 -0.0063052 667.81 0.27787
39.375 61868. undefined 173.16 773.95 0.69649 710.00 0.0014085 173.16 773.95 0.69649 1.9388 2.3222 2315.1 -0.0062953 666.61 0.27828 710.00 0.0014085 173.16 773.95 0.69649 1.9388 2.3222 2315.1 -0.0062953 666.61 0.27828
40.375 62109. undefined 175.10 778.24 0.70269 710.00 0.0014085 175.10 778.24 0.70269 1.9429 2.3258 2316.1 -0.0062854 665.43 0.27870 710.00 0.0014085 175.10 778.24 0.70269 1.9429 2.3258 2316.1 -0.0062854 665.43 0.27870
41.375 62349. undefined 177.05 782.52 0.70889 710.00 0.0014085 177.05 782.52 0.70889 1.9470 2.3294 2317.0 -0.0062756 664.25 0.27911 710.00 0.0014085 177.05 782.52 0.70889 1.9470 2.3294 2317.0 -0.0062756 664.25 0.27911
42.375 62590. undefined 179.00 786.80 0.71507 710.00 0.0014085 179.00 786.80 0.71507 1.9511 2.3329 2318.0 -0.0062657 663.09 0.27952 710.00 0.0014085 179.00 786.80 0.71507 1.9511 2.3329 2318.0 -0.0062657 663.09 0.27952
43.375 62830. undefined 180.95 791.08 0.72125 710.00 0.0014085 180.95 791.08 0.72125 1.9551 2.3365 2319.0 -0.0062559 661.94 0.27994 710.00 0.0014085 180.95 791.08 0.72125 1.9551 2.3365 2319.0 -0.0062559 661.94 0.27994
44.375 63069. undefined 182.91 795.37 0.72743 710.00 0.0014085 182.91 795.37 0.72743 1.9592 2.3401 2319.9 -0.0062461 660.80 0.28035 710.00 0.0014085 182.91 795.37 0.72743 1.9592 2.3401 2319.9 -0.0062461 660.80 0.28035
45.375 63309. undefined 184.87 799.65 0.73360 710.00 0.0014085 184.87 799.65 0.73360 1.9633 2.3437 2320.9 -0.0062362 659.67 0.28076 710.00 0.0014085 184.87 799.65 0.73360 1.9633 2.3437 2320.9 -0.0062362 659.67 0.28076
46.375 63547. undefined 186.83 803.94 0.73976 710.00 0.0014085 186.83 803.94 0.73976 1.9674 2.3473 2321.8 -0.0062264 658.55 0.28118 710.00 0.0014085 186.83 803.94 0.73976 1.9674 2.3473 2321.8 -0.0062264 658.55 0.28118
47.375 63786. undefined 188.80 808.22 0.74591 710.00 0.0014085 188.80 808.22 0.74591 1.9715 2.3509 2322.8 -0.0062166 657.44 0.28159 710.00 0.0014085 188.80 808.22 0.74591 1.9715 2.3509 2322.8 -0.0062166 657.44 0.28159
48.375 64024. undefined 190.78 812.51 0.75206 710.00 0.0014085 190.78 812.51 0.75206 1.9757 2.3545 2323.7 -0.0062069 656.35 0.28201 710.00 0.0014085 190.78 812.51 0.75206 1.9757 2.3545 2323.7 -0.0062069 656.35 0.28201
49.375 64262. undefined 192.75 816.79 0.75820 710.00 0.0014085 192.75 816.79 0.75820 1.9798 2.3581 2324.7 -0.0061971 655.26 0.28243 710.00 0.0014085 192.75 816.79 0.75820 1.9798 2.3581 2324.7 -0.0061971 655.26 0.28243
50.375 64499. undefined 194.74 821.08 0.76433 710.00 0.0014085 194.74 821.08 0.76433 1.9839 2.3617 2325.6 -0.0061873 654.18 0.28284 710.00 0.0014085 194.74 821.08 0.76433 1.9839 2.3617 2325.6 -0.0061873 654.18 0.28284
51.375 64736. undefined 196.72 825.37 0.77046 710.00 0.0014085 196.72 825.37 0.77046 1.9880 2.3653 2326.6 -0.0061776 653.12 0.28326 710.00 0.0014085 196.72 825.37 0.77046 1.9880 2.3653 2326.6 -0.0061776 653.12 0.28326
52.375 64973. undefined 198.71 829.66 0.77659 710.00 0.0014085 198.71 829.66 0.77659 1.9921 2.3689 2327.5 -0.0061679 652.06 0.28367 710.00 0.0014085 198.71 829.66 0.77659 1.9921 2.3689 2327.5 -0.0061679 652.06 0.28367
53.375 65209. undefined 200.71 833.95 0.78270 710.00 0.0014085 200.71 833.95 0.78270 1.9962 2.3726 2328.5 -0.0061582 651.01 0.28409 710.00 0.0014085 200.71 833.95 0.78270 1.9962 2.3726 2328.5 -0.0061582 651.01 0.28409
54.375 65445. undefined 202.70 838.24 0.78881 710.00 0.0014085 202.70 838.24 0.78881 2.0004 2.3762 2329.4 -0.0061485 649.98 0.28451 710.00 0.0014085 202.70 838.24 0.78881 2.0004 2.3762 2329.4 -0.0061485 649.98 0.28451
55.375 65681. undefined 204.71 842.53 0.79492 710.00 0.0014085 204.71 842.53 0.79492 2.0045 2.3799 2330.4 -0.0061388 648.95 0.28492 710.00 0.0014085 204.71 842.53 0.79492 2.0045 2.3799 2330.4 -0.0061388 648.95 0.28492
56.375 65916. undefined 206.71 846.82 0.80102 710.00 0.0014085 206.71 846.82 0.80102 2.0086 2.3835 2331.3 -0.0061291 647.93 0.28534 710.00 0.0014085 206.71 846.82 0.80102 2.0086 2.3835 2331.3 -0.0061291 647.93 0.28534
57.375 66151. undefined 208.72 851.11 0.80711 710.00 0.0014085 208.72 851.11 0.80711 2.0128 2.3872 2332.2 -0.0061195 646.92 0.28576 710.00 0.0014085 208.72 851.11 0.80711 2.0128 2.3872 2332.2 -0.0061195 646.92 0.28576
58.375 66385. undefined 210.74 855.40 0.81320 710.00 0.0014085 210.74 855.40 0.81320 2.0169 2.3909 2333.2 -0.0061098 645.93 0.28618 710.00 0.0014085 210.74 855.40 0.81320 2.0169 2.3909 2333.2 -0.0061098 645.93 0.28618
59.375 66619. undefined 212.76 859.69 0.81928 710.00 0.0014085 212.76 859.69 0.81928 2.0211 2.3945 2334.1 -0.0061002 644.94 0.28660 710.00 0.0014085 212.76 859.69 0.81928 2.0211 2.3945 2334.1 -0.0061002 644.94 0.28660
60.375 66853. undefined 214.78 863.99 0.82535 710.00 0.0014085 214.78 863.99 0.82535 2.0252 2.3982 2335.0 -0.0060906 643.96 0.28701 710.00 0.0014085 214.78 863.99 0.82535 2.0252 2.3982 2335.0 -0.0060906 643.96 0.28701
61.375 67087. undefined 216.81 868.28 0.83142 710.00 0.0014085 216.81 868.28 0.83142 2.0294 2.4019 2336.0 -0.0060810 642.98 0.28743 710.00 0.0014085 216.81 868.28 0.83142 2.0294 2.4019 2336.0 -0.0060810 642.98 0.28743
62.375 67320. undefined 218.84 872.58 0.83748 710.00 0.0014085 218.84 872.58 0.83748 2.0335 2.4056 2336.9 -0.0060714 642.02 0.28785 710.00 0.0014085 218.84 872.58 0.83748 2.0335 2.4056 2336.9 -0.0060714 642.02 0.28785
63.375 67553. undefined 220.88 876.88 0.84354 710.00 0.0014085 220.88 876.88 0.84354 2.0377 2.4093 2337.8 -0.0060619 641.07 0.28827 710.00 0.0014085 220.88 876.88 0.84354 2.0377 2.4093 2337.8 -0.0060619 641.07 0.28827
64.375 67785. undefined 222.92 881.17 0.84959 710.00 0.0014085 222.92 881.17 0.84959 2.0418 2.4130 2338.8 -0.0060523 640.12 0.28869 710.00 0.0014085 222.92 881.17 0.84959 2.0418 2.4130 2338.8 -0.0060523 640.12 0.28869
65.375 68017. undefined 224.96 885.47 0.85564 710.00 0.0014085 224.96 885.47 0.85564 2.0460 2.4167 2339.7 -0.0060428 639.19 0.28911 710.00 0.0014085 224.96 885.47 0.85564 2.0460 2.4167 2339.7 -0.0060428 639.19 0.28911
66.375 68249. undefined 227.01 889.77 0.86168 710.00 0.0014085 227.01 889.77 0.86168 2.0501 2.4204 2340.6 -0.0060333 638.26 0.28953 710.00 0.0014085 227.01 889.77 0.86168 2.0501 2.4204 2340.6 -0.0060333 638.26 0.28953
67.375 68481. undefined 229.06 894.07 0.86772 710.00 0.0014085 229.06 894.07 0.86772 2.0543 2.4241 2341.5 -0.0060238 637.34 0.28995 710.00 0.0014085 229.06 894.07 0.86772 2.0543 2.4241 2341.5 -0.0060238 637.34 0.28995
68.375 68712. undefined 231.12 898.37 0.87375 710.00 0.0014085 231.12 898.37 0.87375 2.0585 2.4278 2342.4 -0.0060144 636.43 0.29037 710.00 0.0014085 231.12 898.37 0.87375 2.0585 2.4278 2342.4 -0.0060144 636.43 0.29037
69.375 68943. undefined 233.18 902.67 0.87977 710.00 0.0014085 233.18 902.67 0.87977 2.0626 2.4315 2343.4 -0.0060049 635.52 0.29080 710.00 0.0014085 233.18 902.67 0.87977 2.0626 2.4315 2343.4 -0.0060049 635.52 0.29080
70.375 69173. undefined 235.24 906.98 0.88579 710.00 0.0014085 235.24 906.98 0.88579 2.0668 2.4352 2344.3 -0.0059955 634.63 0.29122 710.00 0.0014085 235.24 906.98 0.88579 2.0668 2.4352 2344.3 -0.0059955 634.63 0.29122
71.375 69403. undefined 237.31 911.28 0.89180 710.00 0.0014085 237.31 911.28 0.89180 2.0710 2.4389 2345.2 -0.0059861 633.74 0.29164 710.00 0.0014085 237.31 911.28 0.89180 2.0710 2.4389 2345.2 -0.0059861 633.74 0.29164
72.375 69633. undefined 239.38 915.58 0.89781 710.00 0.0014085 239.38 915.58 0.89781 2.0751 2.4427 2346.1 -0.0059767 632.86 0.29206 710.00 0.0014085 239.38 915.58 0.89781 2.0751 2.4427 2346.1 -0.0059767 632.86 0.29206
73.375 69863. undefined 241.46 919.89 0.90382 710.00 0.0014085 241.46 919.89 0.90382 2.0793 2.4464 2347.0 -0.0059674 631.99 0.29248 710.00 0.0014085 241.46 919.89 0.90382 2.0793 2.4464 2347.0 -0.0059674 631.99 0.29248
74.375 70092. undefined 243.54 924.20 0.90981 710.00 0.0014085 243.54 924.20 0.90981 2.0835 2.4501 2347.9 -0.0059580 631.12 0.29291 710.00 0.0014085 243.54 924.20 0.90981 2.0835 2.4501 2347.9 -0.0059580 631.12 0.29291
75.375 70321. undefined 245.63 928.51 0.91581 710.00 0.0014085 245.63 928.51 0.91581 2.0876 2.4539 2348.9 -0.0059487 630.27 0.29333 710.00 0.0014085 245.63 928.51 0.91581 2.0876 2.4539 2348.9 -0.0059487 630.27 0.29333
76.375 70549. undefined 247.72 932.81 0.92179 710.00 0.0014085 247.72 932.81 0.92179 2.0918 2.4576 2349.8 -0.0059394 629.42 0.29375 710.00 0.0014085 247.72 932.81 0.92179 2.0918 2.4576 2349.8 -0.0059394 629.42 0.29375
77.375 70777. undefined 249.81 937.12 0.92778 710.00 0.0014085 249.81 937.12 0.92778 2.0960 2.4613 2350.7 -0.0059301 628.58 0.29418 710.00 0.0014085 249.81 937.12 0.92778 2.0960 2.4613 2350.7 -0.0059301 628.58 0.29418
78.375 71005. undefined 251.91 941.44 0.93375 710.00 0.0014085 251.91 941.44 0.93375 2.1001 2.4651 2351.6 -0.0059209 627.74 0.29460 710.00 0.0014085 251.91 941.44 0.93375 2.1001 2.4651 2351.6 -0.0059209 627.74 0.29460
79.375 71233. undefined 254.01 945.75 0.93972 710.00 0.0014085 254.01 945.75 0.93972 2.1043 2.4688 2352.5 -0.0059116 626.92 0.29503 710.00 0.0014085 254.01 945.75 0.93972 2.1043 2.4688 2352.5 -0.0059116 626.92 0.29503
80.375 71460. undefined 256.12 950.06 0.94569 710.00 0.0014085 256.12 950.06 0.94569 2.1085 2.4726 2353.4 -0.0059024 626.10 0.29545 710.00 0.0014085 256.12 950.06 0.94569 2.1085 2.4726 2353.4 -0.0059024 626.10 0.29545
81.375 71687. undefined 258.23 954.38 0.95165 710.00 0.0014085 258.23 954.38 0.95165 2.1127 2.4763 2354.3 -0.0058932 625.28 0.29588 710.00 0.0014085 258.23 954.38 0.95165 2.1127 2.4763 2354.3 -0.0058932 625.28 0.29588
82.375 71914. undefined 260.34 958.69 0.95761 710.00 0.0014085 260.34 958.69 0.95761 2.1168 2.4801 2355.2 -0.0058840 624.48 0.29630 710.00 0.0014085 260.34 958.69 0.95761 2.1168 2.4801 2355.2 -0.0058840 624.48 0.29630
83.375 72140. undefined 262.46 963.01 0.96356 710.00 0.0014085 262.46 963.01 0.96356 2.1210 2.4838 2356.1 -0.0058749 623.68 0.29673 710.00 0.0014085 262.46 963.01 0.96356 2.1210 2.4838 2356.1 -0.0058749 623.68 0.29673
84.375 72366. undefined 264.58 967.33 0.96951 710.00 0.0014085 264.58 967.33 0.96951 2.1252 2.4876 2357.0 -0.0058657 622.89 0.29715 710.00 0.0014085 264.58 967.33 0.96951 2.1252 2.4876 2357.0 -0.0058657 622.89 0.29715
85.375 72592. undefined 266.71 971.65 0.97545 710.00 0.0014085 266.71 971.65 0.97545 2.1294 2.4914 2357.9 -0.0058566 622.10 0.29758 710.00 0.0014085 266.71 971.65 0.97545 2.1294 2.4914 2357.9 -0.0058566 622.10 0.29758
86.375 72817. undefined 268.84 975.97 0.98139 710.00 0.0014085 268.84 975.97 0.98139 2.1336 2.4951 2358.8 -0.0058476 621.32 0.29800 710.00 0.0014085 268.84 975.97 0.98139 2.1336 2.4951 2358.8 -0.0058476 621.32 0.29800
87.375 73042. undefined 270.98 980.29 0.98732 710.00 0.0014085 270.98 980.29 0.98732 2.1377 2.4989 2359.7 -0.0058385 620.55 0.29843 710.00 0.0014085 270.98 980.29 0.98732 2.1377 2.4989 2359.7 -0.0058385 620.55 0.29843
88.375 73267. undefined 273.12 984.61 0.99325 710.00 0.0014085 273.12 984.61 0.99325 2.1419 2.5027 2360.6 -0.0058295 619.79 0.29886 710.00 0.0014085 273.12 984.61 0.99325 2.1419 2.5027 2360.6 -0.0058295 619.79 0.29886
89.375 73492. undefined 275.26 988.93 0.99917 710.00 0.0014085 275.26 988.93 0.99917 2.1461 2.5064 2361.5 -0.0058204 619.03 0.29928 710.00 0.0014085 275.26 988.93 0.99917 2.1461 2.5064 2361.5 -0.0058204 619.03 0.29928
90.375 73716. undefined 277.41 993.26 1.0051 710.00 0.0014085 277.41 993.26 1.0051 2.1503 2.5102 2362.4 -0.0058114 618.28 0.29971 710.00 0.0014085 277.41 993.26 1.0051 2.1503 2.5102 2362.4 -0.0058114 618.28 0.29971
91.375 73940. undefined 279.56 997.59 1.0110 710.00 0.0014085 279.56 997.59 1.0110 2.1544 2.5140 2363.3 -0.0058025 617.53 0.30014 710.00 0.0014085 279.56 997.59 1.0110 2.1544 2.5140 2363.3 -0.0058025 617.53 0.30014
92.375 74163. undefined 281.72 1001.9 1.0169 710.00 0.0014085 281.72 1001.9 1.0169 2.1586 2.5177 2364.2 -0.0057935 616.79 0.30057 710.00 0.0014085 281.72 1001.9 1.0169 2.1586 2.5177 2364.2 -0.0057935 616.79 0.30057
93.375 74387. undefined 283.88 1006.2 1.0228 710.00 0.0014085 283.88 1006.2 1.0228 2.1628 2.5215 2365.1 -0.0057846 616.06 0.30100 710.00 0.0014085 283.88 1006.2 1.0228 2.1628 2.5215 2365.1 -0.0057846 616.06 0.30100
94.375 74610. undefined 286.05 1010.6 1.0287 710.00 0.0014085 286.05 1010.6 1.0287 2.1669 2.5253 2366.0 -0.0057757 615.33 0.30142 710.00 0.0014085 286.05 1010.6 1.0287 2.1669 2.5253 2366.0 -0.0057757 615.33 0.30142
95.375 74832. undefined 288.21 1014.9 1.0346 710.00 0.0014085 288.21 1014.9 1.0346 2.1711 2.5291 2366.9 -0.0057668 614.61 0.30185 710.00 0.0014085 288.21 1014.9 1.0346 2.1711 2.5291 2366.9 -0.0057668 614.61 0.30185
96.375 75055. undefined 290.39 1019.2 1.0405 710.00 0.0014085 290.39 1019.2 1.0405 2.1753 2.5328 2367.8 -0.0057580 613.89 0.30228 710.00 0.0014085 290.39 1019.2 1.0405 2.1753 2.5328 2367.8 -0.0057580 613.89 0.30228
97.375 75277. undefined 292.57 1023.6 1.0464 710.00 0.0014085 292.57 1023.6 1.0464 2.1795 2.5366 2368.6 -0.0057492 613.18 0.30271 710.00 0.0014085 292.57 1023.6 1.0464 2.1795 2.5366 2368.6 -0.0057492 613.18 0.30271
98.375 75499. undefined 294.75 1027.9 1.0523 710.00 0.0014085 294.75 1027.9 1.0523 2.1836 2.5404 2369.5 -0.0057404 612.48 0.30314 710.00 0.0014085 294.75 1027.9 1.0523 2.1836 2.5404 2369.5 -0.0057404 612.48 0.30314
99.375 75720. undefined 296.93 1032.2 1.0581 710.00 0.0014085 296.93 1032.2 1.0581 2.1878 2.5442 2370.4 -0.0057316 611.78 0.30357 710.00 0.0014085 296.93 1032.2 1.0581 2.1878 2.5442 2370.4 -0.0057316 611.78 0.30357
100.38 75941. undefined 299.12 1036.6 1.0640 710.00 0.0014085 299.12 1036.6 1.0640 2.1920 2.5480 2371.3 -0.0057228 611.09 0.30400 710.00 0.0014085 299.12 1036.6 1.0640 2.1920 2.5480 2371.3 -0.0057228 611.09 0.30400
101.38 76162. undefined 301.32 1040.9 1.0699 710.00 0.0014085 301.32 1040.9 1.0699 2.1961 2.5518 2372.2 -0.0057141 610.40 0.30443 710.00 0.0014085 301.32 1040.9 1.0699 2.1961 2.5518 2372.2 -0.0057141 610.40 0.30443
102.38 76383. undefined 303.51 1045.3 1.0757 710.00 0.0014085 303.51 1045.3 1.0757 2.2003 2.5555 2373.1 -0.0057054 609.72 0.30486 710.00 0.0014085 303.51 1045.3 1.0757 2.2003 2.5555 2373.1 -0.0057054 609.72 0.30486
103.38 76603. undefined 305.72 1049.6 1.0816 710.00 0.0014085 305.72 1049.6 1.0816 2.2045 2.5593 2373.9 -0.0056967 609.05 0.30530 710.00 0.0014085 305.72 1049.6 1.0816 2.2045 2.5593 2373.9 -0.0056967 609.05 0.30530
104.38 76824. undefined 307.92 1054.0 1.0874 710.00 0.0014085 307.92 1054.0 1.0874 2.2086 2.5631 2374.8 -0.0056881 608.38 0.30573 710.00 0.0014085 307.92 1054.0 1.0874 2.2086 2.5631 2374.8 -0.0056881 608.38 0.30573
105.38 77043. undefined 310.13 1058.3 1.0933 710.00 0.0014085 310.13 1058.3 1.0933 2.2128 2.5669 2375.7 -0.0056794 607.72 0.30616 710.00 0.0014085 310.13 1058.3 1.0933 2.2128 2.5669 2375.7 -0.0056794 607.72 0.30616
106.38 77263. undefined 312.35 1062.6 1.0991 710.00 0.0014085 312.35 1062.6 1.0991 2.2169 2.5707 2376.6 -0.0056708 607.06 0.30659 710.00 0.0014085 312.35 1062.6 1.0991 2.2169 2.5707 2376.6 -0.0056708 607.06 0.30659
107.38 77482. undefined 314.57 1067.0 1.1050 710.00 0.0014085 314.57 1067.0 1.1050 2.2211 2.5745 2377.5 -0.0056622 606.40 0.30702 710.00 0.0014085 314.57 1067.0 1.1050 2.2211 2.5745 2377.5 -0.0056622 606.40 0.30702
108.38 77701. undefined 316.79 1071.3 1.1108 710.00 0.0014085 316.79 1071.3 1.1108 2.2253 2.5782 2378.3 -0.0056537 605.75 0.30746 710.00 0.0014085 316.79 1071.3 1.1108 2.2253 2.5782 2378.3 -0.0056537 605.75 0.30746
109.38 77920. undefined 319.02 1075.7 1.1166 710.00 0.0014085 319.02 1075.7 1.1166 2.2294 2.5820 2379.2 -0.0056452 605.11 0.30789 710.00 0.0014085 319.02 1075.7 1.1166 2.2294 2.5820 2379.2 -0.0056452 605.11 0.30789
110.38 78138. undefined 321.25 1080.0 1.1225 710.00 0.0014085 321.25 1080.0 1.1225 2.2336 2.5858 2380.1 -0.0056367 604.47 0.30832 710.00 0.0014085 321.25 1080.0 1.1225 2.2336 2.5858 2380.1 -0.0056367 604.47 0.30832
111.38 78357. undefined 323.49 1084.4 1.1283 710.00 0.0014085 323.49 1084.4 1.1283 2.2377 2.5896 2381.0 -0.0056282 603.84 0.30876 710.00 0.0014085 323.49 1084.4 1.1283 2.2377 2.5896 2381.0 -0.0056282 603.84 0.30876
112.38 78574. undefined 325.73 1088.8 1.1341 710.00 0.0014085 325.73 1088.8 1.1341 2.2419 2.5934 2381.8 -0.0056197 603.21 0.30919 710.00 0.0014085 325.73 1088.8 1.1341 2.2419 2.5934 2381.8 -0.0056197 603.21 0.30919
113.38 78792. undefined 327.97 1093.1 1.1399 710.00 0.0014085 327.97 1093.1 1.1399 2.2460 2.5972 2382.7 -0.0056113 602.59 0.30962 710.00 0.0014085 327.97 1093.1 1.1399 2.2460 2.5972 2382.7 -0.0056113 602.59 0.30962
114.38 79009. undefined 330.22 1097.5 1.1457 710.00 0.0014085 330.22 1097.5 1.1457 2.2502 2.6009 2383.6 -0.0056029 601.97 0.31006 710.00 0.0014085 330.22 1097.5 1.1457 2.2502 2.6009 2383.6 -0.0056029 601.97 0.31006
115.38 79226. undefined 332.47 1101.8 1.1515 710.00 0.0014085 332.47 1101.8 1.1515 2.2543 2.6047 2384.4 -0.0055945 601.36 0.31049 710.00 0.0014085 332.47 1101.8 1.1515 2.2543 2.6047 2384.4 -0.0055945 601.36 0.31049
116.38 79443. undefined 334.73 1106.2 1.1573 710.00 0.0014085 334.73 1106.2 1.1573 2.2584 2.6085 2385.3 -0.0055862 600.75 0.31093 710.00 0.0014085 334.73 1106.2 1.1573 2.2584 2.6085 2385.3 -0.0055862 600.75 0.31093
117.38 79660. undefined 336.99 1110.6 1.1631 710.00 0.0014085 336.99 1110.6 1.1631 2.2626 2.6123 2386.2 -0.0055778 600.15 0.31136 710.00 0.0014085 336.99 1110.6 1.1631 2.2626 2.6123 2386.2 -0.0055778 600.15 0.31136
118.38 79876. undefined 339.25 1114.9 1.1689 710.00 0.0014085 339.25 1114.9 1.1689 2.2667 2.6161 2387.0 -0.0055695 599.55 0.31180 710.00 0.0014085 339.25 1114.9 1.1689 2.2667 2.6161 2387.0 -0.0055695 599.55 0.31180
119.38 80092. undefined 341.52 1119.3 1.1747 710.00 0.0014085 341.52 1119.3 1.1747 2.2709 2.6198 2387.9 -0.0055612 598.96 0.31224 710.00 0.0014085 341.52 1119.3 1.1747 2.2709 2.6198 2387.9 -0.0055612 598.96 0.31224
120.38 80308. undefined 343.79 1123.7 1.1805 710.00 0.0014085 343.79 1123.7 1.1805 2.2750 2.6236 2388.8 -0.0055530 598.37 0.31267 710.00 0.0014085 343.79 1123.7 1.1805 2.2750 2.6236 2388.8 -0.0055530 598.37 0.31267
121.38 80523. undefined 346.07 1128.0 1.1863 710.00 0.0014085 346.07 1128.0 1.1863 2.2791 2.6274 2389.6 -0.0055448 597.78 0.31311 710.00 0.0014085 346.07 1128.0 1.1863 2.2791 2.6274 2389.6 -0.0055448 597.78 0.31311
122.38 80738. undefined 348.35 1132.4 1.1920 710.00 0.0014085 348.35 1132.4 1.1920 2.2832 2.6312 2390.5 -0.0055366 597.20 0.31354 710.00 0.0014085 348.35 1132.4 1.1920 2.2832 2.6312 2390.5 -0.0055366 597.20 0.31354
123.38 80953. undefined 350.64 1136.8 1.1978 710.00 0.0014085 350.64 1136.8 1.1978 2.2874 2.6350 2391.4 -0.0055284 596.63 0.31398 710.00 0.0014085 350.64 1136.8 1.1978 2.2874 2.6350 2391.4 -0.0055284 596.63 0.31398
124.38 81168. undefined 352.93 1141.1 1.2036 710.00 0.0014085 352.93 1141.1 1.2036 2.2915 2.6387 2392.2 -0.0055203 596.06 0.31442 710.00 0.0014085 352.93 1141.1 1.2036 2.2915 2.6387 2392.2 -0.0055203 596.06 0.31442
125.38 81383. undefined 355.22 1145.5 1.2093 710.00 0.0014085 355.22 1145.5 1.2093 2.2956 2.6425 2393.1 -0.0055121 595.49 0.31486 710.00 0.0014085 355.22 1145.5 1.2093 2.2956 2.6425 2393.1 -0.0055121 595.49 0.31486
126.38 81597. undefined 357.52 1149.9 1.2151 710.00 0.0014085 357.52 1149.9 1.2151 2.2997 2.6463 2393.9 -0.0055040 594.93 0.31530 710.00 0.0014085 357.52 1149.9 1.2151 2.2997 2.6463 2393.9 -0.0055040 594.93 0.31530
127.38 81811. undefined 359.82 1154.3 1.2208 710.00 0.0014085 359.82 1154.3 1.2208 2.3038 2.6501 2394.8 -0.0054960 594.37 0.31573 710.00 0.0014085 359.82 1154.3 1.2208 2.3038 2.6501 2394.8 -0.0054960 594.37 0.31573
128.38 82024. undefined 362.12 1158.7 1.2266 710.00 0.0014085 362.12 1158.7 1.2266 2.3079 2.6538 2395.7 -0.0054879 593.82 0.31617 710.00 0.0014085 362.12 1158.7 1.2266 2.3079 2.6538 2395.7 -0.0054879 593.82 0.31617
129.38 82238. undefined 364.43 1163.0 1.2323 710.00 0.0014085 364.43 1163.0 1.2323 2.3121 2.6576 2396.5 -0.0054799 593.27 0.31661 710.00 0.0014085 364.43 1163.0 1.2323 2.3121 2.6576 2396.5 -0.0054799 593.27 0.31661
130.38 82451. undefined 366.75 1167.4 1.2381 710.00 0.0014085 366.75 1167.4 1.2381 2.3162 2.6614 2397.4 -0.0054719 592.72 0.31705 710.00 0.0014085 366.75 1167.4 1.2381 2.3162 2.6614 2397.4 -0.0054719 592.72 0.31705
131.38 82664. undefined 369.07 1171.8 1.2438 710.00 0.0014085 369.07 1171.8 1.2438 2.3203 2.6651 2398.2 -0.0054639 592.18 0.31749 710.00 0.0014085 369.07 1171.8 1.2438 2.3203 2.6651 2398.2 -0.0054639 592.18 0.31749
132.38 82876. undefined 371.39 1176.2 1.2496 710.00 0.0014085 371.39 1176.2 1.2496 2.3244 2.6689 2399.1 -0.0054560 591.65 0.31793 710.00 0.0014085 371.39 1176.2 1.2496 2.3244 2.6689 2399.1 -0.0054560 591.65 0.31793
133.38 83089. undefined 373.72 1180.6 1.2553 710.00 0.0014085 373.72 1180.6 1.2553 2.3285 2.6727 2399.9 -0.0054481 591.11 0.31837 710.00 0.0014085 373.72 1180.6 1.2553 2.3285 2.6727 2399.9 -0.0054481 591.11 0.31837
134.38 83301. undefined 376.05 1185.0 1.2610 710.00 0.0014085 376.05 1185.0 1.2610 2.3326 2.6764 2400.8 -0.0054402 590.59 0.31881 710.00 0.0014085 376.05 1185.0 1.2610 2.3326 2.6764 2400.8 -0.0054402 590.59 0.31881
135.38 83513. undefined 378.38 1189.4 1.2667 710.00 0.0014085 378.38 1189.4 1.2667 2.3366 2.6802 2401.6 -0.0054323 590.06 0.31925 710.00 0.0014085 378.38 1189.4 1.2667 2.3366 2.6802 2401.6 -0.0054323 590.06 0.31925
136.38 83724. undefined 380.72 1193.8 1.2725 710.00 0.0014085 380.72 1193.8 1.2725 2.3407 2.6839 2402.5 -0.0054245 589.54 0.31969 710.00 0.0014085 380.72 1193.8 1.2725 2.3407 2.6839 2402.5 -0.0054245 589.54 0.31969
137.38 83936. undefined 383.06 1198.2 1.2782 710.00 0.0014085 383.06 1198.2 1.2782 2.3448 2.6877 2403.4 -0.0054167 589.02 0.32013 710.00 0.0014085 383.06 1198.2 1.2782 2.3448 2.6877 2403.4 -0.0054167 589.02 0.32013
138.38 84147. undefined 385.41 1202.6 1.2839 710.00 0.0014085 385.41 1202.6 1.2839 2.3489 2.6914 2404.2 -0.0054089 588.51 0.32057 710.00 0.0014085 385.41 1202.6 1.2839 2.3489 2.6914 2404.2 -0.0054089 588.51 0.32057
139.38 84358. undefined 387.76 1207.0 1.2896 710.00 0.0014085 387.76 1207.0 1.2896 2.3530 2.6952 2405.0 -0.0054011 588.00 0.32102 710.00 0.0014085 387.76 1207.0 1.2896 2.3530 2.6952 2405.0 -0.0054011 588.00 0.32102
140.38 84568. undefined 390.12 1211.4 1.2953 710.00 0.0014085 390.12 1211.4 1.2953 2.3570 2.6989 2405.9 -0.0053934 587.50 0.32146 710.00 0.0014085 390.12 1211.4 1.2953 2.3570 2.6989 2405.9 -0.0053934 587.50 0.32146
141.38 84779. undefined 392.47 1215.8 1.3010 710.00 0.0014085 392.47 1215.8 1.3010 2.3611 2.7027 2406.7 -0.0053857 587.00 0.32190 710.00 0.0014085 392.47 1215.8 1.3010 2.3611 2.7027 2406.7 -0.0053857 587.00 0.32190
142.38 84989. undefined 394.84 1220.2 1.3067 710.00 0.0014085 394.84 1220.2 1.3067 2.3652 2.7064 2407.6 -0.0053780 586.50 0.32234 710.00 0.0014085 394.84 1220.2 1.3067 2.3652 2.7064 2407.6 -0.0053780 586.50 0.32234
143.38 85199. undefined 397.20 1224.6 1.3124 710.00 0.0014085 397.20 1224.6 1.3124 2.3692 2.7102 2408.4 -0.0053703 586.00 0.32279 710.00 0.0014085 397.20 1224.6 1.3124 2.3692 2.7102 2408.4 -0.0053703 586.00 0.32279
144.38 85409. undefined 399.58 1229.0 1.3181 710.00 0.0014085 399.58 1229.0 1.3181 2.3733 2.7139 2409.3 -0.0053627 585.51 0.32323 710.00 0.0014085 399.58 1229.0 1.3181 2.3733 2.7139 2409.3 -0.0053627 585.51 0.32323
145.38 85618. undefined 401.95 1233.4 1.3237 710.00 0.0014085 401.95 1233.4 1.3237 2.3774 2.7177 2410.1 -0.0053551 585.03 0.32367 710.00 0.0014085 401.95 1233.4 1.3237 2.3774 2.7177 2410.1 -0.0053551 585.03 0.32367
146.38 85827. undefined 404.33 1237.8 1.3294 710.00 0.0014085 404.33 1237.8 1.3294 2.3814 2.7214 2411.0 -0.0053475 584.54 0.32412 710.00 0.0014085 404.33 1237.8 1.3294 2.3814 2.7214 2411.0 -0.0053475 584.54 0.32412
147.38 86036. undefined 406.71 1242.2 1.3351 710.00 0.0014085 406.71 1242.2 1.3351 2.3855 2.7251 2411.8 -0.0053399 584.06 0.32456 710.00 0.0014085 406.71 1242.2 1.3351 2.3855 2.7251 2411.8 -0.0053399 584.06 0.32456
148.38 86245. undefined 409.10 1246.6 1.3408 710.00 0.0014085 409.10 1246.6 1.3408 2.3895 2.7289 2412.7 -0.0053324 583.59 0.32500 710.00 0.0014085 409.10 1246.6 1.3408 2.3895 2.7289 2412.7 -0.0053324 583.59 0.32500
149.38 86453. undefined 411.49 1251.0 1.3464 710.00 0.0014085 411.49 1251.0 1.3464 2.3935 2.7326 2413.5 -0.0053249 583.12 0.32545 710.00 0.0014085 411.49 1251.0 1.3464 2.3935 2.7326 2413.5 -0.0053249 583.12 0.32545
150.38 86662. undefined 413.89 1255.5 1.3521 710.00 0.0014085 413.89 1255.5 1.3521 2.3976 2.7363 2414.3 -0.0053174 582.65 0.32589 710.00 0.0014085 413.89 1255.5 1.3521 2.3976 2.7363 2414.3 -0.0053174 582.65 0.32589
151.38 86870. undefined 416.29 1259.9 1.3577 710.00 0.0014085 416.29 1259.9 1.3577 2.4016 2.7400 2415.2 -0.0053100 582.18 0.32634 710.00 0.0014085 416.29 1259.9 1.3577 2.4016 2.7400 2415.2 -0.0053100 582.18 0.32634
152.38 87077. undefined 418.69 1264.3 1.3634 710.00 0.0014085 418.69 1264.3 1.3634 2.4056 2.7438 2416.0 -0.0053025 581.72 0.32678 710.00 0.0014085 418.69 1264.3 1.3634 2.4056 2.7438 2416.0 -0.0053025 581.72 0.32678
153.38 87285. undefined 421.10 1268.7 1.3691 710.00 0.0014085 421.10 1268.7 1.3691 2.4097 2.7475 2416.9 -0.0052951 581.26 0.32723 710.00 0.0014085 421.10 1268.7 1.3691 2.4097 2.7475 2416.9 -0.0052951 581.26 0.32723
154.38 87492. undefined 423.51 1273.1 1.3747 710.00 0.0014085 423.51 1273.1 1.3747 2.4137 2.7512 2417.7 -0.0052877 580.81 0.32768 710.00 0.0014085 423.51 1273.1 1.3747 2.4137 2.7512 2417.7 -0.0052877 580.81 0.32768
155.38 87699. undefined 425.93 1277.6 1.3803 710.00 0.0014085 425.93 1277.6 1.3803 2.4177 2.7549 2418.5 -0.0052804 580.35 0.32812 710.00 0.0014085 425.93 1277.6 1.3803 2.4177 2.7549 2418.5 -0.0052804 580.35 0.32812
156.38 87906. undefined 428.35 1282.0 1.3860 710.00 0.0014085 428.35 1282.0 1.3860 2.4217 2.7586 2419.4 -0.0052731 579.90 0.32857 710.00 0.0014085 428.35 1282.0 1.3860 2.4217 2.7586 2419.4 -0.0052731 579.90 0.32857
157.38 88113. undefined 430.77 1286.4 1.3916 710.00 0.0014085 430.77 1286.4 1.3916 2.4257 2.7623 2420.2 -0.0052657 579.46 0.32902 710.00 0.0014085 430.77 1286.4 1.3916 2.4257 2.7623 2420.2 -0.0052657 579.46 0.32902
158.38 88319. undefined 433.20 1290.9 1.3973 710.00 0.0014085 433.20 1290.9 1.3973 2.4297 2.7660 2421.0 -0.0052585 579.02 0.32946 710.00 0.0014085 433.20 1290.9 1.3973 2.4297 2.7660 2421.0 -0.0052585 579.02 0.32946
159.38 88525. undefined 435.63 1295.3 1.4029 710.00 0.0014085 435.63 1295.3 1.4029 2.4338 2.7697 2421.9 -0.0052512 578.58 0.32991 710.00 0.0014085 435.63 1295.3 1.4029 2.4338 2.7697 2421.9 -0.0052512 578.58 0.32991
160.38 88731. undefined 438.07 1299.7 1.4085 710.00 0.0014085 438.07 1299.7 1.4085 2.4377 2.7734 2422.7 -0.0052440 578.14 0.33036 710.00 0.0014085 438.07 1299.7 1.4085 2.4377 2.7734 2422.7 -0.0052440 578.14 0.33036
161.38 88937. undefined 440.51 1304.2 1.4141 710.00 0.0014085 440.51 1304.2 1.4141 2.4417 2.7771 2423.5 -0.0052368 577.71 0.33081 710.00 0.0014085 440.51 1304.2 1.4141 2.4417 2.7771 2423.5 -0.0052368 577.71 0.33081
162.38 89142. undefined 442.95 1308.6 1.4197 710.00 0.0014085 442.95 1308.6 1.4197 2.4457 2.7808 2424.4 -0.0052296 577.28 0.33126 710.00 0.0014085 442.95 1308.6 1.4197 2.4457 2.7808 2424.4 -0.0052296 577.28 0.33126
163.38 89348. undefined 445.40 1313.0 1.4254 710.00 0.0014085 445.40 1313.0 1.4254 2.4497 2.7845 2425.2 -0.0052224 576.85 0.33171 710.00 0.0014085 445.40 1313.0 1.4254 2.4497 2.7845 2425.2 -0.0052224 576.85 0.33171
164.38 89553. undefined 447.85 1317.5 1.4310 710.00 0.0014085 447.85 1317.5 1.4310 2.4537 2.7882 2426.0 -0.0052153 576.43 0.33215 710.00 0.0014085 447.85 1317.5 1.4310 2.4537 2.7882 2426.0 -0.0052153 576.43 0.33215
165.38 89758. undefined 450.30 1321.9 1.4366 710.00 0.0014085 450.30 1321.9 1.4366 2.4577 2.7919 2426.9 -0.0052082 576.01 0.33260 710.00 0.0014085 450.30 1321.9 1.4366 2.4577 2.7919 2426.9 -0.0052082 576.01 0.33260
166.38 89962. undefined 452.76 1326.4 1.4422 710.00 0.0014085 452.76 1326.4 1.4422 2.4617 2.7956 2427.7 -0.0052011 575.59 0.33305 710.00 0.0014085 452.76 1326.4 1.4422 2.4617 2.7956 2427.7 -0.0052011 575.59 0.33305
167.38 90166. undefined 455.23 1330.8 1.4478 710.00 0.0014085 455.23 1330.8 1.4478 2.4656 2.7993 2428.5 -0.0051941 575.17 0.33350 710.00 0.0014085 455.23 1330.8 1.4478 2.4656 2.7993 2428.5 -0.0051941 575.17 0.33350
168.38 90371. undefined 457.70 1335.3 1.4534 710.00 0.0014085 457.70 1335.3 1.4534 2.4696 2.8029 2429.3 -0.0051870 574.76 0.33395 710.00 0.0014085 457.70 1335.3 1.4534 2.4696 2.8029 2429.3 -0.0051870 574.76 0.33395
169.38 90575. undefined 460.17 1339.7 1.4590 710.00 0.0014085 460.17 1339.7 1.4590 2.4735 2.8066 2430.2 -0.0051800 574.35 0.33440 710.00 0.0014085 460.17 1339.7 1.4590 2.4735 2.8066 2430.2 -0.0051800 574.35 0.33440
170.38 90778. undefined 462.64 1344.2 1.4646 710.00 0.0014085 462.64 1344.2 1.4646 2.4775 2.8103 2431.0 -0.0051730 573.95 0.33486 710.00 0.0014085 462.64 1344.2 1.4646 2.4775 2.8103 2431.0 -0.0051730 573.95 0.33486
171.38 90982. undefined 465.12 1348.6 1.4701 710.00 0.0014085 465.12 1348.6 1.4701 2.4815 2.8139 2431.8 -0.0051661 573.54 0.33531 710.00 0.0014085 465.12 1348.6 1.4701 2.4815 2.8139 2431.8 -0.0051661 573.54 0.33531
172.38 91185. undefined 467.61 1353.1 1.4757 710.00 0.0014085 467.61 1353.1 1.4757 2.4854 2.8176 2432.6 -0.0051591 573.14 0.33576 710.00 0.0014085 467.61 1353.1 1.4757 2.4854 2.8176 2432.6 -0.0051591 573.14 0.33576
173.38 91388. undefined 470.09 1357.6 1.4813 710.00 0.0014085 470.09 1357.6 1.4813 2.4893 2.8213 2433.5 -0.0051522 572.75 0.33621 710.00 0.0014085 470.09 1357.6 1.4813 2.4893 2.8213 2433.5 -0.0051522 572.75 0.33621
174.38 91591. undefined 472.58 1362.0 1.4869 710.00 0.0014085 472.58 1362.0 1.4869 2.4933 2.8249 2434.3 -0.0051453 572.35 0.33666 710.00 0.0014085 472.58 1362.0 1.4869 2.4933 2.8249 2434.3 -0.0051453 572.35 0.33666
175.38 91794. undefined 475.08 1366.5 1.4924 710.00 0.0014085 475.08 1366.5 1.4924 2.4972 2.8286 2435.1 -0.0051385 571.96 0.33711 710.00 0.0014085 475.08 1366.5 1.4924 2.4972 2.8286 2435.1 -0.0051385 571.96 0.33711
176.38 91996. undefined 477.58 1370.9 1.4980 710.00 0.0014085 477.58 1370.9 1.4980 2.5012 2.8322 2435.9 -0.0051316 571.57 0.33757 710.00 0.0014085 477.58 1370.9 1.4980 2.5012 2.8322 2435.9 -0.0051316 571.57 0.33757
177.38 92198. undefined 480.08 1375.4 1.5036 710.00 0.0014085 480.08 1375.4 1.5036 2.5051 2.8359 2436.7 -0.0051248 571.18 0.33802 710.00 0.0014085 480.08 1375.4 1.5036 2.5051 2.8359 2436.7 -0.0051248 571.18 0.33802
178.38 92400. undefined 482.59 1379.9 1.5091 710.00 0.0014085 482.59 1379.9 1.5091 2.5090 2.8395 2437.6 -0.0051180 570.80 0.33847 710.00 0.0014085 482.59 1379.9 1.5091 2.5090 2.8395 2437.6 -0.0051180 570.80 0.33847
179.38 92602. undefined 485.10 1384.3 1.5147 710.00 0.0014085 485.10 1384.3 1.5147 2.5129 2.8431 2438.4 -0.0051112 570.42 0.33893 710.00 0.0014085 485.10 1384.3 1.5147 2.5129 2.8431 2438.4 -0.0051112 570.42 0.33893
180.38 92803. undefined 487.61 1388.8 1.5202 710.00 0.0014085 487.61 1388.8 1.5202 2.5168 2.8468 2439.2 -0.0051045 570.04 0.33938 710.00 0.0014085 487.61 1388.8 1.5202 2.5168 2.8468 2439.2 -0.0051045 570.04 0.33938
181.38 93005. undefined 490.13 1393.3 1.5258 710.00 0.0014085 490.13 1393.3 1.5258 2.5207 2.8504 2440.0 -0.0050978 569.66 0.33983 710.00 0.0014085 490.13 1393.3 1.5258 2.5207 2.8504 2440.0 -0.0050978 569.66 0.33983
182.38 93206. undefined 492.66 1397.8 1.5313 710.00 0.0014085 492.66 1397.8 1.5313 2.5246 2.8540 2440.8 -0.0050911 569.29 0.34029 710.00 0.0014085 492.66 1397.8 1.5313 2.5246 2.8540 2440.8 -0.0050911 569.29 0.34029
183.38 93407. undefined 495.18 1402.2 1.5369 710.00 0.0014085 495.18 1402.2 1.5369 2.5285 2.8577 2441.7 -0.0050844 568.92 0.34074 710.00 0.0014085 495.18 1402.2 1.5369 2.5285 2.8577 2441.7 -0.0050844 568.92 0.34074
184.38 93608. undefined 497.71 1406.7 1.5424 710.00 0.0014085 497.71 1406.7 1.5424 2.5324 2.8613 2442.5 -0.0050778 568.55 0.34120 710.00 0.0014085 497.71 1406.7 1.5424 2.5324 2.8613 2442.5 -0.0050778 568.55 0.34120
185.38 93808. undefined 500.25 1411.2 1.5479 710.00 0.0014085 500.25 1411.2 1.5479 2.5363 2.8649 2443.3 -0.0050711 568.18 0.34165 710.00 0.0014085 500.25 1411.2 1.5479 2.5363 2.8649 2443.3 -0.0050711 568.18 0.34165
186.38 94008. undefined 502.79 1415.7 1.5535 710.00 0.0014085 502.79 1415.7 1.5535 2.5402 2.8685 2444.1 -0.0050645 567.82 0.34211 710.00 0.0014085 502.79 1415.7 1.5535 2.5402 2.8685 2444.1 -0.0050645 567.82 0.34211
187.38 94208. undefined 505.33 1420.2 1.5590 710.00 0.0014085 505.33 1420.2 1.5590 2.5441 2.8721 2444.9 -0.0050579 567.46 0.34256 710.00 0.0014085 505.33 1420.2 1.5590 2.5441 2.8721 2444.9 -0.0050579 567.46 0.34256
188.38 94408. undefined 507.87 1424.7 1.5645 710.00 0.0014085 507.87 1424.7 1.5645 2.5480 2.8757 2445.7 -0.0050514 567.10 0.34302 710.00 0.0014085 507.87 1424.7 1.5645 2.5480 2.8757 2445.7 -0.0050514 567.10 0.34302
189.38 94608. undefined 510.42 1429.2 1.5700 710.00 0.0014085 510.42 1429.2 1.5700 2.5518 2.8793 2446.5 -0.0050448 566.74 0.34348 710.00 0.0014085 510.42 1429.2 1.5700 2.5518 2.8793 2446.5 -0.0050448 566.74 0.34348
190.38 94807. undefined 512.98 1433.6 1.5755 710.00 0.0014085 512.98 1433.6 1.5755 2.5557 2.8829 2447.3 -0.0050383 566.39 0.34393 710.00 0.0014085 512.98 1433.6 1.5755 2.5557 2.8829 2447.3 -0.0050383 566.39 0.34393
191.38 95007. undefined 515.53 1438.1 1.5811 710.00 0.0014085 515.53 1438.1 1.5811 2.5596 2.8865 2448.2 -0.0050318 566.04 0.34439 710.00 0.0014085 515.53 1438.1 1.5811 2.5596 2.8865 2448.2 -0.0050318 566.04 0.34439
192.38 95206. undefined 518.10 1442.6 1.5866 710.00 0.0014085 518.10 1442.6 1.5866 2.5634 2.8901 2449.0 -0.0050254 565.69 0.34485 710.00 0.0014085 518.10 1442.6 1.5866 2.5634 2.8901 2449.0 -0.0050254 565.69 0.34485
193.38 95405. undefined 520.66 1447.1 1.5921 710.00 0.0014085 520.66 1447.1 1.5921 2.5673 2.8937 2449.8 -0.0050189 565.34 0.34530 710.00 0.0014085 520.66 1447.1 1.5921 2.5673 2.8937 2449.8 -0.0050189 565.34 0.34530
194.38 95603. undefined 523.23 1451.6 1.5976 710.00 0.0014085 523.23 1451.6 1.5976 2.5711 2.8973 2450.6 -0.0050125 565.00 0.34576 710.00 0.0014085 523.23 1451.6 1.5976 2.5711 2.8973 2450.6 -0.0050125 565.00 0.34576
195.38 95802. undefined 525.80 1456.1 1.6031 710.00 0.0014085 525.80 1456.1 1.6031 2.5749 2.9009 2451.4 -0.0050061 564.66 0.34622 710.00 0.0014085 525.80 1456.1 1.6031 2.5749 2.9009 2451.4 -0.0050061 564.66 0.34622
196.38 96000. undefined 528.38 1460.6 1.6086 710.00 0.0014085 528.38 1460.6 1.6086 2.5788 2.9045 2452.2 -0.0049997 564.32 0.34668 710.00 0.0014085 528.38 1460.6 1.6086 2.5788 2.9045 2452.2 -0.0049997 564.32 0.34668
197.38 96198. undefined 530.96 1465.1 1.6141 710.00 0.0014085 530.96 1465.1 1.6141 2.5826 2.9080 2453.0 -0.0049934 563.98 0.34714 710.00 0.0014085 530.96 1465.1 1.6141 2.5826 2.9080 2453.0 -0.0049934 563.98 0.34714
198.38 96396. undefined 533.55 1469.6 1.6195 710.00 0.0014085 533.55 1469.6 1.6195 2.5864 2.9116 2453.8 -0.0049871 563.64 0.34760 710.00 0.0014085 533.55 1469.6 1.6195 2.5864 2.9116 2453.8 -0.0049871 563.64 0.34760
199.38 96594. undefined 536.13 1474.1 1.6250 710.00 0.0014085 536.13 1474.1 1.6250 2.5903 2.9152 2454.6 -0.0049807 563.31 0.34806 710.00 0.0014085 536.13 1474.1 1.6250 2.5903 2.9152 2454.6 -0.0049807 563.31 0.34806
200.38 96791. undefined 538.73 1478.7 1.6305 710.00 0.0014085 538.73 1478.7 1.6305 2.5941 2.9187 2455.4 -0.0049745 562.98 0.34852 710.00 0.0014085 538.73 1478.7 1.6305 2.5941 2.9187 2455.4 -0.0049745 562.98 0.34852
201.38 96988. undefined 541.32 1483.2 1.6360 710.00 0.0014085 541.32 1483.2 1.6360 2.5979 2.9223 2456.2 -0.0049682 562.65 0.34898 710.00 0.0014085 541.32 1483.2 1.6360 2.5979 2.9223 2456.2 -0.0049682 562.65 0.34898
202.38 97186. undefined 543.92 1487.7 1.6415 710.00 0.0014085 543.92 1487.7 1.6415 2.6017 2.9258 2457.0 -0.0049620 562.33 0.34944 710.00 0.0014085 543.92 1487.7 1.6415 2.6017 2.9258 2457.0 -0.0049620 562.33 0.34944
203.38 97382. undefined 546.53 1492.2 1.6469 710.00 0.0014085 546.53 1492.2 1.6469 2.6055 2.9294 2457.8 -0.0049557 562.00 0.34990 710.00 0.0014085 546.53 1492.2 1.6469 2.6055 2.9294 2457.8 -0.0049557 562.00 0.34990
204.38 97579. undefined 549.13 1496.7 1.6524 710.00 0.0014085 549.13 1496.7 1.6524 2.6093 2.9329 2458.6 -0.0049495 561.68 0.35036 710.00 0.0014085 549.13 1496.7 1.6524 2.6093 2.9329 2458.6 -0.0049495 561.68 0.35036
205.38 97776. undefined 551.74 1501.2 1.6578 710.00 0.0014085 551.74 1501.2 1.6578 2.6131 2.9365 2459.4 -0.0049434 561.36 0.35082 710.00 0.0014085 551.74 1501.2 1.6578 2.6131 2.9365 2459.4 -0.0049434 561.36 0.35082
206.38 97972. undefined 554.36 1505.8 1.6633 710.00 0.0014085 554.36 1505.8 1.6633 2.6169 2.9400 2460.2 -0.0049372 561.04 0.35128 710.00 0.0014085 554.36 1505.8 1.6633 2.6169 2.9400 2460.2 -0.0049372 561.04 0.35128
207.38 98168. undefined 556.98 1510.3 1.6688 710.00 0.0014085 556.98 1510.3 1.6688 2.6207 2.9435 2461.0 -0.0049311 560.73 0.35174 710.00 0.0014085 556.98 1510.3 1.6688 2.6207 2.9435 2461.0 -0.0049311 560.73 0.35174
208.38 98364. undefined 559.60 1514.8 1.6742 710.00 0.0014085 559.60 1514.8 1.6742 2.6244 2.9471 2461.8 -0.0049250 560.41 0.35220 710.00 0.0014085 559.60 1514.8 1.6742 2.6244 2.9471 2461.8 -0.0049250 560.41 0.35220
209.38 98560. undefined 562.23 1519.3 1.6797 710.00 0.0014085 562.23 1519.3 1.6797 2.6282 2.9506 2462.6 -0.0049189 560.10 0.35266 710.00 0.0014085 562.23 1519.3 1.6797 2.6282 2.9506 2462.6 -0.0049189 560.10 0.35266
210.38 98755. undefined 564.86 1523.9 1.6851 710.00 0.0014085 564.86 1523.9 1.6851 2.6320 2.9541 2463.4 -0.0049128 559.79 0.35313 710.00 0.0014085 564.86 1523.9 1.6851 2.6320 2.9541 2463.4 -0.0049128 559.79 0.35313
211.38 98951. undefined 567.49 1528.4 1.6906 710.00 0.0014085 567.49 1528.4 1.6906 2.6358 2.9576 2464.2 -0.0049067 559.48 0.35359 710.00 0.0014085 567.49 1528.4 1.6906 2.6358 2.9576 2464.2 -0.0049067 559.48 0.35359
212.38 99146. undefined 570.13 1532.9 1.6960 710.00 0.0014085 570.13 1532.9 1.6960 2.6395 2.9611 2465.0 -0.0049007 559.18 0.35405 710.00 0.0014085 570.13 1532.9 1.6960 2.6395 2.9611 2465.0 -0.0049007 559.18 0.35405
213.38 99341. undefined 572.77 1537.5 1.7014 710.00 0.0014085 572.77 1537.5 1.7014 2.6433 2.9646 2465.8 -0.0048947 558.87 0.35452 710.00 0.0014085 572.77 1537.5 1.7014 2.6433 2.9646 2465.8 -0.0048947 558.87 0.35452
214.38 99535. undefined 575.42 1542.0 1.7069 710.00 0.0014085 575.42 1542.0 1.7069 2.6470 2.9681 2466.6 -0.0048887 558.57 0.35498 710.00 0.0014085 575.42 1542.0 1.7069 2.6470 2.9681 2466.6 -0.0048887 558.57 0.35498
215.38 99730. undefined 578.06 1546.5 1.7123 710.00 0.0014085 578.06 1546.5 1.7123 2.6508 2.9716 2467.4 -0.0048828 558.27 0.35544 710.00 0.0014085 578.06 1546.5 1.7123 2.6508 2.9716 2467.4 -0.0048828 558.27 0.35544
216.38 99924. undefined 580.72 1551.1 1.7177 710.00 0.0014085 580.72 1551.1 1.7177 2.6545 2.9751 2468.2 -0.0048768 557.98 0.35591 710.00 0.0014085 580.72 1551.1 1.7177 2.6545 2.9751 2468.2 -0.0048768 557.98 0.35591
217.38 1.0012e+05 undefined 583.37 1555.6 1.7231 710.00 0.0014085 583.37 1555.6 1.7231 2.6582 2.9786 2469.0 -0.0048709 557.68 0.35637 710.00 0.0014085 583.37 1555.6 1.7231 2.6582 2.9786 2469.0 -0.0048709 557.68 0.35637
218.38 1.0031e+05 undefined 586.03 1560.2 1.7285 710.00 0.0014085 586.03 1560.2 1.7285 2.6620 2.9821 2469.8 -0.0048650 557.39 0.35684 710.00 0.0014085 586.03 1560.2 1.7285 2.6620 2.9821 2469.8 -0.0048650 557.39 0.35684
219.38 1.0051e+05 undefined 588.70 1564.7 1.7340 710.00 0.0014085 588.70 1564.7 1.7340 2.6657 2.9856 2470.6 -0.0048591 557.09 0.35730 710.00 0.0014085 588.70 1564.7 1.7340 2.6657 2.9856 2470.6 -0.0048591 557.09 0.35730
220.38 1.0070e+05 undefined 591.36 1569.3 1.7394 710.00 0.0014085 591.36 1569.3 1.7394 2.6694 2.9891 2471.4 -0.0048533 556.80 0.35777 710.00 0.0014085 591.36 1569.3 1.7394 2.6694 2.9891 2471.4 -0.0048533 556.80 0.35777
221.38 1.0089e+05 undefined 594.04 1573.8 1.7448 710.00 0.0014085 594.04 1573.8 1.7448 2.6731 2.9926 2472.2 -0.0048474 556.52 0.35823 710.00 0.0014085 594.04 1573.8 1.7448 2.6731 2.9926 2472.2 -0.0048474 556.52 0.35823
222.38 1.0109e+05 undefined 596.71 1578.4 1.7502 710.00 0.0014085 596.71 1578.4 1.7502 2.6768 2.9960 2473.0 -0.0048416 556.23 0.35870 710.00 0.0014085 596.71 1578.4 1.7502 2.6768 2.9960 2473.0 -0.0048416 556.23 0.35870
223.38 1.0128e+05 undefined 599.39 1582.9 1.7556 710.00 0.0014085 599.39 1582.9 1.7556 2.6805 2.9995 2473.7 -0.0048358 555.94 0.35917 710.00 0.0014085 599.39 1582.9 1.7556 2.6805 2.9995 2473.7 -0.0048358 555.94 0.35917
224.38 1.0147e+05 undefined 602.07 1587.5 1.7610 710.00 0.0014085 602.07 1587.5 1.7610 2.6842 3.0030 2474.5 -0.0048300 555.66 0.35963 710.00 0.0014085 602.07 1587.5 1.7610 2.6842 3.0030 2474.5 -0.0048300 555.66 0.35963
225.38 1.0167e+05 undefined 604.76 1592.0 1.7664 710.00 0.0014085 604.76 1592.0 1.7664 2.6879 3.0064 2475.3 -0.0048243 555.38 0.36010 710.00 0.0014085 604.76 1592.0 1.7664 2.6879 3.0064 2475.3 -0.0048243 555.38 0.36010
226.38 1.0186e+05 undefined 607.45 1596.6 1.7718 710.00 0.0014085 607.45 1596.6 1.7718 2.6916 3.0099 2476.1 -0.0048185 555.10 0.36057 710.00 0.0014085 607.45 1596.6 1.7718 2.6916 3.0099 2476.1 -0.0048185 555.10 0.36057
227.38 1.0205e+05 undefined 610.14 1601.1 1.7771 710.00 0.0014085 610.14 1601.1 1.7771 2.6953 3.0133 2476.9 -0.0048128 554.82 0.36103 710.00 0.0014085 610.14 1601.1 1.7771 2.6953 3.0133 2476.9 -0.0048128 554.82 0.36103
228.38 1.0224e+05 undefined 612.84 1605.7 1.7825 710.00 0.0014085 612.84 1605.7 1.7825 2.6990 3.0168 2477.7 -0.0048071 554.55 0.36150 710.00 0.0014085 612.84 1605.7 1.7825 2.6990 3.0168 2477.7 -0.0048071 554.55 0.36150
229.38 1.0243e+05 undefined 615.54 1610.3 1.7879 710.00 0.0014085 615.54 1610.3 1.7879 2.7026 3.0202 2478.5 -0.0048014 554.27 0.36197 710.00 0.0014085 615.54 1610.3 1.7879 2.7026 3.0202 2478.5 -0.0048014 554.27 0.36197
230.38 1.0263e+05 undefined 618.24 1614.8 1.7933 710.00 0.0014085 618.24 1614.8 1.7933 2.7063 3.0236 2479.3 -0.0047958 554.00 0.36244 710.00 0.0014085 618.24 1614.8 1.7933 2.7063 3.0236 2479.3 -0.0047958 554.00 0.36244
231.38 1.0282e+05 undefined 620.95 1619.4 1.7987 710.00 0.0014085 620.95 1619.4 1.7987 2.7100 3.0271 2480.0 -0.0047901 553.73 0.36291 710.00 0.0014085 620.95 1619.4 1.7987 2.7100 3.0271 2480.0 -0.0047901 553.73 0.36291
232.38 1.0301e+05 undefined 623.66 1624.0 1.8040 710.00 0.0014085 623.66 1624.0 1.8040 2.7136 3.0305 2480.8 -0.0047845 553.46 0.36338 710.00 0.0014085 623.66 1624.0 1.8040 2.7136 3.0305 2480.8 -0.0047845 553.46 0.36338
233.38 1.0320e+05 undefined 626.38 1628.6 1.8094 710.00 0.0014085 626.38 1628.6 1.8094 2.7173 3.0339 2481.6 -0.0047789 553.19 0.36385 710.00 0.0014085 626.38 1628.6 1.8094 2.7173 3.0339 2481.6 -0.0047789 553.19 0.36385
234.38 1.0339e+05 undefined 629.10 1633.1 1.8148 710.00 0.0014085 629.10 1633.1 1.8148 2.7209 3.0374 2482.4 -0.0047733 552.93 0.36431 710.00 0.0014085 629.10 1633.1 1.8148 2.7209 3.0374 2482.4 -0.0047733 552.93 0.36431
235.38 1.0358e+05 undefined 631.82 1637.7 1.8201 710.00 0.0014085 631.82 1637.7 1.8201 2.7246 3.0408 2483.2 -0.0047678 552.67 0.36478 710.00 0.0014085 631.82 1637.7 1.8201 2.7246 3.0408 2483.2 -0.0047678 552.67 0.36478
236.38 1.0377e+05 undefined 634.55 1642.3 1.8255 710.00 0.0014085 634.55 1642.3 1.8255 2.7282 3.0442 2484.0 -0.0047622 552.40 0.36525 710.00 0.0014085 634.55 1642.3 1.8255 2.7282 3.0442 2484.0 -0.0047622 552.40 0.36525
237.38 1.0396e+05 undefined 637.28 1646.9 1.8308 710.00 0.0014085 637.28 1646.9 1.8308 2.7319 3.0476 2484.7 -0.0047567 552.14 0.36572 710.00 0.0014085 637.28 1646.9 1.8308 2.7319 3.0476 2484.7 -0.0047567 552.14 0.36572
238.38 1.0415e+05 undefined 640.01 1651.5 1.8362 710.00 0.0014085 640.01 1651.5 1.8362 2.7355 3.0510 2485.5 -0.0047512 551.88 0.36620 710.00 0.0014085 640.01 1651.5 1.8362 2.7355 3.0510 2485.5 -0.0047512 551.88 0.36620
239.38 1.0435e+05 undefined 642.75 1656.0 1.8415 710.00 0.0014085 642.75 1656.0 1.8415 2.7391 3.0544 2486.3 -0.0047457 551.63 0.36667 710.00 0.0014085 642.75 1656.0 1.8415 2.7391 3.0544 2486.3 -0.0047457 551.63 0.36667
240.38 1.0454e+05 undefined 645.49 1660.6 1.8469 710.00 0.0014085 645.49 1660.6 1.8469 2.7427 3.0578 2487.1 -0.0047403 551.37 0.36714 710.00 0.0014085 645.49 1660.6 1.8469 2.7427 3.0578 2487.1 -0.0047403 551.37 0.36714
241.38 1.0473e+05 undefined 648.23 1665.2 1.8522 710.00 0.0014085 648.23 1665.2 1.8522 2.7463 3.0612 2487.8 -0.0047348 551.12 0.36761 710.00 0.0014085 648.23 1665.2 1.8522 2.7463 3.0612 2487.8 -0.0047348 551.12 0.36761
242.38 1.0491e+05 undefined 650.98 1669.8 1.8575 710.00 0.0014085 650.98 1669.8 1.8575 2.7499 3.0646 2488.6 -0.0047294 550.86 0.36808 710.00 0.0014085 650.98 1669.8 1.8575 2.7499 3.0646 2488.6 -0.0047294 550.86 0.36808
243.38 1.0510e+05 undefined 653.73 1674.4 1.8629 710.00 0.0014085 653.73 1674.4 1.8629 2.7535 3.0679 2489.4 -0.0047240 550.61 0.36855 710.00 0.0014085 653.73 1674.4 1.8629 2.7535 3.0679 2489.4 -0.0047240 550.61 0.36855
244.38 1.0529e+05 undefined 656.49 1679.0 1.8682 710.00 0.0014085 656.49 1679.0 1.8682 2.7571 3.0713 2490.2 -0.0047186 550.36 0.36903 710.00 0.0014085 656.49 1679.0 1.8682 2.7571 3.0713 2490.2 -0.0047186 550.36 0.36903
245.38 1.0548e+05 undefined 659.25 1683.6 1.8735 710.00 0.0014085 659.25 1683.6 1.8735 2.7607 3.0747 2491.0 -0.0047132 550.12 0.36950 710.00 0.0014085 659.25 1683.6 1.8735 2.7607 3.0747 2491.0 -0.0047132 550.12 0.36950
246.38 1.0567e+05 undefined 662.01 1688.2 1.8789 710.00 0.0014085 662.01 1688.2 1.8789 2.7643 3.0781 2491.7 -0.0047079 549.87 0.36997 710.00 0.0014085 662.01 1688.2 1.8789 2.7643 3.0781 2491.7 -0.0047079 549.87 0.36997
247.38 1.0586e+05 undefined 664.78 1692.8 1.8842 710.00 0.0014085 664.78 1692.8 1.8842 2.7679 3.0814 2492.5 -0.0047025 549.62 0.37044 710.00 0.0014085 664.78 1692.8 1.8842 2.7679 3.0814 2492.5 -0.0047025 549.62 0.37044
248.38 1.0605e+05 undefined 667.55 1697.4 1.8895 710.00 0.0014085 667.55 1697.4 1.8895 2.7715 3.0848 2493.3 -0.0046972 549.38 0.37092 710.00 0.0014085 667.55 1697.4 1.8895 2.7715 3.0848 2493.3 -0.0046972 549.38 0.37092
249.38 1.0624e+05 undefined 670.32 1702.0 1.8948 710.00 0.0014085 670.32 1702.0 1.8948 2.7751 3.0881 2494.0 -0.0046919 549.14 0.37139 710.00 0.0014085 670.32 1702.0 1.8948 2.7751 3.0881 2494.0 -0.0046919 549.14 0.37139
250.38 1.0643e+05 undefined 673.10 1706.6 1.9001 710.00 0.0014085 673.10 1706.6 1.9001 2.7786 3.0915 2494.8 -0.0046866 548.90 0.37187 710.00 0.0014085 673.10 1706.6 1.9001 2.7786 3.0915 2494.8 -0.0046866 548.90 0.37187
251.38 1.0661e+05 undefined 675.88 1711.2 1.9054 710.00 0.0014085 675.88 1711.2 1.9054 2.7822 3.0948 2495.6 -0.0046814 548.66 0.37234 710.00 0.0014085 675.88 1711.2 1.9054 2.7822 3.0948 2495.6 -0.0046814 548.66 0.37234
252.38 1.0680e+05 undefined 678.66 1715.8 1.9107 710.00 0.0014085 678.66 1715.8 1.9107 2.7857 3.0982 2496.4 -0.0046761 548.42 0.37282 710.00 0.0014085 678.66 1715.8 1.9107 2.7857 3.0982 2496.4 -0.0046761 548.42 0.37282
253.38 1.0699e+05 undefined 681.45 1720.4 1.9160 710.00 0.0014085 681.45 1720.4 1.9160 2.7893 3.1015 2497.1 -0.0046709 548.19 0.37329 710.00 0.0014085 681.45 1720.4 1.9160 2.7893 3.1015 2497.1 -0.0046709 548.19 0.37329
254.38 1.0718e+05 undefined 684.24 1725.0 1.9213 710.00 0.0014085 684.24 1725.0 1.9213 2.7928 3.1049 2497.9 -0.0046657 547.95 0.37377 710.00 0.0014085 684.24 1725.0 1.9213 2.7928 3.1049 2497.9 -0.0046657 547.95 0.37377
255.38 1.0737e+05 undefined 687.03 1729.7 1.9266 710.00 0.0014085 687.03 1729.7 1.9266 2.7964 3.1082 2498.7 -0.0046605 547.72 0.37424 710.00 0.0014085 687.03 1729.7 1.9266 2.7964 3.1082 2498.7 -0.0046605 547.72 0.37424
256.38 1.0755e+05 undefined 689.83 1734.3 1.9319 710.00 0.0014085 689.83 1734.3 1.9319 2.7999 3.1115 2499.4 -0.0046553 547.49 0.37472 710.00 0.0014085 689.83 1734.3 1.9319 2.7999 3.1115 2499.4 -0.0046553 547.49 0.37472
257.38 1.0774e+05 undefined 692.63 1738.9 1.9372 710.00 0.0014085 692.63 1738.9 1.9372 2.8035 3.1148 2500.2 -0.0046502 547.26 0.37519 710.00 0.0014085 692.63 1738.9 1.9372 2.8035 3.1148 2500.2 -0.0046502 547.26 0.37519
258.38 1.0793e+05 undefined 695.44 1743.5 1.9425 710.00 0.0014085 695.44 1743.5 1.9425 2.8070 3.1181 2501.0 -0.0046450 547.03 0.37567 710.00 0.0014085 695.44 1743.5 1.9425 2.8070 3.1181 2501.0 -0.0046450 547.03 0.37567
259.38 1.0811e+05 undefined 698.25 1748.1 1.9477 710.00 0.0014085 698.25 1748.1 1.9477 2.8105 3.1215 2501.7 -0.0046399 546.80 0.37615 710.00 0.0014085 698.25 1748.1 1.9477 2.8105 3.1215 2501.7 -0.0046399 546.80 0.37615
260.38 1.0830e+05 undefined 701.06 1752.8 1.9530 710.00 0.0014085 701.06 1752.8 1.9530 2.8140 3.1248 2502.5 -0.0046348 546.57 0.37662 710.00 0.0014085 701.06 1752.8 1.9530 2.8140 3.1248 2502.5 -0.0046348 546.57 0.37662
261.38 1.0849e+05 undefined 703.88 1757.4 1.9583 710.00 0.0014085 703.88 1757.4 1.9583 2.8175 3.1281 2503.3 -0.0046297 546.35 0.37710 710.00 0.0014085 703.88 1757.4 1.9583 2.8175 3.1281 2503.3 -0.0046297 546.35 0.37710
262.38 1.0867e+05 undefined 706.70 1762.0 1.9636 710.00 0.0014085 706.70 1762.0 1.9636 2.8210 3.1314 2504.0 -0.0046247 546.12 0.37758 710.00 0.0014085 706.70 1762.0 1.9636 2.8210 3.1314 2504.0 -0.0046247 546.12 0.37758
263.38 1.0886e+05 undefined 709.52 1766.7 1.9688 710.00 0.0014085 709.52 1766.7 1.9688 2.8246 3.1347 2504.8 -0.0046196 545.90 0.37806 710.00 0.0014085 709.52 1766.7 1.9688 2.8246 3.1347 2504.8 -0.0046196 545.90 0.37806
264.38 1.0905e+05 undefined 712.34 1771.3 1.9741 710.00 0.0014085 712.34 1771.3 1.9741 2.8280 3.1380 2505.6 -0.0046146 545.68 0.37854 710.00 0.0014085 712.34 1771.3 1.9741 2.8280 3.1380 2505.6 -0.0046146 545.68 0.37854
265.38 1.0923e+05 undefined 715.17 1775.9 1.9793 710.00 0.0014085 715.17 1775.9 1.9793 2.8315 3.1412 2506.3 -0.0046096 545.46 0.37901 710.00 0.0014085 715.17 1775.9 1.9793 2.8315 3.1412 2506.3 -0.0046096 545.46 0.37901
266.38 1.0942e+05 undefined 718.01 1780.6 1.9846 710.00 0.0014085 718.01 1780.6 1.9846 2.8350 3.1445 2507.1 -0.0046046 545.24 0.37949 710.00 0.0014085 718.01 1780.6 1.9846 2.8350 3.1445 2507.1 -0.0046046 545.24 0.37949
267.38 1.0960e+05 undefined 720.84 1785.2 1.9899 710.00 0.0014085 720.84 1785.2 1.9899 2.8385 3.1478 2507.9 -0.0045996 545.03 0.37997 710.00 0.0014085 720.84 1785.2 1.9899 2.8385 3.1478 2507.9 -0.0045996 545.03 0.37997
268.38 1.0979e+05 undefined 723.68 1789.8 1.9951 710.00 0.0014085 723.68 1789.8 1.9951 2.8420 3.1511 2508.6 -0.0045946 544.81 0.38045 710.00 0.0014085 723.68 1789.8 1.9951 2.8420 3.1511 2508.6 -0.0045946 544.81 0.38045
269.38 1.0997e+05 undefined 726.53 1794.5 2.0004 710.00 0.0014085 726.53 1794.5 2.0004 2.8455 3.1543 2509.4 -0.0045897 544.60 0.38093 710.00 0.0014085 726.53 1794.5 2.0004 2.8455 3.1543 2509.4 -0.0045897 544.60 0.38093
270.38 1.1016e+05 undefined 729.38 1799.1 2.0056 710.00 0.0014085 729.38 1799.1 2.0056 2.8489 3.1576 2510.1 -0.0045847 544.38 0.38141 710.00 0.0014085 729.38 1799.1 2.0056 2.8489 3.1576 2510.1 -0.0045847 544.38 0.38141
271.38 1.1034e+05 undefined 732.23 1803.8 2.0108 710.00 0.0014085 732.23 1803.8 2.0108 2.8524 3.1609 2510.9 -0.0045798 544.17 0.38189 710.00 0.0014085 732.23 1803.8 2.0108 2.8524 3.1609 2510.9 -0.0045798 544.17 0.38189
272.38 1.1053e+05 undefined 735.08 1808.4 2.0161 710.00 0.0014085 735.08 1808.4 2.0161 2.8559 3.1641 2511.7 -0.0045749 543.96 0.38237 710.00 0.0014085 735.08 1808.4 2.0161 2.8559 3.1641 2511.7 -0.0045749 543.96 0.38237
273.38 1.1071e+05 undefined 737.94 1813.1 2.0213 710.00 0.0014085 737.94 1813.1 2.0213 2.8593 3.1674 2512.4 -0.0045700 543.75 0.38285 710.00 0.0014085 737.94 1813.1 2.0213 2.8593 3.1674 2512.4 -0.0045700 543.75 0.38285
274.38 1.1090e+05 undefined 740.80 1817.7 2.0265 710.00 0.0014085 740.80 1817.7 2.0265 2.8628 3.1706 2513.2 -0.0045652 543.54 0.38333 710.00 0.0014085 740.80 1817.7 2.0265 2.8628 3.1706 2513.2 -0.0045652 543.54 0.38333
275.38 1.1108e+05 undefined 743.66 1822.4 2.0318 710.00 0.0014085 743.66 1822.4 2.0318 2.8662 3.1739 2513.9 -0.0045603 543.34 0.38382 710.00 0.0014085 743.66 1822.4 2.0318 2.8662 3.1739 2513.9 -0.0045603 543.34 0.38382
276.38 1.1127e+05 undefined 746.53 1827.0 2.0370 710.00 0.0014085 746.53 1827.0 2.0370 2.8696 3.1771 2514.7 -0.0045555 543.13 0.38430 710.00 0.0014085 746.53 1827.0 2.0370 2.8696 3.1771 2514.7 -0.0045555 543.13 0.38430
277.38 1.1145e+05 undefined 749.40 1831.7 2.0422 710.00 0.0014085 749.40 1831.7 2.0422 2.8731 3.1803 2515.4 -0.0045507 542.92 0.38478 710.00 0.0014085 749.40 1831.7 2.0422 2.8731 3.1803 2515.4 -0.0045507 542.92 0.38478
278.38 1.1163e+05 undefined 752.28 1836.4 2.0474 710.00 0.0014085 752.28 1836.4 2.0474 2.8765 3.1836 2516.2 -0.0045459 542.72 0.38526 710.00 0.0014085 752.28 1836.4 2.0474 2.8765 3.1836 2516.2 -0.0045459 542.72 0.38526
279.38 1.1182e+05 undefined 755.16 1841.0 2.0526 710.00 0.0014085 755.16 1841.0 2.0526 2.8799 3.1868 2516.9 -0.0045411 542.52 0.38574 710.00 0.0014085 755.16 1841.0 2.0526 2.8799 3.1868 2516.9 -0.0045411 542.52 0.38574
280.38 1.1200e+05 undefined 758.04 1845.7 2.0578 710.00 0.0014085 758.04 1845.7 2.0578 2.8833 3.1900 2517.7 -0.0045363 542.32 0.38623 710.00 0.0014085 758.04 1845.7 2.0578 2.8833 3.1900 2517.7 -0.0045363 542.32 0.38623
281.38 1.1219e+05 undefined 760.92 1850.3 2.0631 710.00 0.0014085 760.92 1850.3 2.0631 2.8868 3.1932 2518.5 -0.0045315 542.12 0.38671 710.00 0.0014085 760.92 1850.3 2.0631 2.8868 3.1932 2518.5 -0.0045315 542.12 0.38671
282.38 1.1237e+05 undefined 763.81 1855.0 2.0683 710.00 0.0014085 763.81 1855.0 2.0683 2.8902 3.1964 2519.2 -0.0045268 541.92 0.38710 710.00 0.0014085 763.81 1855.0 2.0683 2.8902 3.1964 2519.2 -0.0045268 541.92 0.38710
283.38 1.1255e+05 undefined 766.70 1859.7 2.0735 710.00 0.0014085 766.70 1859.7 2.0735 2.8936 3.1997 2520.0 -0.0045221 541.72 0.38759 710.00 0.0014085 766.70 1859.7 2.0735 2.8936 3.1997 2520.0 -0.0045221 541.72 0.38759
284.38 1.1273e+05 undefined 769.60 1864.4 2.0787 710.00 0.0014085 769.60 1864.4 2.0787 2.8970 3.2029 2520.7 -0.0045174 541.53 0.38807 710.00 0.0014085 769.60 1864.4 2.0787 2.8970 3.2029 2520.7 -0.0045174 541.53 0.38807
285.38 1.1292e+05 undefined 772.50 1869.0 2.0839 710.00 0.0014085 772.50 1869.0 2.0839 2.9004 3.2061 2521.5 -0.0045127 541.33 0.38856 710.00 0.0014085 772.50 1869.0 2.0839 2.9004 3.2061 2521.5 -0.0045127 541.33 0.38856
286.38 1.1310e+05 undefined 775.40 1873.7 2.0890 710.00 0.0014085 775.40 1873.7 2.0890 2.9037 3.2093 2522.2 -0.0045080 541.14 0.38904 710.00 0.0014085 775.40 1873.7 2.0890 2.9037 3.2093 2522.2 -0.0045080 541.14 0.38904
287.38 1.1328e+05 undefined 778.30 1878.4 2.0942 710.00 0.0014085 778.30 1878.4 2.0942 2.9071 3.2125 2523.0 -0.0045033 540.94 0.38953 710.00 0.0014085 778.30 1878.4 2.0942 2.9071 3.2125 2523.0 -0.0045033 540.94 0.38953
288.38 1.1346e+05 undefined 781.21 1883.1 2.0994 710.00 0.0014085 781.21 1883.1 2.0994 2.9105 3.2156 2523.7 -0.0044987 540.75 0.39001 710.00 0.0014085 781.21 1883.1 2.0994 2.9105 3.2156 2523.7 -0.0044987 540.75 0.39001
289.38 1.1365e+05 undefined 784.12 1887.7 2.1046 710.00 0.0014085 784.12 1887.7 2.1046 2.9139 3.2188 2524.5 -0.0044941 540.56 0.39050 710.00 0.0014085 784.12 1887.7 2.1046 2.9139 3.2188 2524.5 -0.0044941 540.56 0.39050
290.38 1.1383e+05 undefined 787.04 1892.4 2.1098 710.00 0.0014085 787.04 1892.4 2.1098 2.9173 3.2220 2525.2 -0.0044895 540.37 0.39098 710.00 0.0014085 787.04 1892.4 2.1098 2.9173 3.2220 2525.2 -0.0044895 540.37 0.39098
291.38 1.1401e+05 undefined 789.96 1897.1 2.1150 710.00 0.0014085 789.96 1897.1 2.1150 2.9206 3.2252 2526.0 -0.0044849 540.18 0.39147 710.00 0.0014085 789.96 1897.1 2.1150 2.9206 3.2252 2526.0 -0.0044849 540.18 0.39147
292.38 1.1419e+05 undefined 792.88 1901.8 2.1201 710.00 0.0014085 792.88 1901.8 2.1201 2.9240 3.2283 2526.7 -0.0044803 540.00 0.39195 710.00 0.0014085 792.88 1901.8 2.1201 2.9240 3.2283 2526.7 -0.0044803 540.00 0.39195
293.38 1.1437e+05 undefined 795.81 1906.5 2.1253 710.00 0.0014085 795.81 1906.5 2.1253 2.9273 3.2315 2527.4 -0.0044757 539.81 0.39244 710.00 0.0014085 795.81 1906.5 2.1253 2.9273 3.2315 2527.4 -0.0044757 539.81 0.39244
294.38 1.1456e+05 undefined 798.74 1911.2 2.1305 710.00 0.0014085 798.74 1911.2 2.1305 2.9307 3.2347 2528.2 -0.0044711 539.62 0.39293 710.00 0.0014085 798.74 1911.2 2.1305 2.9307 3.2347 2528.2 -0.0044711 539.62 0.39293
295.38 1.1474e+05 undefined 801.67 1915.9 2.1356 710.00 0.0014085 801.67 1915.9 2.1356 2.9340 3.2378 2528.9 -0.0044666 539.44 0.39341 710.00 0.0014085 801.67 1915.9 2.1356 2.9340 3.2378 2528.9 -0.0044666 539.44 0.39341
296.38 1.1492e+05 undefined 804.60 1920.6 2.1408 710.00 0.0014085 804.60 1920.6 2.1408 2.9374 3.2410 2529.7 -0.0044621 539.26 0.39390 710.00 0.0014085 804.60 1920.6 2.1408 2.9374 3.2410 2529.7 -0.0044621 539.26 0.39390
297.38 1.1510e+05 undefined 807.54 1925.3 2.1459 710.00 0.0014085 807.54 1925.3 2.1459 2.9407 3.2441 2530.4 -0.0044576 539.07 0.39439 710.00 0.0014085 807.54 1925.3 2.1459 2.9407 3.2441 2530.4 -0.0044576 539.07 0.39439
298.38 1.1528e+05 undefined 810.49 1930.0 2.1511 710.00 0.0014085 810.49 1930.0 2.1511 2.9440 3.2473 2531.2 -0.0044531 538.89 0.39488 710.00 0.0014085 810.49 1930.0 2.1511 2.9440 3.2473 2531.2 -0.0044531 538.89 0.39488
299.38 1.1546e+05 undefined 813.43 1934.7 2.1562 710.00 0.0014085 813.43 1934.7 2.1562 2.9474 3.2504 2531.9 -0.0044486 538.71 0.39536 710.00 0.0014085 813.43 1934.7 2.1562 2.9474 3.2504 2531.9 -0.0044486 538.71 0.39536
300.38 1.1564e+05 undefined 816.38 1939.4 2.1614 710.00 0.0014085 816.38 1939.4 2.1614 2.9507 3.2536 2532.7 -0.0044441 538.53 0.39585 710.00 0.0014085 816.38 1939.4 2.1614 2.9507 3.2536 2532.7 -0.0044441 538.53 0.39585