Temperature (C) Pressure (psia) Quality (l+v) Internal Energy (l+v, kJ/kg) Enthalpy (l+v, kJ/kg) Entropy (l+v, J/g*K) Density (l, kg/m3) Volume (l, m3/kg) Internal Energy (l, kJ/kg) Enthalpy (l, kJ/kg) Entropy (l, J/g*K) Cv (l, J/g*K) Cp (l, J/g*K) Sound Spd. (l, m/s) Joule-Thomson (l, F/psia) Viscosity (l, uPa*s) Therm. Cond. (l, W/m*K) Density (v, kg/m3) Volume (v, m3/kg) Internal Energy (v, kJ/kg) Enthalpy (v, kJ/kg) Entropy (v, J/g*K) Cv (v, J/g*K) Cp (v, J/g*K) Sound Spd. (v, m/s) Joule-Thomson (v, F/psia) Viscosity (v, uPa*s) Therm. Cond. (v, W/m*K)
-187.62 2.4953e-08 3.6890e-13 -196.64 -196.64 -1.3959 733.13 0.0013640 -196.64 -196.64 -1.3959 1.3553 1.9158 2136.4 -0.0077592 10960. 0.20792 1.0669e-08 9.3732e+07 350.13 366.26 5.1858 0.69067 0.87923 143.28 6.1051 2.3259 0.0017061
-186.62 3.7339e-08 5.1495e-13 -194.73 -194.73 -1.3736 732.08 0.0013660 -194.73 -194.73 -1.3736 1.3539 1.9166 2129.6 -0.0077546 10073. 0.20765 1.5780e-08 6.3371e+07 350.82 367.14 5.1200 0.69462 0.88317 144.03 5.9178 2.3534 0.0017533
-185.62 5.5322e-08 7.0921e-13 -192.81 -192.81 -1.3516 731.04 0.0013679 -192.81 -192.81 -1.3516 1.3525 1.9174 2122.9 -0.0077498 9276.1 0.20737 2.3112e-08 4.3267e+07 351.52 368.02 5.0561 0.69857 0.88713 144.77 5.7383 2.3808 0.0018007
-184.62 8.1182e-08 9.6358e-13 -190.89 -190.89 -1.3298 730.00 0.0013699 -190.89 -190.89 -1.3298 1.3513 1.9182 2116.1 -0.0077448 8557.8 0.20708 3.3533e-08 2.9821e+07 352.22 368.91 4.9939 0.70253 0.89108 145.51 5.5662 2.4083 0.0018485
-183.62 1.1803e-07 1.2912e-12 -188.97 -188.97 -1.3083 728.96 0.0013718 -188.97 -188.97 -1.3083 1.3501 1.9191 2109.3 -0.0077395 7909.8 0.20678 4.8211e-08 2.0742e+07 352.92 369.81 4.9333 0.70648 0.89504 146.24 5.4011 2.4357 0.0018965
-182.62 1.7009e-07 1.7056e-12 -187.05 -187.05 -1.2869 727.92 0.0013738 -187.05 -187.05 -1.2869 1.3490 1.9201 2102.5 -0.0077340 7324.3 0.20647 6.8704e-08 1.4555e+07 353.63 370.70 4.8744 0.71043 0.89899 146.97 5.2426 2.4632 0.0019448
-181.62 2.4299e-07 2.2198e-12 -185.13 -185.13 -1.2658 726.88 0.0013757 -185.13 -185.13 -1.2658 1.3480 1.9210 2095.7 -0.0077283 6794.5 0.20616 9.7079e-08 1.0301e+07 354.35 371.60 4.8170 0.71438 0.90294 147.69 5.0904 2.4906 0.0019934
-180.62 3.4425e-07 2.8439e-12 -183.21 -183.21 -1.2450 725.85 0.0013777 -183.21 -183.21 -1.2450 1.3470 1.9220 2088.9 -0.0077225 6314.4 0.20584 1.3605e-07 7.3504e+06 355.06 372.51 4.7612 0.71833 0.90688 148.41 4.9442 2.5181 0.0020423
-179.62 4.8378e-07 3.5821e-12 -181.29 -181.29 -1.2243 724.81 0.0013797 -181.29 -181.29 -1.2243 1.3461 1.9231 2082.0 -0.0077164 5878.8 0.20551 1.8915e-07 5.2868e+06 355.78 373.42 4.7068 0.72227 0.91082 149.13 4.8038 2.5456 0.0020915
-178.62 6.7459e-07 4.4283e-12 -179.37 -179.37 -1.2038 723.78 0.0013816 -179.37 -179.37 -1.2038 1.3453 1.9241 2075.2 -0.0077102 5482.9 0.20517 2.6096e-07 3.8320e+06 356.51 374.33 4.6538 0.72620 0.91475 149.84 4.6688 2.5731 0.0021410
-177.62 9.3358e-07 5.3596e-12 -177.44 -177.44 -1.1836 722.75 0.0013836 -177.44 -177.44 -1.1836 1.3445 1.9252 2068.4 -0.0077039 5122.6 0.20483 3.5737e-07 2.7982e+06 357.23 375.25 4.6022 0.73012 0.91867 150.54 4.5390 2.6005 0.0021907
-176.62 1.2826e-06 6.3271e-12 -175.52 -175.52 -1.1635 721.72 0.0013856 -175.52 -175.52 -1.1635 1.3437 1.9263 2061.5 -0.0076973 4794.1 0.20447 4.8588e-07 2.0581e+06 357.97 376.17 4.5519 0.73403 0.92258 151.25 4.4142 2.6280 0.0022408
-175.62 1.7496e-06 7.2445e-12 -173.59 -173.59 -1.1437 720.69 0.0013876 -173.59 -173.59 -1.1437 1.3430 1.9274 2054.7 -0.0076907 4494.3 0.20411 6.5601e-07 1.5244e+06 358.70 377.09 4.5029 0.73792 0.92648 151.95 4.2941 2.6555 0.0022912
-174.62 2.3705e-06 7.9715e-12 -171.66 -171.66 -1.1240 719.66 0.0013895 -171.66 -171.66 -1.1240 1.3423 1.9286 2047.9 -0.0076838 4220.2 0.20375 8.7976e-07 1.1367e+06 359.44 378.02 4.4551 0.74181 0.93036 152.64 4.1784 2.6830 0.0023418
-173.62 3.1903e-06 8.2930e-12 -169.73 -169.73 -1.1045 718.64 0.0013915 -169.73 -169.73 -1.1045 1.3417 1.9298 2041.0 -0.0076769 3969.3 0.20338 1.1721e-06 8.5314e+05 360.19 378.95 4.4085 0.74568 0.93423 153.33 4.0671 2.7105 0.0023928
-172.62 4.2661e-06 7.8920e-12 -167.80 -167.80 -1.0852 717.61 0.0013935 -167.80 -167.80 -1.0852 1.3411 1.9310 2034.2 -0.0076698 3739.3 0.20300 1.5518e-06 6.4441e+05 360.93 379.89 4.3631 0.74953 0.93809 154.02 3.9599 2.7379 0.0024440
-171.62 5.6692e-06 6.3147e-12 -165.87 -165.87 -1.0661 716.58 0.0013955 -165.87 -165.87 -1.0661 1.3405 1.9322 2027.3 -0.0076625 3528.0 0.20261 2.0419e-06 4.8974e+05 361.69 380.83 4.3188 0.75337 0.94193 154.71 3.8566 2.7654 0.0024955
-170.62 7.4884e-06 2.9263e-12 -163.94 -163.94 -1.0472 715.56 0.0013975 -163.94 -163.94 -1.0472 1.3400 1.9334 2020.5 -0.0076552 3333.8 0.20222 2.6708e-06 3.7442e+05 362.44 381.77 4.2755 0.75720 0.94575 155.39 3.7570 2.7929 0.0025473
-169.62 188.79 undefined -162.27 -160.45 -1.0310 715.00 0.0013986 -162.27 -160.45 -1.0310 1.3407 1.9341 2018.0 -0.0076503 3194.9 0.20217 715.00 0.0013986 -162.27 -160.45 -1.0310 1.3407 1.9341 2018.0 -0.0076503 3194.9 0.20217
-168.62 605.06 undefined -160.93 -155.09 -1.0181 715.00 0.0013986 -160.93 -155.09 -1.0181 1.3428 1.9342 2020.9 -0.0076486 3111.7 0.20254 715.00 0.0013986 -160.93 -155.09 -1.0181 1.3428 1.9342 2020.9 -0.0076486 3111.7 0.20254
-167.62 1019.5 undefined -159.59 -149.75 -1.0053 715.00 0.0013986 -159.59 -149.75 -1.0053 1.3448 1.9344 2023.8 -0.0076468 3032.6 0.20291 715.00 0.0013986 -159.59 -149.75 -1.0053 1.3448 1.9344 2023.8 -0.0076468 3032.6 0.20291
-166.62 1432.3 undefined -158.24 -144.43 -0.99260 715.00 0.0013986 -158.24 -144.43 -0.99260 1.3469 1.9345 2026.7 -0.0076449 2957.4 0.20328 715.00 0.0013986 -158.24 -144.43 -0.99260 1.3469 1.9345 2026.7 -0.0076449 2957.4 0.20328
-165.62 1843.3 undefined -156.89 -139.12 -0.98000 715.00 0.0013986 -156.89 -139.12 -0.98000 1.3490 1.9347 2029.5 -0.0076430 2885.9 0.20365 715.00 0.0013986 -156.89 -139.12 -0.98000 1.3490 1.9347 2029.5 -0.0076430 2885.9 0.20365
-164.62 2252.7 undefined -155.54 -133.82 -0.96750 715.00 0.0013986 -155.54 -133.82 -0.96750 1.3511 1.9349 2032.4 -0.0076410 2817.7 0.20403 715.00 0.0013986 -155.54 -133.82 -0.96750 1.3511 1.9349 2032.4 -0.0076410 2817.7 0.20403
-163.62 2660.3 undefined -154.19 -128.54 -0.95510 715.00 0.0013986 -154.19 -128.54 -0.95510 1.3531 1.9351 2035.3 -0.0076389 2752.7 0.20440 715.00 0.0013986 -154.19 -128.54 -0.95510 1.3531 1.9351 2035.3 -0.0076389 2752.7 0.20440
-162.62 3066.4 undefined -152.84 -123.27 -0.94279 715.00 0.0013986 -152.84 -123.27 -0.94279 1.3552 1.9354 2038.1 -0.0076368 2690.7 0.20477 715.00 0.0013986 -152.84 -123.27 -0.94279 1.3552 1.9354 2038.1 -0.0076368 2690.7 0.20477
-161.62 3470.8 undefined -151.48 -118.01 -0.93058 715.00 0.0013986 -151.48 -118.01 -0.93058 1.3572 1.9356 2041.0 -0.0076347 2631.4 0.20515 715.00 0.0013986 -151.48 -118.01 -0.93058 1.3572 1.9356 2041.0 -0.0076347 2631.4 0.20515
-160.62 3873.6 undefined -150.12 -112.77 -0.91845 715.00 0.0013986 -150.12 -112.77 -0.91845 1.3593 1.9359 2043.8 -0.0076325 2574.8 0.20552 715.00 0.0013986 -150.12 -112.77 -0.91845 1.3593 1.9359 2043.8 -0.0076325 2574.8 0.20552
-159.62 4274.9 undefined -148.76 -107.54 -0.90642 715.00 0.0013986 -148.76 -107.54 -0.90642 1.3614 1.9362 2046.6 -0.0076303 2520.7 0.20589 715.00 0.0013986 -148.76 -107.54 -0.90642 1.3614 1.9362 2046.6 -0.0076303 2520.7 0.20589
-158.62 4674.6 undefined -147.40 -102.32 -0.89447 715.00 0.0013986 -147.40 -102.32 -0.89447 1.3634 1.9365 2049.5 -0.0076280 2468.9 0.20627 715.00 0.0013986 -147.40 -102.32 -0.89447 1.3634 1.9365 2049.5 -0.0076280 2468.9 0.20627
-157.62 5072.7 undefined -146.03 -97.117 -0.88261 715.00 0.0013986 -146.03 -97.117 -0.88261 1.3654 1.9368 2052.3 -0.0076257 2419.4 0.20664 715.00 0.0013986 -146.03 -97.117 -0.88261 1.3654 1.9368 2052.3 -0.0076257 2419.4 0.20664
-156.62 5469.4 undefined -144.67 -91.926 -0.87083 715.00 0.0013986 -144.67 -91.926 -0.87083 1.3675 1.9371 2055.0 -0.0076234 2371.8 0.20702 715.00 0.0013986 -144.67 -91.926 -0.87083 1.3675 1.9371 2055.0 -0.0076234 2371.8 0.20702
-155.62 5864.5 undefined -143.30 -86.747 -0.85914 715.00 0.0013986 -143.30 -86.747 -0.85914 1.3695 1.9375 2057.8 -0.0076211 2326.3 0.20739 715.00 0.0013986 -143.30 -86.747 -0.85914 1.3695 1.9375 2057.8 -0.0076211 2326.3 0.20739
-154.62 6258.2 undefined -141.93 -81.580 -0.84752 715.00 0.0013986 -141.93 -81.580 -0.84752 1.3716 1.9378 2060.6 -0.0076187 2282.6 0.20777 715.00 0.0013986 -141.93 -81.580 -0.84752 1.3716 1.9378 2060.6 -0.0076187 2282.6 0.20777
-153.62 6650.4 undefined -140.56 -76.426 -0.83599 715.00 0.0013986 -140.56 -76.426 -0.83599 1.3736 1.9382 2063.3 -0.0076163 2240.6 0.20814 715.00 0.0013986 -140.56 -76.426 -0.83599 1.3736 1.9382 2063.3 -0.0076163 2240.6 0.20814
-152.62 7041.1 undefined -139.18 -71.283 -0.82454 715.00 0.0013986 -139.18 -71.283 -0.82454 1.3756 1.9385 2066.0 -0.0076138 2200.2 0.20852 715.00 0.0013986 -139.18 -71.283 -0.82454 1.3756 1.9385 2066.0 -0.0076138 2200.2 0.20852
-151.62 7430.5 undefined -137.80 -66.152 -0.81316 715.00 0.0013986 -137.80 -66.152 -0.81316 1.3777 1.9389 2068.7 -0.0076114 2161.5 0.20889 715.00 0.0013986 -137.80 -66.152 -0.81316 1.3777 1.9389 2068.7 -0.0076114 2161.5 0.20889
-150.62 7818.4 undefined -136.43 -61.033 -0.80186 715.00 0.0013986 -136.43 -61.033 -0.80186 1.3797 1.9393 2071.4 -0.0076089 2124.2 0.20927 715.00 0.0013986 -136.43 -61.033 -0.80186 1.3797 1.9393 2071.4 -0.0076089 2124.2 0.20927
-149.62 8204.9 undefined -135.04 -55.925 -0.79064 715.00 0.0013986 -135.04 -55.925 -0.79064 1.3817 1.9397 2074.0 -0.0076064 2088.3 0.20965 715.00 0.0013986 -135.04 -55.925 -0.79064 1.3817 1.9397 2074.0 -0.0076064 2088.3 0.20965
-148.62 8590.0 undefined -133.66 -50.828 -0.77949 715.00 0.0013986 -133.66 -50.828 -0.77949 1.3838 1.9401 2076.7 -0.0076038 2053.7 0.21002 715.00 0.0013986 -133.66 -50.828 -0.77949 1.3838 1.9401 2076.7 -0.0076038 2053.7 0.21002
-147.62 8973.8 undefined -132.28 -45.743 -0.76842 715.00 0.0013986 -132.28 -45.743 -0.76842 1.3858 1.9406 2079.3 -0.0076013 2020.4 0.21040 715.00 0.0013986 -132.28 -45.743 -0.76842 1.3858 1.9406 2079.3 -0.0076013 2020.4 0.21040
-146.62 9356.2 undefined -130.89 -40.669 -0.75741 715.00 0.0013986 -130.89 -40.669 -0.75741 1.3878 1.9410 2081.9 -0.0075987 1988.3 0.21078 715.00 0.0013986 -130.89 -40.669 -0.75741 1.3878 1.9410 2081.9 -0.0075987 1988.3 0.21078
-145.62 9737.2 undefined -129.50 -35.605 -0.74648 715.00 0.0013986 -129.50 -35.605 -0.74648 1.3898 1.9414 2084.5 -0.0075961 1957.3 0.21116 715.00 0.0013986 -129.50 -35.605 -0.74648 1.3898 1.9414 2084.5 -0.0075961 1957.3 0.21116
-144.62 10117. undefined -128.11 -30.553 -0.73561 715.00 0.0013986 -128.11 -30.553 -0.73561 1.3919 1.9419 2087.1 -0.0075934 1927.4 0.21154 715.00 0.0013986 -128.11 -30.553 -0.73561 1.3919 1.9419 2087.1 -0.0075934 1927.4 0.21154
-143.62 10495. undefined -126.72 -25.511 -0.72482 715.00 0.0013986 -126.72 -25.511 -0.72482 1.3939 1.9424 2089.6 -0.0075908 1898.5 0.21191 715.00 0.0013986 -126.72 -25.511 -0.72482 1.3939 1.9424 2089.6 -0.0075908 1898.5 0.21191
-142.62 10872. undefined -125.32 -20.480 -0.71409 715.00 0.0013986 -125.32 -20.480 -0.71409 1.3959 1.9428 2092.2 -0.0075881 1870.6 0.21229 715.00 0.0013986 -125.32 -20.480 -0.71409 1.3959 1.9428 2092.2 -0.0075881 1870.6 0.21229
-141.62 11248. undefined -123.93 -15.459 -0.70343 715.00 0.0013986 -123.93 -15.459 -0.70343 1.3980 1.9433 2094.7 -0.0075854 1843.7 0.21267 715.00 0.0013986 -123.93 -15.459 -0.70343 1.3980 1.9433 2094.7 -0.0075854 1843.7 0.21267
-140.62 11623. undefined -122.53 -10.449 -0.69283 715.00 0.0013986 -122.53 -10.449 -0.69283 1.4000 1.9438 2097.2 -0.0075827 1817.6 0.21305 715.00 0.0013986 -122.53 -10.449 -0.69283 1.4000 1.9438 2097.2 -0.0075827 1817.6 0.21305
-139.62 11996. undefined -121.13 -5.4483 -0.68230 715.00 0.0013986 -121.13 -5.4483 -0.68230 1.4020 1.9443 2099.6 -0.0075799 1792.4 0.21343 715.00 0.0013986 -121.13 -5.4483 -0.68230 1.4020 1.9443 2099.6 -0.0075799 1792.4 0.21343
-138.62 12368. undefined -119.72 -0.45816 -0.67183 715.00 0.0013986 -119.72 -0.45816 -0.67183 1.4040 1.9448 2102.1 -0.0075771 1768.0 0.21381 715.00 0.0013986 -119.72 -0.45816 -0.67183 1.4040 1.9448 2102.1 -0.0075771 1768.0 0.21381
-137.62 12739. undefined -118.32 4.5220 -0.66143 715.00 0.0013986 -118.32 4.5220 -0.66143 1.4061 1.9454 2104.5 -0.0075743 1744.3 0.21419 715.00 0.0013986 -118.32 4.5220 -0.66143 1.4061 1.9454 2104.5 -0.0075743 1744.3 0.21419
-136.62 13108. undefined -116.91 9.4923 -0.65108 715.00 0.0013986 -116.91 9.4923 -0.65108 1.4081 1.9459 2106.9 -0.0075714 1721.4 0.21457 715.00 0.0013986 -116.91 9.4923 -0.65108 1.4081 1.9459 2106.9 -0.0075714 1721.4 0.21457
-135.62 13477. undefined -115.50 14.453 -0.64080 715.00 0.0013986 -115.50 14.453 -0.64080 1.4101 1.9464 2109.3 -0.0075686 1699.2 0.21495 715.00 0.0013986 -115.50 14.453 -0.64080 1.4101 1.9464 2109.3 -0.0075686 1699.2 0.21495
-134.62 13844. undefined -114.09 19.404 -0.63058 715.00 0.0013986 -114.09 19.404 -0.63058 1.4122 1.9470 2111.7 -0.0075656 1677.7 0.21533 715.00 0.0013986 -114.09 19.404 -0.63058 1.4122 1.9470 2111.7 -0.0075656 1677.7 0.21533
-133.62 14209. undefined -112.68 24.345 -0.62041 715.00 0.0013986 -112.68 24.345 -0.62041 1.4142 1.9476 2114.1 -0.0075627 1656.8 0.21572 715.00 0.0013986 -112.68 24.345 -0.62041 1.4142 1.9476 2114.1 -0.0075627 1656.8 0.21572
-132.62 14574. undefined -111.26 29.277 -0.61030 715.00 0.0013986 -111.26 29.277 -0.61030 1.4162 1.9482 2116.4 -0.0075597 1636.6 0.21610 715.00 0.0013986 -111.26 29.277 -0.61030 1.4162 1.9482 2116.4 -0.0075597 1636.6 0.21610
-131.62 14938. undefined -109.85 34.199 -0.60025 715.00 0.0013986 -109.85 34.199 -0.60025 1.4183 1.9488 2118.7 -0.0075567 1616.9 0.21648 715.00 0.0013986 -109.85 34.199 -0.60025 1.4183 1.9488 2118.7 -0.0075567 1616.9 0.21648
-130.62 15300. undefined -108.43 39.112 -0.59026 715.00 0.0013986 -108.43 39.112 -0.59026 1.4203 1.9494 2121.1 -0.0075537 1597.8 0.21686 715.00 0.0013986 -108.43 39.112 -0.59026 1.4203 1.9494 2121.1 -0.0075537 1597.8 0.21686
-129.62 15661. undefined -107.00 44.016 -0.58032 715.00 0.0013986 -107.00 44.016 -0.58032 1.4224 1.9500 2123.3 -0.0075506 1579.2 0.21725 715.00 0.0013986 -107.00 44.016 -0.58032 1.4224 1.9500 2123.3 -0.0075506 1579.2 0.21725
-128.62 16021. undefined -105.58 48.911 -0.57044 715.00 0.0013986 -105.58 48.911 -0.57044 1.4244 1.9506 2125.6 -0.0075475 1561.2 0.21763 715.00 0.0013986 -105.58 48.911 -0.57044 1.4244 1.9506 2125.6 -0.0075475 1561.2 0.21763
-127.62 16380. undefined -104.16 53.797 -0.56061 715.00 0.0013986 -104.16 53.797 -0.56061 1.4265 1.9513 2127.9 -0.0075443 1543.7 0.21801 715.00 0.0013986 -104.16 53.797 -0.56061 1.4265 1.9513 2127.9 -0.0075443 1543.7 0.21801
-126.62 16738. undefined -102.73 58.674 -0.55083 715.00 0.0013986 -102.73 58.674 -0.55083 1.4286 1.9519 2130.1 -0.0075411 1526.6 0.21839 715.00 0.0013986 -102.73 58.674 -0.55083 1.4286 1.9519 2130.1 -0.0075411 1526.6 0.21839
-125.62 17094. undefined -101.30 63.542 -0.54111 715.00 0.0013986 -101.30 63.542 -0.54111 1.4306 1.9526 2132.3 -0.0075379 1510.0 0.21878 715.00 0.0013986 -101.30 63.542 -0.54111 1.4306 1.9526 2132.3 -0.0075379 1510.0 0.21878
-124.62 17450. undefined -99.867 68.401 -0.53144 715.00 0.0013986 -99.867 68.401 -0.53144 1.4327 1.9533 2134.5 -0.0075346 1493.9 0.21916 715.00 0.0013986 -99.867 68.401 -0.53144 1.4327 1.9533 2134.5 -0.0075346 1493.9 0.21916
-123.62 17804. undefined -98.433 73.252 -0.52182 715.00 0.0013986 -98.433 73.252 -0.52182 1.4348 1.9540 2136.7 -0.0075313 1478.2 0.21955 715.00 0.0013986 -98.433 73.252 -0.52182 1.4348 1.9540 2136.7 -0.0075313 1478.2 0.21955
-122.62 18157. undefined -96.997 78.094 -0.51225 715.00 0.0013986 -96.997 78.094 -0.51225 1.4369 1.9547 2138.8 -0.0075279 1462.9 0.21993 715.00 0.0013986 -96.997 78.094 -0.51225 1.4369 1.9547 2138.8 -0.0075279 1462.9 0.21993
-121.62 18510. undefined -95.559 82.928 -0.50273 715.00 0.0013986 -95.559 82.928 -0.50273 1.4390 1.9554 2141.0 -0.0075245 1448.0 0.22032 715.00 0.0013986 -95.559 82.928 -0.50273 1.4390 1.9554 2141.0 -0.0075245 1448.0 0.22032
-120.62 18861. undefined -94.119 87.754 -0.49325 715.00 0.0013986 -94.119 87.754 -0.49325 1.4411 1.9562 2143.1 -0.0075210 1433.4 0.22070 715.00 0.0013986 -94.119 87.754 -0.49325 1.4411 1.9562 2143.1 -0.0075210 1433.4 0.22070
-119.62 19211. undefined -92.677 92.571 -0.48383 715.00 0.0013986 -92.677 92.571 -0.48383 1.4432 1.9569 2145.2 -0.0075175 1419.3 0.22109 715.00 0.0013986 -92.677 92.571 -0.48383 1.4432 1.9569 2145.2 -0.0075175 1419.3 0.22109
-118.62 19560. undefined -91.233 97.380 -0.47445 715.00 0.0013986 -91.233 97.380 -0.47445 1.4453 1.9577 2147.3 -0.0075140 1405.5 0.22147 715.00 0.0013986 -91.233 97.380 -0.47445 1.4453 1.9577 2147.3 -0.0075140 1405.5 0.22147
-117.62 19907. undefined -89.787 102.18 -0.46512 715.00 0.0013986 -89.787 102.18 -0.46512 1.4474 1.9585 2149.4 -0.0075104 1392.0 0.22186 715.00 0.0013986 -89.787 102.18 -0.46512 1.4474 1.9585 2149.4 -0.0075104 1392.0 0.22186
-116.62 20254. undefined -88.338 106.97 -0.45584 715.00 0.0013986 -88.338 106.97 -0.45584 1.4495 1.9593 2151.5 -0.0075067 1378.9 0.22225 715.00 0.0013986 -88.338 106.97 -0.45584 1.4495 1.9593 2151.5 -0.0075067 1378.9 0.22225
-115.62 20600. undefined -86.888 111.76 -0.44660 715.00 0.0013986 -86.888 111.76 -0.44660 1.4517 1.9601 2153.5 -0.0075030 1366.0 0.22263 715.00 0.0013986 -86.888 111.76 -0.44660 1.4517 1.9601 2153.5 -0.0075030 1366.0 0.22263
-114.62 20945. undefined -85.435 116.54 -0.43741 715.00 0.0013986 -85.435 116.54 -0.43741 1.4538 1.9610 2155.5 -0.0074993 1353.5 0.22302 715.00 0.0013986 -85.435 116.54 -0.43741 1.4538 1.9610 2155.5 -0.0074993 1353.5 0.22302
-113.62 21289. undefined -83.980 121.31 -0.42826 715.00 0.0013986 -83.980 121.31 -0.42826 1.4559 1.9618 2157.5 -0.0074954 1341.3 0.22341 715.00 0.0013986 -83.980 121.31 -0.42826 1.4559 1.9618 2157.5 -0.0074954 1341.3 0.22341
-112.62 21631. undefined -82.523 126.07 -0.41916 715.00 0.0013986 -82.523 126.07 -0.41916 1.4581 1.9627 2159.5 -0.0074916 1329.4 0.22379 715.00 0.0013986 -82.523 126.07 -0.41916 1.4581 1.9627 2159.5 -0.0074916 1329.4 0.22379
-111.62 21973. undefined -81.064 130.82 -0.41009 715.00 0.0013986 -81.064 130.82 -0.41009 1.4603 1.9636 2161.5 -0.0074877 1317.7 0.22418 715.00 0.0013986 -81.064 130.82 -0.41009 1.4603 1.9636 2161.5 -0.0074877 1317.7 0.22418
-110.62 22314. undefined -79.602 135.57 -0.40107 715.00 0.0013986 -79.602 135.57 -0.40107 1.4625 1.9645 2163.5 -0.0074837 1306.4 0.22457 715.00 0.0013986 -79.602 135.57 -0.40107 1.4625 1.9645 2163.5 -0.0074837 1306.4 0.22457
-109.62 22653. undefined -78.139 140.31 -0.39210 715.00 0.0013986 -78.139 140.31 -0.39210 1.4646 1.9654 2165.4 -0.0074796 1295.2 0.22496 715.00 0.0013986 -78.139 140.31 -0.39210 1.4646 1.9654 2165.4 -0.0074796 1295.2 0.22496
-108.62 22992. undefined -76.673 145.04 -0.38316 715.00 0.0013986 -76.673 145.04 -0.38316 1.4668 1.9663 2167.4 -0.0074756 1284.4 0.22535 715.00 0.0013986 -76.673 145.04 -0.38316 1.4668 1.9663 2167.4 -0.0074756 1284.4 0.22535
-107.62 23330. undefined -75.205 149.77 -0.37427 715.00 0.0013986 -75.205 149.77 -0.37427 1.4691 1.9673 2169.3 -0.0074714 1273.7 0.22574 715.00 0.0013986 -75.205 149.77 -0.37427 1.4691 1.9673 2169.3 -0.0074714 1273.7 0.22574
-106.62 23667. undefined -73.735 154.48 -0.36541 715.00 0.0013986 -73.735 154.48 -0.36541 1.4713 1.9683 2171.2 -0.0074672 1263.3 0.22613 715.00 0.0013986 -73.735 154.48 -0.36541 1.4713 1.9683 2171.2 -0.0074672 1263.3 0.22613
-105.62 24003. undefined -72.263 159.19 -0.35659 715.00 0.0013986 -72.263 159.19 -0.35659 1.4735 1.9693 2173.1 -0.0074629 1253.1 0.22652 715.00 0.0013986 -72.263 159.19 -0.35659 1.4735 1.9693 2173.1 -0.0074629 1253.1 0.22652
-104.62 24337. undefined -70.788 163.90 -0.34782 715.00 0.0013986 -70.788 163.90 -0.34782 1.4757 1.9703 2175.0 -0.0074586 1243.2 0.22691 715.00 0.0013986 -70.788 163.90 -0.34782 1.4757 1.9703 2175.0 -0.0074586 1243.2 0.22691
-103.62 24671. undefined -69.311 168.60 -0.33908 715.00 0.0013986 -69.311 168.60 -0.33908 1.4780 1.9713 2176.8 -0.0074542 1233.5 0.22730 715.00 0.0013986 -69.311 168.60 -0.33908 1.4780 1.9713 2176.8 -0.0074542 1233.5 0.22730
-102.62 25004. undefined -67.832 173.29 -0.33038 715.00 0.0013986 -67.832 173.29 -0.33038 1.4803 1.9723 2178.7 -0.0074497 1223.9 0.22769 715.00 0.0013986 -67.832 173.29 -0.33038 1.4803 1.9723 2178.7 -0.0074497 1223.9 0.22769
-101.62 25336. undefined -66.351 177.97 -0.32172 715.00 0.0013986 -66.351 177.97 -0.32172 1.4825 1.9734 2180.5 -0.0074452 1214.6 0.22808 715.00 0.0013986 -66.351 177.97 -0.32172 1.4825 1.9734 2180.5 -0.0074452 1214.6 0.22808
-100.62 25667. undefined -64.867 182.64 -0.31309 715.00 0.0013986 -64.867 182.64 -0.31309 1.4848 1.9745 2182.3 -0.0074406 1205.5 0.22847 715.00 0.0013986 -64.867 182.64 -0.31309 1.4848 1.9745 2182.3 -0.0074406 1205.5 0.22847
-99.625 25998. undefined -63.381 187.31 -0.30451 715.00 0.0013986 -63.381 187.31 -0.30451 1.4871 1.9756 2184.1 -0.0074360 1196.5 0.22886 715.00 0.0013986 -63.381 187.31 -0.30451 1.4871 1.9756 2184.1 -0.0074360 1196.5 0.22886
-98.625 26327. undefined -61.893 191.98 -0.29595 715.00 0.0013986 -61.893 191.98 -0.29595 1.4894 1.9767 2185.9 -0.0074313 1187.7 0.22925 715.00 0.0013986 -61.893 191.98 -0.29595 1.4894 1.9767 2185.9 -0.0074313 1187.7 0.22925
-97.625 26655. undefined -60.402 196.63 -0.28744 715.00 0.0013986 -60.402 196.63 -0.28744 1.4918 1.9779 2187.7 -0.0074265 1179.2 0.22964 715.00 0.0013986 -60.402 196.63 -0.28744 1.4918 1.9779 2187.7 -0.0074265 1179.2 0.22964
-96.625 26983. undefined -58.909 201.29 -0.27896 715.00 0.0013986 -58.909 201.29 -0.27896 1.4941 1.9791 2189.5 -0.0074217 1170.7 0.23004 715.00 0.0013986 -58.909 201.29 -0.27896 1.4941 1.9791 2189.5 -0.0074217 1170.7 0.23004
-95.625 27309. undefined -57.414 205.93 -0.27051 715.00 0.0013986 -57.414 205.93 -0.27051 1.4965 1.9802 2191.2 -0.0074168 1162.5 0.23043 715.00 0.0013986 -57.414 205.93 -0.27051 1.4965 1.9802 2191.2 -0.0074168 1162.5 0.23043
-94.625 27635. undefined -55.916 210.57 -0.26210 715.00 0.0013986 -55.916 210.57 -0.26210 1.4988 1.9815 2193.0 -0.0074118 1154.4 0.23082 715.00 0.0013986 -55.916 210.57 -0.26210 1.4988 1.9815 2193.0 -0.0074118 1154.4 0.23082
-93.625 27960. undefined -54.416 215.20 -0.25372 715.00 0.0013986 -54.416 215.20 -0.25372 1.5012 1.9827 2194.7 -0.0074067 1146.5 0.23122 715.00 0.0013986 -54.416 215.20 -0.25372 1.5012 1.9827 2194.7 -0.0074067 1146.5 0.23122
-92.625 28284. undefined -52.914 219.82 -0.24537 715.00 0.0013986 -52.914 219.82 -0.24537 1.5036 1.9839 2196.4 -0.0074016 1138.7 0.23161 715.00 0.0013986 -52.914 219.82 -0.24537 1.5036 1.9839 2196.4 -0.0074016 1138.7 0.23161
-91.625 28607. undefined -51.409 224.44 -0.23706 715.00 0.0013986 -51.409 224.44 -0.23706 1.5060 1.9852 2198.1 -0.0073965 1131.1 0.23200 715.00 0.0013986 -51.409 224.44 -0.23706 1.5060 1.9852 2198.1 -0.0073965 1131.1 0.23200
-90.625 28929. undefined -49.902 229.06 -0.22878 715.00 0.0013986 -49.902 229.06 -0.22878 1.5084 1.9865 2199.8 -0.0073912 1123.6 0.23240 715.00 0.0013986 -49.902 229.06 -0.22878 1.5084 1.9865 2199.8 -0.0073912 1123.6 0.23240
-89.625 29250. undefined -48.392 233.67 -0.22053 715.00 0.0013986 -48.392 233.67 -0.22053 1.5109 1.9878 2201.5 -0.0073859 1116.3 0.23279 715.00 0.0013986 -48.392 233.67 -0.22053 1.5109 1.9878 2201.5 -0.0073859 1116.3 0.23279
-88.625 29570. undefined -46.880 238.27 -0.21231 715.00 0.0013986 -46.880 238.27 -0.21231 1.5133 1.9891 2203.2 -0.0073805 1109.1 0.23319 715.00 0.0013986 -46.880 238.27 -0.21231 1.5133 1.9891 2203.2 -0.0073805 1109.1 0.23319
-87.625 29890. undefined -45.365 242.86 -0.20413 715.00 0.0013986 -45.365 242.86 -0.20413 1.5158 1.9905 2204.8 -0.0073751 1102.0 0.23358 715.00 0.0013986 -45.365 242.86 -0.20413 1.5158 1.9905 2204.8 -0.0073751 1102.0 0.23358
-86.625 30209. undefined -43.848 247.46 -0.19597 715.00 0.0013986 -43.848 247.46 -0.19597 1.5182 1.9919 2206.5 -0.0073695 1095.1 0.23398 715.00 0.0013986 -43.848 247.46 -0.19597 1.5182 1.9919 2206.5 -0.0073695 1095.1 0.23398
-85.625 30527. undefined -42.329 252.04 -0.18785 715.00 0.0013986 -42.329 252.04 -0.18785 1.5207 1.9933 2208.1 -0.0073639 1088.2 0.23437 715.00 0.0013986 -42.329 252.04 -0.18785 1.5207 1.9933 2208.1 -0.0073639 1088.2 0.23437
-84.625 30844. undefined -40.807 256.62 -0.17976 715.00 0.0013986 -40.807 256.62 -0.17976 1.5232 1.9947 2209.7 -0.0073583 1081.6 0.23477 715.00 0.0013986 -40.807 256.62 -0.17976 1.5232 1.9947 2209.7 -0.0073583 1081.6 0.23477
-83.625 31160. undefined -39.282 261.19 -0.17169 715.00 0.0013986 -39.282 261.19 -0.17169 1.5258 1.9961 2211.3 -0.0073525 1075.0 0.23516 715.00 0.0013986 -39.282 261.19 -0.17169 1.5258 1.9961 2211.3 -0.0073525 1075.0 0.23516
-82.625 31475. undefined -37.755 265.76 -0.16365 715.00 0.0013986 -37.755 265.76 -0.16365 1.5283 1.9976 2212.9 -0.0073467 1068.5 0.23556 715.00 0.0013986 -37.755 265.76 -0.16365 1.5283 1.9976 2212.9 -0.0073467 1068.5 0.23556
-81.625 31790. undefined -36.226 270.33 -0.15565 715.00 0.0013986 -36.226 270.33 -0.15565 1.5309 1.9991 2214.5 -0.0073409 1062.2 0.23596 715.00 0.0013986 -36.226 270.33 -0.15565 1.5309 1.9991 2214.5 -0.0073409 1062.2 0.23596
-80.625 32104. undefined -34.694 274.88 -0.14767 715.00 0.0013986 -34.694 274.88 -0.14767 1.5334 2.0006 2216.1 -0.0073349 1056.0 0.23635 715.00 0.0013986 -34.694 274.88 -0.14767 1.5334 2.0006 2216.1 -0.0073349 1056.0 0.23635
-79.625 32417. undefined -33.159 279.44 -0.13972 715.00 0.0013986 -33.159 279.44 -0.13972 1.5360 2.0021 2217.7 -0.0073289 1049.9 0.23675 715.00 0.0013986 -33.159 279.44 -0.13972 1.5360 2.0021 2217.7 -0.0073289 1049.9 0.23675
-78.625 32729. undefined -31.622 283.99 -0.13179 715.00 0.0013986 -31.622 283.99 -0.13179 1.5386 2.0037 2219.2 -0.0073228 1043.9 0.23715 715.00 0.0013986 -31.622 283.99 -0.13179 1.5386 2.0037 2219.2 -0.0073228 1043.9 0.23715
-77.625 33041. undefined -30.082 288.53 -0.12390 715.00 0.0013986 -30.082 288.53 -0.12390 1.5412 2.0053 2220.7 -0.0073167 1038.0 0.23755 715.00 0.0013986 -30.082 288.53 -0.12390 1.5412 2.0053 2220.7 -0.0073167 1038.0 0.23755
-76.625 33351. undefined -28.539 293.07 -0.11603 715.00 0.0013986 -28.539 293.07 -0.11603 1.5439 2.0069 2222.3 -0.0073105 1032.2 0.23794 715.00 0.0013986 -28.539 293.07 -0.11603 1.5439 2.0069 2222.3 -0.0073105 1032.2 0.23794
-75.625 33661. undefined -26.994 297.60 -0.10819 715.00 0.0013986 -26.994 297.60 -0.10819 1.5465 2.0085 2223.8 -0.0073042 1026.5 0.23834 715.00 0.0013986 -26.994 297.60 -0.10819 1.5465 2.0085 2223.8 -0.0073042 1026.5 0.23834
-74.625 33970. undefined -25.446 302.13 -0.10037 715.00 0.0013986 -25.446 302.13 -0.10037 1.5492 2.0101 2225.3 -0.0072978 1020.9 0.23874 715.00 0.0013986 -25.446 302.13 -0.10037 1.5492 2.0101 2225.3 -0.0072978 1020.9 0.23874
-73.625 34278. undefined -23.896 306.65 -0.092579 715.00 0.0013986 -23.896 306.65 -0.092579 1.5519 2.0118 2226.8 -0.0072914 1015.3 0.23914 715.00 0.0013986 -23.896 306.65 -0.092579 1.5519 2.0118 2226.8 -0.0072914 1015.3 0.23914
-72.625 34586. undefined -22.342 311.17 -0.084814 715.00 0.0013986 -22.342 311.17 -0.084814 1.5546 2.0135 2228.3 -0.0072849 1009.9 0.23954 715.00 0.0013986 -22.342 311.17 -0.084814 1.5546 2.0135 2228.3 -0.0072849 1009.9 0.23954
-71.625 34893. undefined -20.787 315.69 -0.077074 715.00 0.0013986 -20.787 315.69 -0.077074 1.5573 2.0152 2229.8 -0.0072783 1004.6 0.23994 715.00 0.0013986 -20.787 315.69 -0.077074 1.5573 2.0152 2229.8 -0.0072783 1004.6 0.23994
-70.625 35199. undefined -19.228 320.20 -0.069359 715.00 0.0013986 -19.228 320.20 -0.069359 1.5600 2.0169 2231.3 -0.0072717 999.35 0.24034 715.00 0.0013986 -19.228 320.20 -0.069359 1.5600 2.0169 2231.3 -0.0072717 999.35 0.24034
-69.625 35504. undefined -17.667 324.70 -0.061669 715.00 0.0013986 -17.667 324.70 -0.061669 1.5628 2.0187 2232.7 -0.0072650 994.19 0.24074 715.00 0.0013986 -17.667 324.70 -0.061669 1.5628 2.0187 2232.7 -0.0072650 994.19 0.24074
-68.625 35809. undefined -16.102 329.20 -0.054002 715.00 0.0013986 -16.102 329.20 -0.054002 1.5655 2.0205 2234.2 -0.0072582 989.11 0.24114 715.00 0.0013986 -16.102 329.20 -0.054002 1.5655 2.0205 2234.2 -0.0072582 989.11 0.24114
-67.625 36113. undefined -14.535 333.70 -0.046360 715.00 0.0013986 -14.535 333.70 -0.046360 1.5683 2.0223 2235.6 -0.0072514 984.12 0.24154 715.00 0.0013986 -14.535 333.70 -0.046360 1.5683 2.0223 2235.6 -0.0072514 984.12 0.24154
-66.625 36416. undefined -12.966 338.19 -0.038741 715.00 0.0013986 -12.966 338.19 -0.038741 1.5711 2.0241 2237.0 -0.0072445 979.21 0.24194 715.00 0.0013986 -12.966 338.19 -0.038741 1.5711 2.0241 2237.0 -0.0072445 979.21 0.24194
-65.625 36718. undefined -11.393 342.68 -0.031145 715.00 0.0013986 -11.393 342.68 -0.031145 1.5739 2.0260 2238.5 -0.0072375 974.37 0.24234 715.00 0.0013986 -11.393 342.68 -0.031145 1.5739 2.0260 2238.5 -0.0072375 974.37 0.24234
-64.625 37020. undefined -9.8180 347.16 -0.023572 715.00 0.0013986 -9.8180 347.16 -0.023572 1.5767 2.0278 2239.9 -0.0072305 969.61 0.24274 715.00 0.0013986 -9.8180 347.16 -0.023572 1.5767 2.0278 2239.9 -0.0072305 969.61 0.24274
-63.625 37320. undefined -8.2398 351.64 -0.016022 715.00 0.0013986 -8.2398 351.64 -0.016022 1.5796 2.0297 2241.3 -0.0072234 964.92 0.24315 715.00 0.0013986 -8.2398 351.64 -0.016022 1.5796 2.0297 2241.3 -0.0072234 964.92 0.24315
-62.625 37621. undefined -6.6588 356.12 -0.0084944 715.00 0.0013986 -6.6588 356.12 -0.0084944 1.5824 2.0316 2242.7 -0.0072162 960.31 0.24355 715.00 0.0013986 -6.6588 356.12 -0.0084944 1.5824 2.0316 2242.7 -0.0072162 960.31 0.24355
-61.625 37920. undefined -5.0749 360.59 -0.00098871 715.00 0.0013986 -5.0749 360.59 -0.00098871 1.5853 2.0336 2244.1 -0.0072090 955.77 0.24395 715.00 0.0013986 -5.0749 360.59 -0.00098871 1.5853 2.0336 2244.1 -0.0072090 955.77 0.24395
-60.625 38219. undefined -3.4881 365.06 0.0064952 715.00 0.0013986 -3.4881 365.06 0.0064952 1.5882 2.0355 2245.5 -0.0072017 951.30 0.24435 715.00 0.0013986 -3.4881 365.06 0.0064952 1.5882 2.0355 2245.5 -0.0072017 951.30 0.24435
-59.625 38517. undefined -1.8985 369.52 0.013958 715.00 0.0013986 -1.8985 369.52 0.013958 1.5911 2.0375 2246.8 -0.0071943 946.90 0.24476 715.00 0.0013986 -1.8985 369.52 0.013958 1.5911 2.0375 2246.8 -0.0071943 946.90 0.24476
-58.625 38814. undefined -0.30587 373.98 0.021399 715.00 0.0013986 -0.30587 373.98 0.021399 1.5941 2.0395 2248.2 -0.0071869 942.56 0.24516 715.00 0.0013986 -0.30587 373.98 0.021399 1.5941 2.0395 2248.2 -0.0071869 942.56 0.24516
-57.625 39111. undefined 1.2897 378.44 0.028819 715.00 0.0013986 1.2897 378.44 0.028819 1.5970 2.0415 2249.6 -0.0071794 938.29 0.24556 715.00 0.0013986 1.2897 378.44 0.028819 1.5970 2.0415 2249.6 -0.0071794 938.29 0.24556
-56.625 39407. undefined 2.8882 382.89 0.036219 715.00 0.0013986 2.8882 382.89 0.036219 1.6000 2.0436 2250.9 -0.0071719 934.08 0.24597 715.00 0.0013986 2.8882 382.89 0.036219 1.6000 2.0436 2250.9 -0.0071719 934.08 0.24597
-55.625 39702. undefined 4.4896 387.34 0.043598 715.00 0.0013986 4.4896 387.34 0.043598 1.6030 2.0457 2252.2 -0.0071642 929.94 0.24637 715.00 0.0013986 4.4896 387.34 0.043598 1.6030 2.0457 2252.2 -0.0071642 929.94 0.24637
-54.625 39997. undefined 6.0941 391.78 0.050957 715.00 0.0013986 6.0941 391.78 0.050957 1.6060 2.0478 2253.6 -0.0071566 925.85 0.24678 715.00 0.0013986 6.0941 391.78 0.050957 1.6060 2.0478 2253.6 -0.0071566 925.85 0.24678
-53.625 40291. undefined 7.7016 396.23 0.058296 715.00 0.0013986 7.7016 396.23 0.058296 1.6090 2.0499 2254.9 -0.0071488 921.83 0.24718 715.00 0.0013986 7.7016 396.23 0.058296 1.6090 2.0499 2254.9 -0.0071488 921.83 0.24718
-52.625 40584. undefined 9.3121 400.66 0.065616 715.00 0.0013986 9.3121 400.66 0.065616 1.6120 2.0520 2256.2 -0.0071410 917.87 0.24759 715.00 0.0013986 9.3121 400.66 0.065616 1.6120 2.0520 2256.2 -0.0071410 917.87 0.24759
-51.625 40877. undefined 10.926 405.10 0.072916 715.00 0.0013986 10.926 405.10 0.072916 1.6150 2.0542 2257.5 -0.0071332 913.96 0.24799 715.00 0.0013986 10.926 405.10 0.072916 1.6150 2.0542 2257.5 -0.0071332 913.96 0.24799
-50.625 41169. undefined 12.542 409.53 0.080197 715.00 0.0013986 12.542 409.53 0.080197 1.6181 2.0564 2258.8 -0.0071253 910.11 0.24840 715.00 0.0013986 12.542 409.53 0.080197 1.6181 2.0564 2258.8 -0.0071253 910.11 0.24840
-49.625 41460. undefined 14.162 413.96 0.087459 715.00 0.0013986 14.162 413.96 0.087459 1.6212 2.0586 2260.1 -0.0071173 906.32 0.24880 715.00 0.0013986 14.162 413.96 0.087459 1.6212 2.0586 2260.1 -0.0071173 906.32 0.24880
-48.625 41750. undefined 15.785 418.38 0.094703 715.00 0.0013986 15.785 418.38 0.094703 1.6243 2.0608 2261.4 -0.0071093 902.58 0.24921 715.00 0.0013986 15.785 418.38 0.094703 1.6243 2.0608 2261.4 -0.0071093 902.58 0.24921
-47.625 42040. undefined 17.410 422.81 0.10193 715.00 0.0013986 17.410 422.81 0.10193 1.6274 2.0631 2262.7 -0.0071012 898.89 0.24962 715.00 0.0013986 17.410 422.81 0.10193 1.6274 2.0631 2262.7 -0.0071012 898.89 0.24962
-46.625 42330. undefined 19.039 427.23 0.10913 715.00 0.0013986 19.039 427.23 0.10913 1.6305 2.0653 2264.0 -0.0070930 895.26 0.25002 715.00 0.0013986 19.039 427.23 0.10913 1.6305 2.0653 2264.0 -0.0070930 895.26 0.25002
-45.625 42618. undefined 20.671 431.64 0.11632 715.00 0.0013986 20.671 431.64 0.11632 1.6337 2.0676 2265.2 -0.0070849 891.67 0.25043 715.00 0.0013986 20.671 431.64 0.11632 1.6337 2.0676 2265.2 -0.0070849 891.67 0.25043
-44.625 42906. undefined 22.307 436.05 0.12350 715.00 0.0013986 22.307 436.05 0.12350 1.6368 2.0699 2266.5 -0.0070766 888.14 0.25084 715.00 0.0013986 22.307 436.05 0.12350 1.6368 2.0699 2266.5 -0.0070766 888.14 0.25084
-43.625 43194. undefined 23.945 440.46 0.13065 715.00 0.0013986 23.945 440.46 0.13065 1.6400 2.0723 2267.7 -0.0070683 884.66 0.25125 715.00 0.0013986 23.945 440.46 0.13065 1.6400 2.0723 2267.7 -0.0070683 884.66 0.25125
-42.625 43481. undefined 25.587 444.87 0.13779 715.00 0.0013986 25.587 444.87 0.13779 1.6432 2.0746 2269.0 -0.0070600 881.22 0.25165 715.00 0.0013986 25.587 444.87 0.13779 1.6432 2.0746 2269.0 -0.0070600 881.22 0.25165
-41.625 43767. undefined 27.232 449.28 0.14491 715.00 0.0013986 27.232 449.28 0.14491 1.6464 2.0770 2270.2 -0.0070515 877.83 0.25206 715.00 0.0013986 27.232 449.28 0.14491 1.6464 2.0770 2270.2 -0.0070515 877.83 0.25206
-40.625 44052. undefined 28.880 453.68 0.15201 715.00 0.0013986 28.880 453.68 0.15201 1.6496 2.0794 2271.5 -0.0070431 874.49 0.25247 715.00 0.0013986 28.880 453.68 0.15201 1.6496 2.0794 2271.5 -0.0070431 874.49 0.25247
-39.625 44337. undefined 30.531 458.08 0.15909 715.00 0.0013986 30.531 458.08 0.15909 1.6529 2.0818 2272.7 -0.0070346 871.19 0.25288 715.00 0.0013986 30.531 458.08 0.15909 1.6529 2.0818 2272.7 -0.0070346 871.19 0.25288
-38.625 44622. undefined 32.185 462.47 0.16616 715.00 0.0013986 32.185 462.47 0.16616 1.6561 2.0842 2273.9 -0.0070260 867.94 0.25329 715.00 0.0013986 32.185 462.47 0.16616 1.6561 2.0842 2273.9 -0.0070260 867.94 0.25329
-37.625 44905. undefined 33.843 466.87 0.17322 715.00 0.0013986 33.843 466.87 0.17322 1.6594 2.0867 2275.1 -0.0070174 864.73 0.25370 715.00 0.0013986 33.843 466.87 0.17322 1.6594 2.0867 2275.1 -0.0070174 864.73 0.25370
-36.625 45188. undefined 35.504 471.26 0.18026 715.00 0.0013986 35.504 471.26 0.18026 1.6627 2.0892 2276.3 -0.0070088 861.57 0.25411 715.00 0.0013986 35.504 471.26 0.18026 1.6627 2.0892 2276.3 -0.0070088 861.57 0.25411
-35.625 45471. undefined 37.168 475.64 0.18728 715.00 0.0013986 37.168 475.64 0.18728 1.6660 2.0917 2277.5 -0.0070001 858.45 0.25452 715.00 0.0013986 37.168 475.64 0.18728 1.6660 2.0917 2277.5 -0.0070001 858.45 0.25452
-34.625 45753. undefined 38.836 480.03 0.19428 715.00 0.0013986 38.836 480.03 0.19428 1.6693 2.0942 2278.7 -0.0069913 855.36 0.25493 715.00 0.0013986 38.836 480.03 0.19428 1.6693 2.0942 2278.7 -0.0069913 855.36 0.25493
-33.625 46034. undefined 40.507 484.41 0.20127 715.00 0.0013986 40.507 484.41 0.20127 1.6726 2.0967 2279.9 -0.0069825 852.32 0.25534 715.00 0.0013986 40.507 484.41 0.20127 1.6726 2.0967 2279.9 -0.0069825 852.32 0.25534
-32.625 46315. undefined 42.181 488.80 0.20825 715.00 0.0013986 42.181 488.80 0.20825 1.6760 2.0993 2281.1 -0.0069737 849.32 0.25575 715.00 0.0013986 42.181 488.80 0.20825 1.6760 2.0993 2281.1 -0.0069737 849.32 0.25575
-31.625 46595. undefined 43.859 493.17 0.21521 715.00 0.0013986 43.859 493.17 0.21521 1.6793 2.1019 2282.3 -0.0069648 846.36 0.25616 715.00 0.0013986 43.859 493.17 0.21521 1.6793 2.1019 2282.3 -0.0069648 846.36 0.25616
-30.625 46874. undefined 45.540 497.55 0.22216 715.00 0.0013986 45.540 497.55 0.22216 1.6827 2.1045 2283.5 -0.0069559 843.44 0.25657 715.00 0.0013986 45.540 497.55 0.22216 1.6827 2.1045 2283.5 -0.0069559 843.44 0.25657
-29.625 47153. undefined 47.224 501.92 0.22909 715.00 0.0013986 47.224 501.92 0.22909 1.6861 2.1071 2284.6 -0.0069470 840.55 0.25699 715.00 0.0013986 47.224 501.92 0.22909 1.6861 2.1071 2284.6 -0.0069470 840.55 0.25699
-28.625 47432. undefined 48.912 506.30 0.23600 715.00 0.0013986 48.912 506.30 0.23600 1.6895 2.1097 2285.8 -0.0069380 837.71 0.25740 715.00 0.0013986 48.912 506.30 0.23600 1.6895 2.1097 2285.8 -0.0069380 837.71 0.25740
-27.625 47710. undefined 50.603 510.67 0.24291 715.00 0.0013986 50.603 510.67 0.24291 1.6929 2.1124 2287.0 -0.0069289 834.90 0.25781 715.00 0.0013986 50.603 510.67 0.24291 1.6929 2.1124 2287.0 -0.0069289 834.90 0.25781
-26.625 47987. undefined 52.298 515.04 0.24979 715.00 0.0013986 52.298 515.04 0.24979 1.6963 2.1151 2288.1 -0.0069198 832.12 0.25822 715.00 0.0013986 52.298 515.04 0.24979 1.6963 2.1151 2288.1 -0.0069198 832.12 0.25822
-25.625 48263. undefined 53.996 519.40 0.25667 715.00 0.0013986 53.996 519.40 0.25667 1.6998 2.1178 2289.3 -0.0069107 829.38 0.25864 715.00 0.0013986 53.996 519.40 0.25667 1.6998 2.1178 2289.3 -0.0069107 829.38 0.25864
-24.625 48540. undefined 55.698 523.76 0.26353 715.00 0.0013986 55.698 523.76 0.26353 1.7032 2.1205 2290.4 -0.0069016 826.68 0.25905 715.00 0.0013986 55.698 523.76 0.26353 1.7032 2.1205 2290.4 -0.0069016 826.68 0.25905
-23.625 48815. undefined 57.403 528.13 0.27037 715.00 0.0013986 57.403 528.13 0.27037 1.7067 2.1232 2291.5 -0.0068924 824.00 0.25946 715.00 0.0013986 57.403 528.13 0.27037 1.7067 2.1232 2291.5 -0.0068924 824.00 0.25946
-22.625 49090. undefined 59.111 532.49 0.27721 715.00 0.0013986 59.111 532.49 0.27721 1.7102 2.1260 2292.7 -0.0068832 821.37 0.25988 715.00 0.0013986 59.111 532.49 0.27721 1.7102 2.1260 2292.7 -0.0068832 821.37 0.25988
-21.625 49364. undefined 60.823 536.85 0.28403 715.00 0.0013986 60.823 536.85 0.28403 1.7137 2.1287 2293.8 -0.0068739 818.76 0.26029 715.00 0.0013986 60.823 536.85 0.28403 1.7137 2.1287 2293.8 -0.0068739 818.76 0.26029
-20.625 49638. undefined 62.538 541.20 0.29083 715.00 0.0013986 62.538 541.20 0.29083 1.7172 2.1315 2294.9 -0.0068646 816.19 0.26071 715.00 0.0013986 62.538 541.20 0.29083 1.7172 2.1315 2294.9 -0.0068646 816.19 0.26071
-19.625 49912. undefined 64.257 545.56 0.29763 715.00 0.0013986 64.257 545.56 0.29763 1.7207 2.1343 2296.1 -0.0068553 813.65 0.26112 715.00 0.0013986 64.257 545.56 0.29763 1.7207 2.1343 2296.1 -0.0068553 813.65 0.26112
-18.625 50184. undefined 65.980 549.91 0.30441 715.00 0.0013986 65.980 549.91 0.30441 1.7243 2.1371 2297.2 -0.0068459 811.14 0.26154 715.00 0.0013986 65.980 549.91 0.30441 1.7243 2.1371 2297.2 -0.0068459 811.14 0.26154
-17.625 50457. undefined 67.706 554.26 0.31118 715.00 0.0013986 67.706 554.26 0.31118 1.7278 2.1400 2298.3 -0.0068365 808.66 0.26195 715.00 0.0013986 67.706 554.26 0.31118 1.7278 2.1400 2298.3 -0.0068365 808.66 0.26195
-16.625 50728. undefined 69.436 558.61 0.31793 715.00 0.0013986 69.436 558.61 0.31793 1.7314 2.1428 2299.4 -0.0068271 806.21 0.26237 715.00 0.0013986 69.436 558.61 0.31793 1.7314 2.1428 2299.4 -0.0068271 806.21 0.26237
-15.625 51000. undefined 71.169 562.96 0.32468 715.00 0.0013986 71.169 562.96 0.32468 1.7350 2.1457 2300.5 -0.0068177 803.79 0.26278 715.00 0.0013986 71.169 562.96 0.32468 1.7350 2.1457 2300.5 -0.0068177 803.79 0.26278
-14.625 51270. undefined 72.906 567.31 0.33141 715.00 0.0013986 72.906 567.31 0.33141 1.7386 2.1486 2301.6 -0.0068082 801.40 0.26320 715.00 0.0013986 72.906 567.31 0.33141 1.7386 2.1486 2301.6 -0.0068082 801.40 0.26320
-13.625 51540. undefined 74.646 571.65 0.33813 715.00 0.0013986 74.646 571.65 0.33813 1.7422 2.1515 2302.7 -0.0067987 799.04 0.26361 715.00 0.0013986 74.646 571.65 0.33813 1.7422 2.1515 2302.7 -0.0067987 799.04 0.26361
-12.625 51810. undefined 76.390 575.99 0.34483 715.00 0.0013986 76.390 575.99 0.34483 1.7458 2.1544 2303.8 -0.0067892 796.71 0.26403 715.00 0.0013986 76.390 575.99 0.34483 1.7458 2.1544 2303.8 -0.0067892 796.71 0.26403
-11.625 52079. undefined 78.138 580.34 0.35153 715.00 0.0013986 78.138 580.34 0.35153 1.7494 2.1573 2304.9 -0.0067796 794.40 0.26445 715.00 0.0013986 78.138 580.34 0.35153 1.7494 2.1573 2304.9 -0.0067796 794.40 0.26445
-10.625 52348. undefined 79.889 584.68 0.35821 715.00 0.0013986 79.889 584.68 0.35821 1.7531 2.1603 2306.0 -0.0067700 792.13 0.26487 715.00 0.0013986 79.889 584.68 0.35821 1.7531 2.1603 2306.0 -0.0067700 792.13 0.26487
-9.6250 52616. undefined 81.644 589.02 0.36488 715.00 0.0013986 81.644 589.02 0.36488 1.7567 2.1633 2307.0 -0.0067604 789.87 0.26528 715.00 0.0013986 81.644 589.02 0.36488 1.7567 2.1633 2307.0 -0.0067604 789.87 0.26528
-8.6250 52883. undefined 83.402 593.36 0.37154 715.00 0.0013986 83.402 593.36 0.37154 1.7604 2.1663 2308.1 -0.0067508 787.65 0.26570 715.00 0.0013986 83.402 593.36 0.37154 1.7604 2.1663 2308.1 -0.0067508 787.65 0.26570
-7.6250 53150. undefined 85.164 597.69 0.37819 715.00 0.0013986 85.164 597.69 0.37819 1.7640 2.1693 2309.2 -0.0067412 785.45 0.26612 715.00 0.0013986 85.164 597.69 0.37819 1.7640 2.1693 2309.2 -0.0067412 785.45 0.26612
-6.6250 53417. undefined 86.930 602.03 0.38483 715.00 0.0013986 86.930 602.03 0.38483 1.7677 2.1723 2310.3 -0.0067315 783.28 0.26654 715.00 0.0013986 86.930 602.03 0.38483 1.7677 2.1723 2310.3 -0.0067315 783.28 0.26654
-5.6250 53683. undefined 88.700 606.36 0.39146 715.00 0.0013986 88.700 606.36 0.39146 1.7714 2.1753 2311.3 -0.0067218 781.13 0.26696 715.00 0.0013986 88.700 606.36 0.39146 1.7714 2.1753 2311.3 -0.0067218 781.13 0.26696
-4.6250 53948. undefined 90.473 610.70 0.39807 715.00 0.0013986 90.473 610.70 0.39807 1.7751 2.1784 2312.4 -0.0067121 779.01 0.26738 715.00 0.0013986 90.473 610.70 0.39807 1.7751 2.1784 2312.4 -0.0067121 779.01 0.26738
-3.6250 54213. undefined 92.250 615.03 0.40468 715.00 0.0013986 92.250 615.03 0.40468 1.7788 2.1814 2313.4 -0.0067024 776.91 0.26780 715.00 0.0013986 92.250 615.03 0.40468 1.7788 2.1814 2313.4 -0.0067024 776.91 0.26780
-2.6250 54478. undefined 94.031 619.36 0.41127 715.00 0.0013986 94.031 619.36 0.41127 1.7826 2.1845 2314.5 -0.0066926 774.84 0.26822 715.00 0.0013986 94.031 619.36 0.41127 1.7826 2.1845 2314.5 -0.0066926 774.84 0.26822
-1.6250 54742. undefined 95.815 623.69 0.41786 715.00 0.0013986 95.815 623.69 0.41786 1.7863 2.1876 2315.5 -0.0066828 772.79 0.26864 715.00 0.0013986 95.815 623.69 0.41786 1.7863 2.1876 2315.5 -0.0066828 772.79 0.26864
-0.62500 55005. undefined 97.603 628.02 0.42443 715.00 0.0013986 97.603 628.02 0.42443 1.7901 2.1907 2316.6 -0.0066731 770.76 0.26906 715.00 0.0013986 97.603 628.02 0.42443 1.7901 2.1907 2316.6 -0.0066731 770.76 0.26906
0.37500 55268. undefined 99.395 632.35 0.43099 715.00 0.0013986 99.395 632.35 0.43099 1.7938 2.1938 2317.6 -0.0066633 768.76 0.26948 715.00 0.0013986 99.395 632.35 0.43099 1.7938 2.1938 2317.6 -0.0066633 768.76 0.26948
1.3750 55531. undefined 101.19 636.68 0.43755 715.00 0.0013986 101.19 636.68 0.43755 1.7976 2.1969 2318.7 -0.0066535 766.78 0.26990 715.00 0.0013986 101.19 636.68 0.43755 1.7976 2.1969 2318.7 -0.0066535 766.78 0.26990
2.3750 55793. undefined 102.99 641.00 0.44409 715.00 0.0013986 102.99 641.00 0.44409 1.8014 2.2001 2319.7 -0.0066436 764.82 0.27032 715.00 0.0013986 102.99 641.00 0.44409 1.8014 2.2001 2319.7 -0.0066436 764.82 0.27032
3.3750 56055. undefined 104.79 645.33 0.45062 715.00 0.0013986 104.79 645.33 0.45062 1.8052 2.2033 2320.7 -0.0066338 762.88 0.27074 715.00 0.0013986 104.79 645.33 0.45062 1.8052 2.2033 2320.7 -0.0066338 762.88 0.27074
4.3750 56316. undefined 106.60 649.66 0.45715 715.00 0.0013986 106.60 649.66 0.45715 1.8090 2.2064 2321.8 -0.0066239 760.97 0.27116 715.00 0.0013986 106.60 649.66 0.45715 1.8090 2.2064 2321.8 -0.0066239 760.97 0.27116
5.3750 56576. undefined 108.41 653.98 0.46366 715.00 0.0013986 108.41 653.98 0.46366 1.8128 2.2096 2322.8 -0.0066141 759.07 0.27158 715.00 0.0013986 108.41 653.98 0.46366 1.8128 2.2096 2322.8 -0.0066141 759.07 0.27158
6.3750 56837. undefined 110.23 658.30 0.47016 715.00 0.0013986 110.23 658.30 0.47016 1.8166 2.2128 2323.8 -0.0066042 757.20 0.27201 715.00 0.0013986 110.23 658.30 0.47016 1.8166 2.2128 2323.8 -0.0066042 757.20 0.27201
7.3750 57096. undefined 112.04 662.63 0.47666 715.00 0.0013986 112.04 662.63 0.47666 1.8204 2.2160 2324.9 -0.0065943 755.35 0.27243 715.00 0.0013986 112.04 662.63 0.47666 1.8204 2.2160 2324.9 -0.0065943 755.35 0.27243
8.3750 57356. undefined 113.87 666.95 0.48314 715.00 0.0013986 113.87 666.95 0.48314 1.8243 2.2193 2325.9 -0.0065844 753.51 0.27285 715.00 0.0013986 113.87 666.95 0.48314 1.8243 2.2193 2325.9 -0.0065844 753.51 0.27285
9.3750 57614. undefined 115.69 671.27 0.48962 715.00 0.0013986 115.69 671.27 0.48962 1.8281 2.2225 2326.9 -0.0065745 751.70 0.27328 715.00 0.0013986 115.69 671.27 0.48962 1.8281 2.2225 2326.9 -0.0065745 751.70 0.27328
10.375 57873. undefined 117.52 675.59 0.49608 715.00 0.0013986 117.52 675.59 0.49608 1.8320 2.2258 2327.9 -0.0065646 749.91 0.27370 715.00 0.0013986 117.52 675.59 0.49608 1.8320 2.2258 2327.9 -0.0065646 749.91 0.27370
11.375 58131. undefined 119.36 679.91 0.50254 715.00 0.0013986 119.36 679.91 0.50254 1.8358 2.2290 2328.9 -0.0065547 748.14 0.27412 715.00 0.0013986 119.36 679.91 0.50254 1.8358 2.2290 2328.9 -0.0065547 748.14 0.27412
12.375 58388. undefined 121.20 684.23 0.50899 715.00 0.0013986 121.20 684.23 0.50899 1.8397 2.2323 2329.9 -0.0065447 746.38 0.27455 715.00 0.0013986 121.20 684.23 0.50899 1.8397 2.2323 2329.9 -0.0065447 746.38 0.27455
13.375 58645. undefined 123.04 688.55 0.51543 715.00 0.0013986 123.04 688.55 0.51543 1.8436 2.2356 2330.9 -0.0065348 744.65 0.27497 715.00 0.0013986 123.04 688.55 0.51543 1.8436 2.2356 2330.9 -0.0065348 744.65 0.27497
14.375 58902. undefined 124.88 692.87 0.52186 715.00 0.0013986 124.88 692.87 0.52186 1.8475 2.2389 2331.9 -0.0065249 742.93 0.27540 715.00 0.0013986 124.88 692.87 0.52186 1.8475 2.2389 2331.9 -0.0065249 742.93 0.27540
15.375 59158. undefined 126.73 697.19 0.52828 715.00 0.0013986 126.73 697.19 0.52828 1.8514 2.2422 2332.9 -0.0065149 741.23 0.27582 715.00 0.0013986 126.73 697.19 0.52828 1.8514 2.2422 2332.9 -0.0065149 741.23 0.27582
16.375 59413. undefined 128.59 701.51 0.53469 715.00 0.0013986 128.59 701.51 0.53469 1.8553 2.2455 2333.9 -0.0065050 739.55 0.27625 715.00 0.0013986 128.59 701.51 0.53469 1.8553 2.2455 2333.9 -0.0065050 739.55 0.27625
17.375 59669. undefined 130.44 705.83 0.54109 715.00 0.0013986 130.44 705.83 0.54109 1.8592 2.2489 2334.9 -0.0064950 737.89 0.27667 715.00 0.0013986 130.44 705.83 0.54109 1.8592 2.2489 2334.9 -0.0064950 737.89 0.27667
18.375 59923. undefined 132.30 710.15 0.54749 715.00 0.0013986 132.30 710.15 0.54749 1.8631 2.2522 2335.9 -0.0064851 736.25 0.27710 715.00 0.0013986 132.30 710.15 0.54749 1.8631 2.2522 2335.9 -0.0064851 736.25 0.27710
19.375 60178. undefined 134.17 714.46 0.55388 715.00 0.0013986 134.17 714.46 0.55388 1.8670 2.2556 2336.9 -0.0064751 734.62 0.27752 715.00 0.0013986 134.17 714.46 0.55388 1.8670 2.2556 2336.9 -0.0064751 734.62 0.27752
20.375 60432. undefined 136.04 718.78 0.56025 715.00 0.0013986 136.04 718.78 0.56025 1.8710 2.2590 2337.9 -0.0064651 733.01 0.27795 715.00 0.0013986 136.04 718.78 0.56025 1.8710 2.2590 2337.9 -0.0064651 733.01 0.27795
21.375 60685. undefined 137.91 723.10 0.56662 715.00 0.0013986 137.91 723.10 0.56662 1.8749 2.2623 2338.9 -0.0064552 731.42 0.27838 715.00 0.0013986 137.91 723.10 0.56662 1.8749 2.2623 2338.9 -0.0064552 731.42 0.27838
22.375 60938. undefined 139.79 727.41 0.57299 715.00 0.0013986 139.79 727.41 0.57299 1.8789 2.2657 2339.9 -0.0064452 729.84 0.27880 715.00 0.0013986 139.79 727.41 0.57299 1.8789 2.2657 2339.9 -0.0064452 729.84 0.27880
23.375 61191. undefined 141.67 731.73 0.57934 715.00 0.0013986 141.67 731.73 0.57934 1.8828 2.2691 2340.9 -0.0064353 728.28 0.27923 715.00 0.0013986 141.67 731.73 0.57934 1.8828 2.2691 2340.9 -0.0064353 728.28 0.27923
24.375 61443. undefined 143.55 736.05 0.58569 715.00 0.0013986 143.55 736.05 0.58569 1.8868 2.2725 2341.8 -0.0064253 726.74 0.27966 715.00 0.0013986 143.55 736.05 0.58569 1.8868 2.2725 2341.8 -0.0064253 726.74 0.27966
25.375 61695. undefined 145.44 740.36 0.59202 715.00 0.0013986 145.44 740.36 0.59202 1.8908 2.2760 2342.8 -0.0064153 725.21 0.28009 715.00 0.0013986 145.44 740.36 0.59202 1.8908 2.2760 2342.8 -0.0064153 725.21 0.28009
26.375 61946. undefined 147.33 744.68 0.59835 715.00 0.0013986 147.33 744.68 0.59835 1.8947 2.2794 2343.8 -0.0064054 723.70 0.28052 715.00 0.0013986 147.33 744.68 0.59835 1.8947 2.2794 2343.8 -0.0064054 723.70 0.28052
27.375 62197. undefined 149.23 749.00 0.60467 715.00 0.0013986 149.23 749.00 0.60467 1.8987 2.2828 2344.8 -0.0063954 722.20 0.28094 715.00 0.0013986 149.23 749.00 0.60467 1.8987 2.2828 2344.8 -0.0063954 722.20 0.28094
28.375 62447. undefined 151.13 753.31 0.61099 715.00 0.0013986 151.13 753.31 0.61099 1.9027 2.2863 2345.7 -0.0063855 720.72 0.28137 715.00 0.0013986 151.13 753.31 0.61099 1.9027 2.2863 2345.7 -0.0063855 720.72 0.28137
29.375 62697. undefined 153.04 757.63 0.61730 715.00 0.0013986 153.04 757.63 0.61730 1.9067 2.2897 2346.7 -0.0063755 719.25 0.28180 715.00 0.0013986 153.04 757.63 0.61730 1.9067 2.2897 2346.7 -0.0063755 719.25 0.28180
30.375 62947. undefined 154.95 761.94 0.62359 715.00 0.0013986 154.95 761.94 0.62359 1.9107 2.2932 2347.7 -0.0063656 717.80 0.28223 715.00 0.0013986 154.95 761.94 0.62359 1.9107 2.2932 2347.7 -0.0063656 717.80 0.28223
31.375 63196. undefined 156.86 766.26 0.62989 715.00 0.0013986 156.86 766.26 0.62989 1.9147 2.2967 2348.6 -0.0063557 716.36 0.28266 715.00 0.0013986 156.86 766.26 0.62989 1.9147 2.2967 2348.6 -0.0063557 716.36 0.28266
32.375 63445. undefined 158.77 770.58 0.63617 715.00 0.0013986 158.77 770.58 0.63617 1.9188 2.3002 2349.6 -0.0063457 714.94 0.28309 715.00 0.0013986 158.77 770.58 0.63617 1.9188 2.3002 2349.6 -0.0063457 714.94 0.28309
33.375 63694. undefined 160.70 774.89 0.64245 715.00 0.0013986 160.70 774.89 0.64245 1.9228 2.3037 2350.5 -0.0063358 713.53 0.28352 715.00 0.0013986 160.70 774.89 0.64245 1.9228 2.3037 2350.5 -0.0063358 713.53 0.28352
34.375 63942. undefined 162.62 779.21 0.64872 715.00 0.0013986 162.62 779.21 0.64872 1.9268 2.3072 2351.5 -0.0063259 712.14 0.28395 715.00 0.0013986 162.62 779.21 0.64872 1.9268 2.3072 2351.5 -0.0063259 712.14 0.28395
35.375 64189. undefined 164.55 783.53 0.65498 715.00 0.0013986 164.55 783.53 0.65498 1.9308 2.3107 2352.5 -0.0063160 710.76 0.28438 715.00 0.0013986 164.55 783.53 0.65498 1.9308 2.3107 2352.5 -0.0063160 710.76 0.28438
36.375 64437. undefined 166.48 787.84 0.66123 715.00 0.0013986 166.48 787.84 0.66123 1.9349 2.3142 2353.4 -0.0063061 709.39 0.28481 715.00 0.0013986 166.48 787.84 0.66123 1.9349 2.3142 2353.4 -0.0063061 709.39 0.28481
37.375 64683. undefined 168.42 792.16 0.66748 715.00 0.0013986 168.42 792.16 0.66748 1.9389 2.3177 2354.4 -0.0062962 708.04 0.28525 715.00 0.0013986 168.42 792.16 0.66748 1.9389 2.3177 2354.4 -0.0062962 708.04 0.28525
38.375 64930. undefined 170.36 796.48 0.67372 715.00 0.0013986 170.36 796.48 0.67372 1.9430 2.3213 2355.3 -0.0062863 706.70 0.28568 715.00 0.0013986 170.36 796.48 0.67372 1.9430 2.3213 2355.3 -0.0062863 706.70 0.28568
39.375 65176. undefined 172.30 800.80 0.67995 715.00 0.0013986 172.30 800.80 0.67995 1.9470 2.3248 2356.3 -0.0062764 705.37 0.28611 715.00 0.0013986 172.30 800.80 0.67995 1.9470 2.3248 2356.3 -0.0062764 705.37 0.28611
40.375 65422. undefined 174.25 805.12 0.68618 715.00 0.0013986 174.25 805.12 0.68618 1.9511 2.3284 2357.2 -0.0062665 704.06 0.28654 715.00 0.0013986 174.25 805.12 0.68618 1.9511 2.3284 2357.2 -0.0062665 704.06 0.28654
41.375 65667. undefined 176.21 809.43 0.69240 715.00 0.0013986 176.21 809.43 0.69240 1.9551 2.3319 2358.2 -0.0062566 702.76 0.28697 715.00 0.0013986 176.21 809.43 0.69240 1.9551 2.3319 2358.2 -0.0062566 702.76 0.28697
42.375 65912. undefined 178.16 813.75 0.69861 715.00 0.0013986 178.16 813.75 0.69861 1.9592 2.3355 2359.1 -0.0062468 701.47 0.28741 715.00 0.0013986 178.16 813.75 0.69861 1.9592 2.3355 2359.1 -0.0062468 701.47 0.28741
43.375 66156. undefined 180.13 818.07 0.70482 715.00 0.0013986 180.13 818.07 0.70482 1.9633 2.3391 2360.0 -0.0062370 700.20 0.28784 715.00 0.0013986 180.13 818.07 0.70482 1.9633 2.3391 2360.0 -0.0062370 700.20 0.28784
44.375 66400. undefined 182.09 822.39 0.71102 715.00 0.0013986 182.09 822.39 0.71102 1.9674 2.3427 2361.0 -0.0062271 698.93 0.28827 715.00 0.0013986 182.09 822.39 0.71102 1.9674 2.3427 2361.0 -0.0062271 698.93 0.28827
45.375 66644. undefined 184.06 826.71 0.71721 715.00 0.0013986 184.06 826.71 0.71721 1.9714 2.3463 2361.9 -0.0062173 697.68 0.28871 715.00 0.0013986 184.06 826.71 0.71721 1.9714 2.3463 2361.9 -0.0062173 697.68 0.28871
46.375 66887. undefined 186.03 831.03 0.72340 715.00 0.0013986 186.03 831.03 0.72340 1.9755 2.3498 2362.8 -0.0062075 696.44 0.28914 715.00 0.0013986 186.03 831.03 0.72340 1.9755 2.3498 2362.8 -0.0062075 696.44 0.28914
47.375 67130. undefined 188.01 835.35 0.72958 715.00 0.0013986 188.01 835.35 0.72958 1.9796 2.3534 2363.8 -0.0061977 695.22 0.28958 715.00 0.0013986 188.01 835.35 0.72958 1.9796 2.3534 2363.8 -0.0061977 695.22 0.28958
48.375 67373. undefined 189.99 839.67 0.73575 715.00 0.0013986 189.99 839.67 0.73575 1.9837 2.3571 2364.7 -0.0061879 694.00 0.29001 715.00 0.0013986 189.99 839.67 0.73575 1.9837 2.3571 2364.7 -0.0061879 694.00 0.29001
49.375 67615. undefined 191.98 843.99 0.74191 715.00 0.0013986 191.98 843.99 0.74191 1.9878 2.3607 2365.6 -0.0061781 692.80 0.29045 715.00 0.0013986 191.98 843.99 0.74191 1.9878 2.3607 2365.6 -0.0061781 692.80 0.29045
50.375 67857. undefined 193.97 848.32 0.74807 715.00 0.0013986 193.97 848.32 0.74807 1.9919 2.3643 2366.6 -0.0061684 691.60 0.29088 715.00 0.0013986 193.97 848.32 0.74807 1.9919 2.3643 2366.6 -0.0061684 691.60 0.29088
51.375 68099. undefined 195.96 852.64 0.75423 715.00 0.0013986 195.96 852.64 0.75423 1.9960 2.3679 2367.5 -0.0061586 690.42 0.29132 715.00 0.0013986 195.96 852.64 0.75423 1.9960 2.3679 2367.5 -0.0061586 690.42 0.29132
52.375 68340. undefined 197.96 856.96 0.76038 715.00 0.0013986 197.96 856.96 0.76038 2.0001 2.3716 2368.4 -0.0061489 689.25 0.29175 715.00 0.0013986 197.96 856.96 0.76038 2.0001 2.3716 2368.4 -0.0061489 689.25 0.29175
53.375 68580. undefined 199.96 861.29 0.76652 715.00 0.0013986 199.96 861.29 0.76652 2.0042 2.3752 2369.4 -0.0061392 688.09 0.29219 715.00 0.0013986 199.96 861.29 0.76652 2.0042 2.3752 2369.4 -0.0061392 688.09 0.29219
54.375 68821. undefined 201.97 865.61 0.77265 715.00 0.0013986 201.97 865.61 0.77265 2.0083 2.3788 2370.3 -0.0061295 686.95 0.29262 715.00 0.0013986 201.97 865.61 0.77265 2.0083 2.3788 2370.3 -0.0061295 686.95 0.29262
55.375 69061. undefined 203.98 869.94 0.77878 715.00 0.0013986 203.98 869.94 0.77878 2.0125 2.3825 2371.2 -0.0061198 685.81 0.29306 715.00 0.0013986 203.98 869.94 0.77878 2.0125 2.3825 2371.2 -0.0061198 685.81 0.29306
56.375 69301. undefined 205.99 874.26 0.78490 715.00 0.0013986 205.99 874.26 0.78490 2.0166 2.3862 2372.1 -0.0061101 684.68 0.29350 715.00 0.0013986 205.99 874.26 0.78490 2.0166 2.3862 2372.1 -0.0061101 684.68 0.29350
57.375 69540. undefined 208.01 878.59 0.79102 715.00 0.0013986 208.01 878.59 0.79102 2.0207 2.3898 2373.0 -0.0061005 683.57 0.29394 715.00 0.0013986 208.01 878.59 0.79102 2.0207 2.3898 2373.0 -0.0061005 683.57 0.29394
58.375 69779. undefined 210.04 882.91 0.79713 715.00 0.0013986 210.04 882.91 0.79713 2.0248 2.3935 2374.0 -0.0060909 682.46 0.29437 715.00 0.0013986 210.04 882.91 0.79713 2.0248 2.3935 2374.0 -0.0060909 682.46 0.29437
59.375 70017. undefined 212.06 887.24 0.80324 715.00 0.0013986 212.06 887.24 0.80324 2.0290 2.3972 2374.9 -0.0060812 681.36 0.29481 715.00 0.0013986 212.06 887.24 0.80324 2.0290 2.3972 2374.9 -0.0060812 681.36 0.29481
60.375 70256. undefined 214.09 891.57 0.80933 715.00 0.0013986 214.09 891.57 0.80933 2.0331 2.4008 2375.8 -0.0060716 680.28 0.29525 715.00 0.0013986 214.09 891.57 0.80933 2.0331 2.4008 2375.8 -0.0060716 680.28 0.29525
61.375 70494. undefined 216.13 895.90 0.81543 715.00 0.0013986 216.13 895.90 0.81543 2.0372 2.4045 2376.7 -0.0060620 679.20 0.29569 715.00 0.0013986 216.13 895.90 0.81543 2.0372 2.4045 2376.7 -0.0060620 679.20 0.29569
62.375 70731. undefined 218.17 900.23 0.82151 715.00 0.0013986 218.17 900.23 0.82151 2.0414 2.4082 2377.6 -0.0060525 678.14 0.29613 715.00 0.0013986 218.17 900.23 0.82151 2.0414 2.4082 2377.6 -0.0060525 678.14 0.29613
63.375 70968. undefined 220.21 904.56 0.82760 715.00 0.0013986 220.21 904.56 0.82760 2.0455 2.4119 2378.5 -0.0060429 677.08 0.29657 715.00 0.0013986 220.21 904.56 0.82760 2.0455 2.4119 2378.5 -0.0060429 677.08 0.29657
64.375 71205. undefined 222.26 908.89 0.83367 715.00 0.0013986 222.26 908.89 0.83367 2.0496 2.4156 2379.4 -0.0060334 676.03 0.29700 715.00 0.0013986 222.26 908.89 0.83367 2.0496 2.4156 2379.4 -0.0060334 676.03 0.29700
65.375 71442. undefined 224.31 913.22 0.83974 715.00 0.0013986 224.31 913.22 0.83974 2.0538 2.4193 2380.3 -0.0060239 675.00 0.29744 715.00 0.0013986 224.31 913.22 0.83974 2.0538 2.4193 2380.3 -0.0060239 675.00 0.29744
66.375 71678. undefined 226.37 917.56 0.84580 715.00 0.0013986 226.37 917.56 0.84580 2.0579 2.4230 2381.2 -0.0060144 673.97 0.29788 715.00 0.0013986 226.37 917.56 0.84580 2.0579 2.4230 2381.2 -0.0060144 673.97 0.29788
67.375 71914. undefined 228.43 921.89 0.85186 715.00 0.0013986 228.43 921.89 0.85186 2.0621 2.4267 2382.1 -0.0060049 672.95 0.29832 715.00 0.0013986 228.43 921.89 0.85186 2.0621 2.4267 2382.1 -0.0060049 672.95 0.29832
68.375 72149. undefined 230.49 926.23 0.85792 715.00 0.0013986 230.49 926.23 0.85792 2.0662 2.4304 2383.0 -0.0059954 671.94 0.29876 715.00 0.0013986 230.49 926.23 0.85792 2.0662 2.4304 2383.0 -0.0059954 671.94 0.29876
69.375 72384. undefined 232.56 930.56 0.86396 715.00 0.0013986 232.56 930.56 0.86396 2.0704 2.4341 2383.9 -0.0059860 670.94 0.29921 715.00 0.0013986 232.56 930.56 0.86396 2.0704 2.4341 2383.9 -0.0059860 670.94 0.29921
70.375 72619. undefined 234.63 934.90 0.87000 715.00 0.0013986 234.63 934.90 0.87000 2.0745 2.4379 2384.8 -0.0059766 669.95 0.29965 715.00 0.0013986 234.63 934.90 0.87000 2.0745 2.4379 2384.8 -0.0059766 669.95 0.29965
71.375 72853. undefined 236.71 939.24 0.87604 715.00 0.0013986 236.71 939.24 0.87604 2.0787 2.4416 2385.7 -0.0059672 668.97 0.30009 715.00 0.0013986 236.71 939.24 0.87604 2.0787 2.4416 2385.7 -0.0059672 668.97 0.30009
72.375 73088. undefined 238.79 943.57 0.88207 715.00 0.0013986 238.79 943.57 0.88207 2.0828 2.4453 2386.6 -0.0059578 667.99 0.30053 715.00 0.0013986 238.79 943.57 0.88207 2.0828 2.4453 2386.6 -0.0059578 667.99 0.30053
73.375 73321. undefined 240.87 947.91 0.88810 715.00 0.0013986 240.87 947.91 0.88810 2.0870 2.4490 2387.5 -0.0059484 667.03 0.30097 715.00 0.0013986 240.87 947.91 0.88810 2.0870 2.4490 2387.5 -0.0059484 667.03 0.30097
74.375 73555. undefined 242.96 952.25 0.89412 715.00 0.0013986 242.96 952.25 0.89412 2.0912 2.4528 2388.4 -0.0059391 666.07 0.30141 715.00 0.0013986 242.96 952.25 0.89412 2.0912 2.4528 2388.4 -0.0059391 666.07 0.30141
75.375 73788. undefined 245.06 956.59 0.90013 715.00 0.0013986 245.06 956.59 0.90013 2.0953 2.4565 2389.3 -0.0059298 665.12 0.30186 715.00 0.0013986 245.06 956.59 0.90013 2.0953 2.4565 2389.3 -0.0059298 665.12 0.30186
76.375 74021. undefined 247.15 960.94 0.90614 715.00 0.0013986 247.15 960.94 0.90614 2.0995 2.4603 2390.2 -0.0059205 664.18 0.30230 715.00 0.0013986 247.15 960.94 0.90614 2.0995 2.4603 2390.2 -0.0059205 664.18 0.30230
77.375 74253. undefined 249.25 965.28 0.91215 715.00 0.0013986 249.25 965.28 0.91215 2.1036 2.4640 2391.1 -0.0059112 663.25 0.30274 715.00 0.0013986 249.25 965.28 0.91215 2.1036 2.4640 2391.1 -0.0059112 663.25 0.30274
78.375 74485. undefined 251.36 969.62 0.91814 715.00 0.0013986 251.36 969.62 0.91814 2.1078 2.4677 2392.0 -0.0059020 662.33 0.30319 715.00 0.0013986 251.36 969.62 0.91814 2.1078 2.4677 2392.0 -0.0059020 662.33 0.30319
79.375 74717. undefined 253.47 973.97 0.92414 715.00 0.0013986 253.47 973.97 0.92414 2.1120 2.4715 2392.9 -0.0058927 661.41 0.30363 715.00 0.0013986 253.47 973.97 0.92414 2.1120 2.4715 2392.9 -0.0058927 661.41 0.30363
80.375 74949. undefined 255.58 978.32 0.93013 715.00 0.0013986 255.58 978.32 0.93013 2.1161 2.4752 2393.8 -0.0058835 660.51 0.30407 715.00 0.0013986 255.58 978.32 0.93013 2.1161 2.4752 2393.8 -0.0058835 660.51 0.30407
81.375 75180. undefined 257.70 982.66 0.93611 715.00 0.0013986 257.70 982.66 0.93611 2.1203 2.4790 2394.7 -0.0058743 659.61 0.30452 715.00 0.0013986 257.70 982.66 0.93611 2.1203 2.4790 2394.7 -0.0058743 659.61 0.30452
82.375 75411. undefined 259.83 987.01 0.94209 715.00 0.0013986 259.83 987.01 0.94209 2.1244 2.4828 2395.6 -0.0058652 658.71 0.30496 715.00 0.0013986 259.83 987.01 0.94209 2.1244 2.4828 2395.6 -0.0058652 658.71 0.30496
83.375 75641. undefined 261.95 991.36 0.94806 715.00 0.0013986 261.95 991.36 0.94806 2.1286 2.4865 2396.4 -0.0058560 657.83 0.30541 715.00 0.0013986 261.95 991.36 0.94806 2.1286 2.4865 2396.4 -0.0058560 657.83 0.30541
84.375 75871. undefined 264.08 995.71 0.95403 715.00 0.0013986 264.08 995.71 0.95403 2.1328 2.4903 2397.3 -0.0058469 656.95 0.30585 715.00 0.0013986 264.08 995.71 0.95403 2.1328 2.4903 2397.3 -0.0058469 656.95 0.30585
85.375 76101. undefined 266.22 1000.1 0.95999 715.00 0.0013986 266.22 1000.1 0.95999 2.1369 2.4940 2398.2 -0.0058378 656.08 0.30630 715.00 0.0013986 266.22 1000.1 0.95999 2.1369 2.4940 2398.2 -0.0058378 656.08 0.30630
86.375 76331. undefined 268.36 1004.4 0.96595 715.00 0.0013986 268.36 1004.4 0.96595 2.1411 2.4978 2399.1 -0.0058287 655.22 0.30674 715.00 0.0013986 268.36 1004.4 0.96595 2.1411 2.4978 2399.1 -0.0058287 655.22 0.30674
87.375 76560. undefined 270.50 1008.8 0.97190 715.00 0.0013986 270.50 1008.8 0.97190 2.1453 2.5016 2400.0 -0.0058197 654.37 0.30719 715.00 0.0013986 270.50 1008.8 0.97190 2.1453 2.5016 2400.0 -0.0058197 654.37 0.30719
88.375 76789. undefined 272.65 1013.1 0.97785 715.00 0.0013986 272.65 1013.1 0.97785 2.1494 2.5053 2400.9 -0.0058106 653.52 0.30764 715.00 0.0013986 272.65 1013.1 0.97785 2.1494 2.5053 2400.9 -0.0058106 653.52 0.30764
89.375 77018. undefined 274.80 1017.5 0.98379 715.00 0.0013986 274.80 1017.5 0.98379 2.1536 2.5091 2401.7 -0.0058016 652.68 0.30808 715.00 0.0013986 274.80 1017.5 0.98379 2.1536 2.5091 2401.7 -0.0058016 652.68 0.30808
90.375 77246. undefined 276.95 1021.8 0.98973 715.00 0.0013986 276.95 1021.8 0.98973 2.1577 2.5129 2402.6 -0.0057926 651.85 0.30853 715.00 0.0013986 276.95 1021.8 0.98973 2.1577 2.5129 2402.6 -0.0057926 651.85 0.30853
91.375 77474. undefined 279.11 1026.2 0.99566 715.00 0.0013986 279.11 1026.2 0.99566 2.1619 2.5166 2403.5 -0.0057837 651.02 0.30898 715.00 0.0013986 279.11 1026.2 0.99566 2.1619 2.5166 2403.5 -0.0057837 651.02 0.30898
92.375 77702. undefined 281.28 1030.6 1.0016 715.00 0.0013986 281.28 1030.6 1.0016 2.1661 2.5204 2404.4 -0.0057747 650.20 0.30942 715.00 0.0013986 281.28 1030.6 1.0016 2.1661 2.5204 2404.4 -0.0057747 650.20 0.30942
93.375 77929. undefined 283.45 1034.9 1.0075 715.00 0.0013986 283.45 1034.9 1.0075 2.1702 2.5242 2405.2 -0.0057658 649.39 0.30987 715.00 0.0013986 283.45 1034.9 1.0075 2.1702 2.5242 2405.2 -0.0057658 649.39 0.30987
94.375 78157. undefined 285.62 1039.3 1.0134 715.00 0.0013986 285.62 1039.3 1.0134 2.1744 2.5280 2406.1 -0.0057569 648.59 0.31032 715.00 0.0013986 285.62 1039.3 1.0134 2.1744 2.5280 2406.1 -0.0057569 648.59 0.31032
95.375 78383. undefined 287.79 1043.6 1.0193 715.00 0.0013986 287.79 1043.6 1.0193 2.1785 2.5318 2407.0 -0.0057481 647.79 0.31077 715.00 0.0013986 287.79 1043.6 1.0193 2.1785 2.5318 2407.0 -0.0057481 647.79 0.31077
96.375 78610. undefined 289.98 1048.0 1.0253 715.00 0.0013986 289.98 1048.0 1.0253 2.1827 2.5355 2407.9 -0.0057392 647.00 0.31122 715.00 0.0013986 289.98 1048.0 1.0253 2.1827 2.5355 2407.9 -0.0057392 647.00 0.31122
97.375 78836. undefined 292.16 1052.4 1.0312 715.00 0.0013986 292.16 1052.4 1.0312 2.1869 2.5393 2408.7 -0.0057304 646.21 0.31167 715.00 0.0013986 292.16 1052.4 1.0312 2.1869 2.5393 2408.7 -0.0057304 646.21 0.31167
98.375 79062. undefined 294.35 1056.7 1.0371 715.00 0.0013986 294.35 1056.7 1.0371 2.1910 2.5431 2409.6 -0.0057216 645.43 0.31212 715.00 0.0013986 294.35 1056.7 1.0371 2.1910 2.5431 2409.6 -0.0057216 645.43 0.31212
99.375 79288. undefined 296.54 1061.1 1.0430 715.00 0.0013986 296.54 1061.1 1.0430 2.1952 2.5469 2410.5 -0.0057129 644.66 0.31256 715.00 0.0013986 296.54 1061.1 1.0430 2.1952 2.5469 2410.5 -0.0057129 644.66 0.31256
100.38 79513. undefined 298.74 1065.5 1.0488 715.00 0.0013986 298.74 1065.5 1.0488 2.1993 2.5507 2411.3 -0.0057041 643.89 0.31301 715.00 0.0013986 298.74 1065.5 1.0488 2.1993 2.5507 2411.3 -0.0057041 643.89 0.31301
101.38 79738. undefined 300.94 1069.9 1.0547 715.00 0.0013986 300.94 1069.9 1.0547 2.2035 2.5544 2412.2 -0.0056954 643.13 0.31346 715.00 0.0013986 300.94 1069.9 1.0547 2.2035 2.5544 2412.2 -0.0056954 643.13 0.31346
102.38 79963. undefined 303.15 1074.2 1.0606 715.00 0.0013986 303.15 1074.2 1.0606 2.2076 2.5582 2413.1 -0.0056867 642.38 0.31392 715.00 0.0013986 303.15 1074.2 1.0606 2.2076 2.5582 2413.1 -0.0056867 642.38 0.31392
103.38 80187. undefined 305.36 1078.6 1.0665 715.00 0.0013986 305.36 1078.6 1.0665 2.2118 2.5620 2413.9 -0.0056780 641.63 0.31437 715.00 0.0013986 305.36 1078.6 1.0665 2.2118 2.5620 2413.9 -0.0056780 641.63 0.31437
104.38 80412. undefined 307.57 1083.0 1.0724 715.00 0.0013986 307.57 1083.0 1.0724 2.2159 2.5658 2414.8 -0.0056694 640.89 0.31482 715.00 0.0013986 307.57 1083.0 1.0724 2.2159 2.5658 2414.8 -0.0056694 640.89 0.31482
105.38 80635. undefined 309.79 1087.4 1.0782 715.00 0.0013986 309.79 1087.4 1.0782 2.2201 2.5696 2415.7 -0.0056608 640.16 0.31527 715.00 0.0013986 309.79 1087.4 1.0782 2.2201 2.5696 2415.7 -0.0056608 640.16 0.31527
106.38 80859. undefined 312.01 1091.7 1.0841 715.00 0.0013986 312.01 1091.7 1.0841 2.2242 2.5734 2416.5 -0.0056522 639.43 0.31572 715.00 0.0013986 312.01 1091.7 1.0841 2.2242 2.5734 2416.5 -0.0056522 639.43 0.31572
107.38 81082. undefined 314.24 1096.1 1.0900 715.00 0.0013986 314.24 1096.1 1.0900 2.2284 2.5772 2417.4 -0.0056436 638.70 0.31617 715.00 0.0013986 314.24 1096.1 1.0900 2.2284 2.5772 2417.4 -0.0056436 638.70 0.31617
108.38 81305. undefined 316.47 1100.5 1.0958 715.00 0.0013986 316.47 1100.5 1.0958 2.2325 2.5809 2418.2 -0.0056351 637.99 0.31662 715.00 0.0013986 316.47 1100.5 1.0958 2.2325 2.5809 2418.2 -0.0056351 637.99 0.31662
109.38 81528. undefined 318.70 1104.9 1.1017 715.00 0.0013986 318.70 1104.9 1.1017 2.2367 2.5847 2419.1 -0.0056265 637.27 0.31708 715.00 0.0013986 318.70 1104.9 1.1017 2.2367 2.5847 2419.1 -0.0056265 637.27 0.31708
110.38 81751. undefined 320.94 1109.3 1.1075 715.00 0.0013986 320.94 1109.3 1.1075 2.2408 2.5885 2420.0 -0.0056180 636.57 0.31753 715.00 0.0013986 320.94 1109.3 1.1075 2.2408 2.5885 2420.0 -0.0056180 636.57 0.31753
111.38 81973. undefined 323.18 1113.6 1.1133 715.00 0.0013986 323.18 1113.6 1.1133 2.2450 2.5923 2420.8 -0.0056096 635.87 0.31798 715.00 0.0013986 323.18 1113.6 1.1133 2.2450 2.5923 2420.8 -0.0056096 635.87 0.31798
112.38 82195. undefined 325.43 1118.0 1.1192 715.00 0.0013986 325.43 1118.0 1.1192 2.2491 2.5961 2421.7 -0.0056011 635.17 0.31844 715.00 0.0013986 325.43 1118.0 1.1192 2.2491 2.5961 2421.7 -0.0056011 635.17 0.31844
113.38 82416. undefined 327.68 1122.4 1.1250 715.00 0.0013986 327.68 1122.4 1.1250 2.2532 2.5999 2422.5 -0.0055927 634.48 0.31889 715.00 0.0013986 327.68 1122.4 1.1250 2.2532 2.5999 2422.5 -0.0055927 634.48 0.31889
114.38 82638. undefined 329.94 1126.8 1.1308 715.00 0.0013986 329.94 1126.8 1.1308 2.2574 2.6036 2423.4 -0.0055843 633.80 0.31934 715.00 0.0013986 329.94 1126.8 1.1308 2.2574 2.6036 2423.4 -0.0055843 633.80 0.31934
115.38 82859. undefined 332.20 1131.2 1.1367 715.00 0.0013986 332.20 1131.2 1.1367 2.2615 2.6074 2424.2 -0.0055759 633.12 0.31980 715.00 0.0013986 332.20 1131.2 1.1367 2.2615 2.6074 2424.2 -0.0055759 633.12 0.31980
116.38 83079. undefined 334.46 1135.6 1.1425 715.00 0.0013986 334.46 1135.6 1.1425 2.2656 2.6112 2425.1 -0.0055676 632.45 0.32025 715.00 0.0013986 334.46 1135.6 1.1425 2.2656 2.6112 2425.1 -0.0055676 632.45 0.32025
117.38 83300. undefined 336.73 1140.0 1.1483 715.00 0.0013986 336.73 1140.0 1.1483 2.2698 2.6150 2425.9 -0.0055593 631.78 0.32071 715.00 0.0013986 336.73 1140.0 1.1483 2.2698 2.6150 2425.9 -0.0055593 631.78 0.32071
118.38 83520. undefined 339.00 1144.4 1.1541 715.00 0.0013986 339.00 1144.4 1.1541 2.2739 2.6188 2426.8 -0.0055510 631.12 0.32116 715.00 0.0013986 339.00 1144.4 1.1541 2.2739 2.6188 2426.8 -0.0055510 631.12 0.32116
119.38 83740. undefined 341.28 1148.8 1.1599 715.00 0.0013986 341.28 1148.8 1.1599 2.2780 2.6226 2427.6 -0.0055427 630.46 0.32162 715.00 0.0013986 341.28 1148.8 1.1599 2.2780 2.6226 2427.6 -0.0055427 630.46 0.32162
120.38 83960. undefined 343.56 1153.2 1.1657 715.00 0.0013986 343.56 1153.2 1.1657 2.2821 2.6263 2428.5 -0.0055345 629.81 0.32207 715.00 0.0013986 343.56 1153.2 1.1657 2.2821 2.6263 2428.5 -0.0055345 629.81 0.32207
121.38 84179. undefined 345.84 1157.6 1.1715 715.00 0.0013986 345.84 1157.6 1.1715 2.2862 2.6301 2429.3 -0.0055263 629.16 0.32253 715.00 0.0013986 345.84 1157.6 1.1715 2.2862 2.6301 2429.3 -0.0055263 629.16 0.32253
122.38 84398. undefined 348.13 1162.0 1.1773 715.00 0.0013986 348.13 1162.0 1.1773 2.2904 2.6339 2430.2 -0.0055181 628.52 0.32298 715.00 0.0013986 348.13 1162.0 1.1773 2.2904 2.6339 2430.2 -0.0055181 628.52 0.32298
123.38 84617. undefined 350.42 1166.4 1.1831 715.00 0.0013986 350.42 1166.4 1.1831 2.2945 2.6377 2431.0 -0.0055099 627.88 0.32344 715.00 0.0013986 350.42 1166.4 1.1831 2.2945 2.6377 2431.0 -0.0055099 627.88 0.32344
124.38 84836. undefined 352.72 1170.8 1.1889 715.00 0.0013986 352.72 1170.8 1.1889 2.2986 2.6415 2431.9 -0.0055018 627.25 0.32390 715.00 0.0013986 352.72 1170.8 1.1889 2.2986 2.6415 2431.9 -0.0055018 627.25 0.32390
125.38 85054. undefined 355.02 1175.2 1.1946 715.00 0.0013986 355.02 1175.2 1.1946 2.3027 2.6452 2432.7 -0.0054937 626.62 0.32436 715.00 0.0013986 355.02 1175.2 1.1946 2.3027 2.6452 2432.7 -0.0054937 626.62 0.32436
126.38 85272. undefined 357.32 1179.6 1.2004 715.00 0.0013986 357.32 1179.6 1.2004 2.3068 2.6490 2433.6 -0.0054856 626.00 0.32481 715.00 0.0013986 357.32 1179.6 1.2004 2.3068 2.6490 2433.6 -0.0054856 626.00 0.32481
127.38 85490. undefined 359.63 1184.0 1.2062 715.00 0.0013986 359.63 1184.0 1.2062 2.3109 2.6528 2434.4 -0.0054775 625.38 0.32527 715.00 0.0013986 359.63 1184.0 1.2062 2.3109 2.6528 2434.4 -0.0054775 625.38 0.32527
128.38 85708. undefined 361.94 1188.4 1.2120 715.00 0.0013986 361.94 1188.4 1.2120 2.3150 2.6565 2435.3 -0.0054695 624.77 0.32573 715.00 0.0013986 361.94 1188.4 1.2120 2.3150 2.6565 2435.3 -0.0054695 624.77 0.32573
129.38 85925. undefined 364.26 1192.8 1.2177 715.00 0.0013986 364.26 1192.8 1.2177 2.3191 2.6603 2436.1 -0.0054615 624.16 0.32619 715.00 0.0013986 364.26 1192.8 1.2177 2.3191 2.6603 2436.1 -0.0054615 624.16 0.32619
130.38 86142. undefined 366.58 1197.3 1.2235 715.00 0.0013986 366.58 1197.3 1.2235 2.3232 2.6641 2436.9 -0.0054535 623.56 0.32665 715.00 0.0013986 366.58 1197.3 1.2235 2.3232 2.6641 2436.9 -0.0054535 623.56 0.32665
131.38 86359. undefined 368.91 1201.7 1.2292 715.00 0.0013986 368.91 1201.7 1.2292 2.3273 2.6678 2437.8 -0.0054456 622.96 0.32710 715.00 0.0013986 368.91 1201.7 1.2292 2.3273 2.6678 2437.8 -0.0054456 622.96 0.32710
132.38 86575. undefined 371.24 1206.1 1.2350 715.00 0.0013986 371.24 1206.1 1.2350 2.3314 2.6716 2438.6 -0.0054376 622.37 0.32756 715.00 0.0013986 371.24 1206.1 1.2350 2.3314 2.6716 2438.6 -0.0054376 622.37 0.32756
133.38 86792. undefined 373.57 1210.5 1.2407 715.00 0.0013986 373.57 1210.5 1.2407 2.3355 2.6754 2439.5 -0.0054297 621.78 0.32802 715.00 0.0013986 373.57 1210.5 1.2407 2.3355 2.6754 2439.5 -0.0054297 621.78 0.32802
134.38 87008. undefined 375.91 1214.9 1.2465 715.00 0.0013986 375.91 1214.9 1.2465 2.3395 2.6791 2440.3 -0.0054218 621.19 0.32848 715.00 0.0013986 375.91 1214.9 1.2465 2.3395 2.6791 2440.3 -0.0054218 621.19 0.32848
135.38 87223. undefined 378.25 1219.3 1.2522 715.00 0.0013986 378.25 1219.3 1.2522 2.3436 2.6829 2441.1 -0.0054140 620.61 0.32894 715.00 0.0013986 378.25 1219.3 1.2522 2.3436 2.6829 2441.1 -0.0054140 620.61 0.32894
136.38 87439. undefined 380.59 1223.8 1.2580 715.00 0.0013986 380.59 1223.8 1.2580 2.3477 2.6867 2442.0 -0.0054062 620.04 0.32940 715.00 0.0013986 380.59 1223.8 1.2580 2.3477 2.6867 2442.0 -0.0054062 620.04 0.32940
137.38 87654. undefined 382.94 1228.2 1.2637 715.00 0.0013986 382.94 1228.2 1.2637 2.3518 2.6904 2442.8 -0.0053984 619.46 0.32986 715.00 0.0013986 382.94 1228.2 1.2637 2.3518 2.6904 2442.8 -0.0053984 619.46 0.32986
138.38 87869. undefined 385.30 1232.6 1.2694 715.00 0.0013986 385.30 1232.6 1.2694 2.3558 2.6942 2443.6 -0.0053906 618.90 0.33032 715.00 0.0013986 385.30 1232.6 1.2694 2.3558 2.6942 2443.6 -0.0053906 618.90 0.33032
139.38 88084. undefined 387.66 1237.0 1.2751 715.00 0.0013986 387.66 1237.0 1.2751 2.3599 2.6979 2444.5 -0.0053828 618.33 0.33079 715.00 0.0013986 387.66 1237.0 1.2751 2.3599 2.6979 2444.5 -0.0053828 618.33 0.33079
140.38 88298. undefined 390.02 1241.5 1.2809 715.00 0.0013986 390.02 1241.5 1.2809 2.3640 2.7017 2445.3 -0.0053751 617.77 0.33125 715.00 0.0013986 390.02 1241.5 1.2809 2.3640 2.7017 2445.3 -0.0053751 617.77 0.33125
141.38 88512. undefined 392.38 1245.9 1.2866 715.00 0.0013986 392.38 1245.9 1.2866 2.3680 2.7054 2446.1 -0.0053674 617.22 0.33171 715.00 0.0013986 392.38 1245.9 1.2866 2.3680 2.7054 2446.1 -0.0053674 617.22 0.33171
142.38 88726. undefined 394.75 1250.3 1.2923 715.00 0.0013986 394.75 1250.3 1.2923 2.3721 2.7092 2447.0 -0.0053597 616.67 0.33217 715.00 0.0013986 394.75 1250.3 1.2923 2.3721 2.7092 2447.0 -0.0053597 616.67 0.33217
143.38 88940. undefined 397.13 1254.8 1.2980 715.00 0.0013986 397.13 1254.8 1.2980 2.3762 2.7129 2447.8 -0.0053521 616.12 0.33263 715.00 0.0013986 397.13 1254.8 1.2980 2.3762 2.7129 2447.8 -0.0053521 616.12 0.33263
144.38 89154. undefined 399.51 1259.2 1.3037 715.00 0.0013986 399.51 1259.2 1.3037 2.3802 2.7167 2448.6 -0.0053445 615.58 0.33310 715.00 0.0013986 399.51 1259.2 1.3037 2.3802 2.7167 2448.6 -0.0053445 615.58 0.33310
145.38 89367. undefined 401.89 1263.7 1.3094 715.00 0.0013986 401.89 1263.7 1.3094 2.3842 2.7204 2449.5 -0.0053369 615.04 0.33356 715.00 0.0013986 401.89 1263.7 1.3094 2.3842 2.7204 2449.5 -0.0053369 615.04 0.33356
146.38 89580. undefined 404.28 1268.1 1.3151 715.00 0.0013986 404.28 1268.1 1.3151 2.3883 2.7241 2450.3 -0.0053293 614.50 0.33402 715.00 0.0013986 404.28 1268.1 1.3151 2.3883 2.7241 2450.3 -0.0053293 614.50 0.33402
147.38 89793. undefined 406.67 1272.5 1.3208 715.00 0.0013986 406.67 1272.5 1.3208 2.3923 2.7279 2451.1 -0.0053217 613.97 0.33449 715.00 0.0013986 406.67 1272.5 1.3208 2.3923 2.7279 2451.1 -0.0053217 613.97 0.33449
148.38 90005. undefined 409.06 1277.0 1.3265 715.00 0.0013986 409.06 1277.0 1.3265 2.3964 2.7316 2452.0 -0.0053142 613.44 0.33495 715.00 0.0013986 409.06 1277.0 1.3265 2.3964 2.7316 2452.0 -0.0053142 613.44 0.33495
149.38 90217. undefined 411.46 1281.4 1.3321 715.00 0.0013986 411.46 1281.4 1.3321 2.4004 2.7353 2452.8 -0.0053067 612.92 0.33541 715.00 0.0013986 411.46 1281.4 1.3321 2.4004 2.7353 2452.8 -0.0053067 612.92 0.33541
150.38 90429. undefined 413.86 1285.9 1.3378 715.00 0.0013986 413.86 1285.9 1.3378 2.4044 2.7391 2453.6 -0.0052993 612.40 0.33588 715.00 0.0013986 413.86 1285.9 1.3378 2.4044 2.7391 2453.6 -0.0052993 612.40 0.33588
151.38 90641. undefined 416.27 1290.3 1.3435 715.00 0.0013986 416.27 1290.3 1.3435 2.4084 2.7428 2454.4 -0.0052918 611.89 0.33634 715.00 0.0013986 416.27 1290.3 1.3435 2.4084 2.7428 2454.4 -0.0052918 611.89 0.33634
152.38 90853. undefined 418.68 1294.8 1.3492 715.00 0.0013986 418.68 1294.8 1.3492 2.4125 2.7465 2455.3 -0.0052844 611.37 0.33681 715.00 0.0013986 418.68 1294.8 1.3492 2.4125 2.7465 2455.3 -0.0052844 611.37 0.33681
153.38 91064. undefined 421.09 1299.2 1.3548 715.00 0.0013986 421.09 1299.2 1.3548 2.4165 2.7502 2456.1 -0.0052770 610.87 0.33727 715.00 0.0013986 421.09 1299.2 1.3548 2.4165 2.7502 2456.1 -0.0052770 610.87 0.33727
154.38 91275. undefined 423.51 1303.7 1.3605 715.00 0.0013986 423.51 1303.7 1.3605 2.4205 2.7539 2456.9 -0.0052696 610.36 0.33774 715.00 0.0013986 423.51 1303.7 1.3605 2.4205 2.7539 2456.9 -0.0052696 610.36 0.33774
155.38 91486. undefined 425.93 1308.1 1.3662 715.00 0.0013986 425.93 1308.1 1.3662 2.4245 2.7577 2457.7 -0.0052623 609.86 0.33820 715.00 0.0013986 425.93 1308.1 1.3662 2.4245 2.7577 2457.7 -0.0052623 609.86 0.33820
156.38 91697. undefined 428.36 1312.6 1.3718 715.00 0.0013986 428.36 1312.6 1.3718 2.4285 2.7614 2458.6 -0.0052550 609.36 0.33867 715.00 0.0013986 428.36 1312.6 1.3718 2.4285 2.7614 2458.6 -0.0052550 609.36 0.33867
157.38 91907. undefined 430.79 1317.1 1.3775 715.00 0.0013986 430.79 1317.1 1.3775 2.4325 2.7651 2459.4 -0.0052477 608.87 0.33914 715.00 0.0013986 430.79 1317.1 1.3775 2.4325 2.7651 2459.4 -0.0052477 608.87 0.33914
158.38 92117. undefined 433.22 1321.5 1.3831 715.00 0.0013986 433.22 1321.5 1.3831 2.4365 2.7688 2460.2 -0.0052404 608.38 0.33960 715.00 0.0013986 433.22 1321.5 1.3831 2.4365 2.7688 2460.2 -0.0052404 608.38 0.33960
159.38 92327. undefined 435.66 1326.0 1.3888 715.00 0.0013986 435.66 1326.0 1.3888 2.4405 2.7725 2461.0 -0.0052332 607.89 0.34007 715.00 0.0013986 435.66 1326.0 1.3888 2.4405 2.7725 2461.0 -0.0052332 607.89 0.34007
160.38 92537. undefined 438.11 1330.4 1.3944 715.00 0.0013986 438.11 1330.4 1.3944 2.4445 2.7762 2461.8 -0.0052260 607.41 0.34054 715.00 0.0013986 438.11 1330.4 1.3944 2.4445 2.7762 2461.8 -0.0052260 607.41 0.34054
161.38 92746. undefined 440.55 1334.9 1.4000 715.00 0.0013986 440.55 1334.9 1.4000 2.4485 2.7799 2462.7 -0.0052188 606.93 0.34101 715.00 0.0013986 440.55 1334.9 1.4000 2.4485 2.7799 2462.7 -0.0052188 606.93 0.34101
162.38 92955. undefined 443.00 1339.4 1.4057 715.00 0.0013986 443.00 1339.4 1.4057 2.4525 2.7836 2463.5 -0.0052116 606.45 0.34147 715.00 0.0013986 443.00 1339.4 1.4057 2.4525 2.7836 2463.5 -0.0052116 606.45 0.34147
163.38 93164. undefined 445.46 1343.8 1.4113 715.00 0.0013986 445.46 1343.8 1.4113 2.4564 2.7873 2464.3 -0.0052044 605.98 0.34194 715.00 0.0013986 445.46 1343.8 1.4113 2.4564 2.7873 2464.3 -0.0052044 605.98 0.34194
164.38 93373. undefined 447.92 1348.3 1.4169 715.00 0.0013986 447.92 1348.3 1.4169 2.4604 2.7910 2465.1 -0.0051973 605.51 0.34241 715.00 0.0013986 447.92 1348.3 1.4169 2.4604 2.7910 2465.1 -0.0051973 605.51 0.34241
165.38 93581. undefined 450.38 1352.8 1.4225 715.00 0.0013986 450.38 1352.8 1.4225 2.4644 2.7946 2465.9 -0.0051902 605.05 0.34288 715.00 0.0013986 450.38 1352.8 1.4225 2.4644 2.7946 2465.9 -0.0051902 605.05 0.34288
166.38 93790. undefined 452.84 1357.3 1.4282 715.00 0.0013986 452.84 1357.3 1.4282 2.4683 2.7983 2466.7 -0.0051832 604.58 0.34335 715.00 0.0013986 452.84 1357.3 1.4282 2.4683 2.7983 2466.7 -0.0051832 604.58 0.34335
167.38 93998. undefined 455.31 1361.7 1.4338 715.00 0.0013986 455.31 1361.7 1.4338 2.4723 2.8020 2467.5 -0.0051761 604.12 0.34382 715.00 0.0013986 455.31 1361.7 1.4338 2.4723 2.8020 2467.5 -0.0051761 604.12 0.34382
168.38 94206. undefined 457.79 1366.2 1.4394 715.00 0.0013986 457.79 1366.2 1.4394 2.4763 2.8057 2468.4 -0.0051691 603.67 0.34429 715.00 0.0013986 457.79 1366.2 1.4394 2.4763 2.8057 2468.4 -0.0051691 603.67 0.34429
169.38 94413. undefined 460.27 1370.7 1.4450 715.00 0.0013986 460.27 1370.7 1.4450 2.4802 2.8093 2469.2 -0.0051621 603.21 0.34476 715.00 0.0013986 460.27 1370.7 1.4450 2.4802 2.8093 2469.2 -0.0051621 603.21 0.34476
170.38 94621. undefined 462.75 1375.2 1.4506 715.00 0.0013986 462.75 1375.2 1.4506 2.4842 2.8130 2470.0 -0.0051551 602.76 0.34523 715.00 0.0013986 462.75 1375.2 1.4506 2.4842 2.8130 2470.0 -0.0051551 602.76 0.34523
171.38 94828. undefined 465.24 1379.7 1.4562 715.00 0.0013986 465.24 1379.7 1.4562 2.4881 2.8167 2470.8 -0.0051482 602.32 0.34570 715.00 0.0013986 465.24 1379.7 1.4562 2.4881 2.8167 2470.8 -0.0051482 602.32 0.34570
172.38 95035. undefined 467.73 1384.1 1.4618 715.00 0.0013986 467.73 1384.1 1.4618 2.4920 2.8203 2471.6 -0.0051413 601.87 0.34617 715.00 0.0013986 467.73 1384.1 1.4618 2.4920 2.8203 2471.6 -0.0051413 601.87 0.34617
173.38 95241. undefined 470.22 1388.6 1.4674 715.00 0.0013986 470.22 1388.6 1.4674 2.4960 2.8240 2472.4 -0.0051344 601.43 0.34664 715.00 0.0013986 470.22 1388.6 1.4674 2.4960 2.8240 2472.4 -0.0051344 601.43 0.34664
174.38 95448. undefined 472.72 1393.1 1.4730 715.00 0.0013986 472.72 1393.1 1.4730 2.4999 2.8277 2473.2 -0.0051275 601.00 0.34711 715.00 0.0013986 472.72 1393.1 1.4730 2.4999 2.8277 2473.2 -0.0051275 601.00 0.34711
175.38 95654. undefined 475.22 1397.6 1.4786 715.00 0.0013986 475.22 1397.6 1.4786 2.5038 2.8313 2474.0 -0.0051206 600.56 0.34758 715.00 0.0013986 475.22 1397.6 1.4786 2.5038 2.8313 2474.0 -0.0051206 600.56 0.34758
176.38 95860. undefined 477.72 1402.1 1.4841 715.00 0.0013986 477.72 1402.1 1.4841 2.5078 2.8350 2474.8 -0.0051138 600.13 0.34806 715.00 0.0013986 477.72 1402.1 1.4841 2.5078 2.8350 2474.8 -0.0051138 600.13 0.34806
177.38 96066. undefined 480.23 1406.6 1.4897 715.00 0.0013986 480.23 1406.6 1.4897 2.5117 2.8386 2475.7 -0.0051070 599.70 0.34853 715.00 0.0013986 480.23 1406.6 1.4897 2.5117 2.8386 2475.7 -0.0051070 599.70 0.34853
178.38 96272. undefined 482.75 1411.1 1.4953 715.00 0.0013986 482.75 1411.1 1.4953 2.5156 2.8423 2476.5 -0.0051002 599.28 0.34900 715.00 0.0013986 482.75 1411.1 1.4953 2.5156 2.8423 2476.5 -0.0051002 599.28 0.34900
179.38 96477. undefined 485.27 1415.6 1.5009 715.00 0.0013986 485.27 1415.6 1.5009 2.5195 2.8459 2477.3 -0.0050935 598.85 0.34947 715.00 0.0013986 485.27 1415.6 1.5009 2.5195 2.8459 2477.3 -0.0050935 598.85 0.34947
180.38 96682. undefined 487.79 1420.1 1.5064 715.00 0.0013986 487.79 1420.1 1.5064 2.5234 2.8495 2478.1 -0.0050867 598.43 0.34995 715.00 0.0013986 487.79 1420.1 1.5064 2.5234 2.8495 2478.1 -0.0050867 598.43 0.34995
181.38 96887. undefined 490.31 1424.6 1.5120 715.00 0.0013986 490.31 1424.6 1.5120 2.5273 2.8532 2478.9 -0.0050800 598.02 0.35042 715.00 0.0013986 490.31 1424.6 1.5120 2.5273 2.8532 2478.9 -0.0050800 598.02 0.35042
182.38 97092. undefined 492.84 1429.1 1.5175 715.00 0.0013986 492.84 1429.1 1.5175 2.5312 2.8568 2479.7 -0.0050733 597.60 0.35089 715.00 0.0013986 492.84 1429.1 1.5175 2.5312 2.8568 2479.7 -0.0050733 597.60 0.35089
183.38 97296. undefined 495.37 1433.6 1.5231 715.00 0.0013986 495.37 1433.6 1.5231 2.5351 2.8604 2480.5 -0.0050667 597.19 0.35137 715.00 0.0013986 495.37 1433.6 1.5231 2.5351 2.8604 2480.5 -0.0050667 597.19 0.35137
184.38 97501. undefined 497.91 1438.1 1.5287 715.00 0.0013986 497.91 1438.1 1.5287 2.5390 2.8640 2481.3 -0.0050600 596.78 0.35184 715.00 0.0013986 497.91 1438.1 1.5287 2.5390 2.8640 2481.3 -0.0050600 596.78 0.35184
185.38 97705. undefined 500.45 1442.6 1.5342 715.00 0.0013986 500.45 1442.6 1.5342 2.5428 2.8677 2482.1 -0.0050534 596.38 0.35232 715.00 0.0013986 500.45 1442.6 1.5342 2.5428 2.8677 2482.1 -0.0050534 596.38 0.35232
186.38 97909. undefined 503.00 1447.1 1.5397 715.00 0.0013986 503.00 1447.1 1.5397 2.5467 2.8713 2482.9 -0.0050468 595.98 0.35279 715.00 0.0013986 503.00 1447.1 1.5397 2.5467 2.8713 2482.9 -0.0050468 595.98 0.35279
187.38 98113. undefined 505.55 1451.6 1.5453 715.00 0.0013986 505.55 1451.6 1.5453 2.5506 2.8749 2483.7 -0.0050403 595.58 0.35327 715.00 0.0013986 505.55 1451.6 1.5453 2.5506 2.8749 2483.7 -0.0050403 595.58 0.35327
188.38 98316. undefined 508.10 1456.2 1.5508 715.00 0.0013986 508.10 1456.2 1.5508 2.5545 2.8785 2484.5 -0.0050337 595.18 0.35374 715.00 0.0013986 508.10 1456.2 1.5508 2.5545 2.8785 2484.5 -0.0050337 595.18 0.35374
189.38 98519. undefined 510.66 1460.7 1.5564 715.00 0.0013986 510.66 1460.7 1.5564 2.5583 2.8821 2485.3 -0.0050272 594.78 0.35422 715.00 0.0013986 510.66 1460.7 1.5564 2.5583 2.8821 2485.3 -0.0050272 594.78 0.35422
190.38 98722. undefined 513.22 1465.2 1.5619 715.00 0.0013986 513.22 1465.2 1.5619 2.5622 2.8857 2486.1 -0.0050207 594.39 0.35469 715.00 0.0013986 513.22 1465.2 1.5619 2.5622 2.8857 2486.1 -0.0050207 594.39 0.35469
191.38 98925. undefined 515.78 1469.7 1.5674 715.00 0.0013986 515.78 1469.7 1.5674 2.5660 2.8893 2486.9 -0.0050142 594.00 0.35517 715.00 0.0013986 515.78 1469.7 1.5674 2.5660 2.8893 2486.9 -0.0050142 594.00 0.35517
192.38 99128. undefined 518.35 1474.2 1.5729 715.00 0.0013986 518.35 1474.2 1.5729 2.5699 2.8929 2487.7 -0.0050078 593.61 0.35565 715.00 0.0013986 518.35 1474.2 1.5729 2.5699 2.8929 2487.7 -0.0050078 593.61 0.35565
193.38 99330. undefined 520.92 1478.8 1.5784 715.00 0.0013986 520.92 1478.8 1.5784 2.5737 2.8965 2488.5 -0.0050013 593.23 0.35612 715.00 0.0013986 520.92 1478.8 1.5784 2.5737 2.8965 2488.5 -0.0050013 593.23 0.35612
194.38 99532. undefined 523.49 1483.3 1.5840 715.00 0.0013986 523.49 1483.3 1.5840 2.5776 2.9000 2489.3 -0.0049949 592.85 0.35660 715.00 0.0013986 523.49 1483.3 1.5840 2.5776 2.9000 2489.3 -0.0049949 592.85 0.35660
195.38 99734. undefined 526.07 1487.8 1.5895 715.00 0.0013986 526.07 1487.8 1.5895 2.5814 2.9036 2490.1 -0.0049885 592.47 0.35708 715.00 0.0013986 526.07 1487.8 1.5895 2.5814 2.9036 2490.1 -0.0049885 592.47 0.35708
196.38 99936. undefined 528.66 1492.3 1.5950 715.00 0.0013986 528.66 1492.3 1.5950 2.5852 2.9072 2490.9 -0.0049822 592.09 0.35756 715.00 0.0013986 528.66 1492.3 1.5950 2.5852 2.9072 2490.9 -0.0049822 592.09 0.35756
197.38 1.0014e+05 undefined 531.24 1496.9 1.6005 715.00 0.0013986 531.24 1496.9 1.6005 2.5890 2.9108 2491.7 -0.0049758 591.72 0.35804 715.00 0.0013986 531.24 1496.9 1.6005 2.5890 2.9108 2491.7 -0.0049758 591.72 0.35804
198.38 1.0034e+05 undefined 533.84 1501.4 1.6060 715.00 0.0013986 533.84 1501.4 1.6060 2.5929 2.9143 2492.5 -0.0049695 591.35 0.35851 715.00 0.0013986 533.84 1501.4 1.6060 2.5929 2.9143 2492.5 -0.0049695 591.35 0.35851
199.38 1.0054e+05 undefined 536.43 1505.9 1.6115 715.00 0.0013986 536.43 1505.9 1.6115 2.5967 2.9179 2493.2 -0.0049632 590.98 0.35899 715.00 0.0013986 536.43 1505.9 1.6115 2.5967 2.9179 2493.2 -0.0049632 590.98 0.35899
200.38 1.0074e+05 undefined 539.03 1510.5 1.6170 715.00 0.0013986 539.03 1510.5 1.6170 2.6005 2.9215 2494.0 -0.0049569 590.61 0.35947 715.00 0.0013986 539.03 1510.5 1.6170 2.6005 2.9215 2494.0 -0.0049569 590.61 0.35947
201.38 1.0094e+05 undefined 541.63 1515.0 1.6225 715.00 0.0013986 541.63 1515.0 1.6225 2.6043 2.9250 2494.8 -0.0049507 590.25 0.35995 715.00 0.0013986 541.63 1515.0 1.6225 2.6043 2.9250 2494.8 -0.0049507 590.25 0.35995
202.38 1.0114e+05 undefined 544.24 1519.6 1.6280 715.00 0.0013986 544.24 1519.6 1.6280 2.6081 2.9286 2495.6 -0.0049445 589.89 0.36043 715.00 0.0013986 544.24 1519.6 1.6280 2.6081 2.9286 2495.6 -0.0049445 589.89 0.36043
203.38 1.0134e+05 undefined 546.85 1524.1 1.6334 715.00 0.0013986 546.85 1524.1 1.6334 2.6119 2.9321 2496.4 -0.0049382 589.53 0.36091 715.00 0.0013986 546.85 1524.1 1.6334 2.6119 2.9321 2496.4 -0.0049382 589.53 0.36091
204.38 1.0154e+05 undefined 549.46 1528.6 1.6389 715.00 0.0013986 549.46 1528.6 1.6389 2.6157 2.9357 2497.2 -0.0049321 589.17 0.36139 715.00 0.0013986 549.46 1528.6 1.6389 2.6157 2.9357 2497.2 -0.0049321 589.17 0.36139
205.38 1.0174e+05 undefined 552.08 1533.2 1.6444 715.00 0.0013986 552.08 1533.2 1.6444 2.6195 2.9392 2498.0 -0.0049259 588.82 0.36187 715.00 0.0013986 552.08 1533.2 1.6444 2.6195 2.9392 2498.0 -0.0049259 588.82 0.36187
206.38 1.0194e+05 undefined 554.70 1537.7 1.6499 715.00 0.0013986 554.70 1537.7 1.6499 2.6232 2.9428 2498.8 -0.0049198 588.46 0.36235 715.00 0.0013986 554.70 1537.7 1.6499 2.6232 2.9428 2498.8 -0.0049198 588.46 0.36235
207.38 1.0214e+05 undefined 557.33 1542.3 1.6553 715.00 0.0013986 557.33 1542.3 1.6553 2.6270 2.9463 2499.6 -0.0049136 588.11 0.36283 715.00 0.0013986 557.33 1542.3 1.6553 2.6270 2.9463 2499.6 -0.0049136 588.11 0.36283
208.38 1.0234e+05 undefined 559.95 1546.8 1.6608 715.00 0.0013986 559.95 1546.8 1.6608 2.6308 2.9498 2500.4 -0.0049075 587.76 0.36331 715.00 0.0013986 559.95 1546.8 1.6608 2.6308 2.9498 2500.4 -0.0049075 587.76 0.36331
209.38 1.0254e+05 undefined 562.59 1551.4 1.6663 715.00 0.0013986 562.59 1551.4 1.6663 2.6346 2.9533 2501.1 -0.0049015 587.42 0.36380 715.00 0.0013986 562.59 1551.4 1.6663 2.6346 2.9533 2501.1 -0.0049015 587.42 0.36380
210.38 1.0274e+05 undefined 565.22 1556.0 1.6717 715.00 0.0013986 565.22 1556.0 1.6717 2.6383 2.9569 2501.9 -0.0048954 587.08 0.36428 715.00 0.0013986 565.22 1556.0 1.6717 2.6383 2.9569 2501.9 -0.0048954 587.08 0.36428
211.38 1.0294e+05 undefined 567.86 1560.5 1.6772 715.00 0.0013986 567.86 1560.5 1.6772 2.6421 2.9604 2502.7 -0.0048894 586.73 0.36476 715.00 0.0013986 567.86 1560.5 1.6772 2.6421 2.9604 2502.7 -0.0048894 586.73 0.36476
212.38 1.0314e+05 undefined 570.51 1565.1 1.6826 715.00 0.0013986 570.51 1565.1 1.6826 2.6458 2.9639 2503.5 -0.0048833 586.40 0.36524 715.00 0.0013986 570.51 1565.1 1.6826 2.6458 2.9639 2503.5 -0.0048833 586.40 0.36524
213.38 1.0334e+05 undefined 573.16 1569.6 1.6881 715.00 0.0013986 573.16 1569.6 1.6881 2.6496 2.9674 2504.3 -0.0048774 586.06 0.36573 715.00 0.0013986 573.16 1569.6 1.6881 2.6496 2.9674 2504.3 -0.0048774 586.06 0.36573
214.38 1.0353e+05 undefined 575.81 1574.2 1.6935 715.00 0.0013986 575.81 1574.2 1.6935 2.6533 2.9709 2505.1 -0.0048714 585.72 0.36621 715.00 0.0013986 575.81 1574.2 1.6935 2.6533 2.9709 2505.1 -0.0048714 585.72 0.36621
215.38 1.0373e+05 undefined 578.46 1578.8 1.6990 715.00 0.0013986 578.46 1578.8 1.6990 2.6570 2.9744 2505.9 -0.0048654 585.39 0.36669 715.00 0.0013986 578.46 1578.8 1.6990 2.6570 2.9744 2505.9 -0.0048654 585.39 0.36669
216.38 1.0393e+05 undefined 581.12 1583.3 1.7044 715.00 0.0013986 581.12 1583.3 1.7044 2.6608 2.9779 2506.6 -0.0048595 585.06 0.36718 715.00 0.0013986 581.12 1583.3 1.7044 2.6608 2.9779 2506.6 -0.0048595 585.06 0.36718
217.38 1.0413e+05 undefined 583.78 1587.9 1.7098 715.00 0.0013986 583.78 1587.9 1.7098 2.6645 2.9814 2507.4 -0.0048536 584.73 0.36766 715.00 0.0013986 583.78 1587.9 1.7098 2.6645 2.9814 2507.4 -0.0048536 584.73 0.36766
218.38 1.0433e+05 undefined 586.45 1592.5 1.7153 715.00 0.0013986 586.45 1592.5 1.7153 2.6682 2.9849 2508.2 -0.0048477 584.41 0.36814 715.00 0.0013986 586.45 1592.5 1.7153 2.6682 2.9849 2508.2 -0.0048477 584.41 0.36814
219.38 1.0452e+05 undefined 589.12 1597.0 1.7207 715.00 0.0013986 589.12 1597.0 1.7207 2.6719 2.9884 2509.0 -0.0048418 584.08 0.36863 715.00 0.0013986 589.12 1597.0 1.7207 2.6719 2.9884 2509.0 -0.0048418 584.08 0.36863
220.38 1.0472e+05 undefined 591.79 1601.6 1.7261 715.00 0.0013986 591.79 1601.6 1.7261 2.6756 2.9918 2509.8 -0.0048360 583.76 0.36911 715.00 0.0013986 591.79 1601.6 1.7261 2.6756 2.9918 2509.8 -0.0048360 583.76 0.36911
221.38 1.0492e+05 undefined 594.47 1606.2 1.7315 715.00 0.0013986 594.47 1606.2 1.7315 2.6794 2.9953 2510.5 -0.0048302 583.44 0.36960 715.00 0.0013986 594.47 1606.2 1.7315 2.6794 2.9953 2510.5 -0.0048302 583.44 0.36960
222.38 1.0511e+05 undefined 597.15 1610.8 1.7369 715.00 0.0013986 597.15 1610.8 1.7369 2.6831 2.9988 2511.3 -0.0048244 583.12 0.37008 715.00 0.0013986 597.15 1610.8 1.7369 2.6831 2.9988 2511.3 -0.0048244 583.12 0.37008
223.38 1.0531e+05 undefined 599.84 1615.3 1.7424 715.00 0.0013986 599.84 1615.3 1.7424 2.6868 3.0023 2512.1 -0.0048186 582.81 0.37057 715.00 0.0013986 599.84 1615.3 1.7424 2.6868 3.0023 2512.1 -0.0048186 582.81 0.37057
224.38 1.0551e+05 undefined 602.53 1619.9 1.7478 715.00 0.0013986 602.53 1619.9 1.7478 2.6904 3.0057 2512.9 -0.0048128 582.49 0.37106 715.00 0.0013986 602.53 1619.9 1.7478 2.6904 3.0057 2512.9 -0.0048128 582.49 0.37106
225.38 1.0570e+05 undefined 605.22 1624.5 1.7532 715.00 0.0013986 605.22 1624.5 1.7532 2.6941 3.0092 2513.7 -0.0048071 582.18 0.37154 715.00 0.0013986 605.22 1624.5 1.7532 2.6941 3.0092 2513.7 -0.0048071 582.18 0.37154
226.38 1.0590e+05 undefined 607.91 1629.1 1.7586 715.00 0.0013986 607.91 1629.1 1.7586 2.6978 3.0126 2514.4 -0.0048013 581.87 0.37203 715.00 0.0013986 607.91 1629.1 1.7586 2.6978 3.0126 2514.4 -0.0048013 581.87 0.37203
227.38 1.0609e+05 undefined 610.61 1633.7 1.7640 715.00 0.0013986 610.61 1633.7 1.7640 2.7015 3.0161 2515.2 -0.0047956 581.57 0.37252 715.00 0.0013986 610.61 1633.7 1.7640 2.7015 3.0161 2515.2 -0.0047956 581.57 0.37252
228.38 1.0629e+05 undefined 613.32 1638.3 1.7694 715.00 0.0013986 613.32 1638.3 1.7694 2.7052 3.0195 2516.0 -0.0047899 581.26 0.37300 715.00 0.0013986 613.32 1638.3 1.7694 2.7052 3.0195 2516.0 -0.0047899 581.26 0.37300
229.38 1.0649e+05 undefined 616.02 1642.9 1.7748 715.00 0.0013986 616.02 1642.9 1.7748 2.7088 3.0230 2516.8 -0.0047843 580.96 0.37349 715.00 0.0013986 616.02 1642.9 1.7748 2.7088 3.0230 2516.8 -0.0047843 580.96 0.37349
230.38 1.0668e+05 undefined 618.73 1647.5 1.7801 715.00 0.0013986 618.73 1647.5 1.7801 2.7125 3.0264 2517.5 -0.0047786 580.65 0.37398 715.00 0.0013986 618.73 1647.5 1.7801 2.7125 3.0264 2517.5 -0.0047786 580.65 0.37398
231.38 1.0688e+05 undefined 621.45 1652.1 1.7855 715.00 0.0013986 621.45 1652.1 1.7855 2.7161 3.0298 2518.3 -0.0047730 580.35 0.37447 715.00 0.0013986 621.45 1652.1 1.7855 2.7161 3.0298 2518.3 -0.0047730 580.35 0.37447
232.38 1.0707e+05 undefined 624.17 1656.7 1.7909 715.00 0.0013986 624.17 1656.7 1.7909 2.7198 3.0333 2519.1 -0.0047674 580.05 0.37495 715.00 0.0013986 624.17 1656.7 1.7909 2.7198 3.0333 2519.1 -0.0047674 580.05 0.37495
233.38 1.0727e+05 undefined 626.89 1661.3 1.7963 715.00 0.0013986 626.89 1661.3 1.7963 2.7234 3.0367 2519.8 -0.0047618 579.76 0.37544 715.00 0.0013986 626.89 1661.3 1.7963 2.7234 3.0367 2519.8 -0.0047618 579.76 0.37544
234.38 1.0746e+05 undefined 629.61 1665.9 1.8017 715.00 0.0013986 629.61 1665.9 1.8017 2.7271 3.0401 2520.6 -0.0047562 579.46 0.37593 715.00 0.0013986 629.61 1665.9 1.8017 2.7271 3.0401 2520.6 -0.0047562 579.46 0.37593
235.38 1.0765e+05 undefined 632.34 1670.5 1.8070 715.00 0.0013986 632.34 1670.5 1.8070 2.7307 3.0435 2521.4 -0.0047507 579.17 0.37642 715.00 0.0013986 632.34 1670.5 1.8070 2.7307 3.0435 2521.4 -0.0047507 579.17 0.37642
236.38 1.0785e+05 undefined 635.08 1675.1 1.8124 715.00 0.0013986 635.08 1675.1 1.8124 2.7343 3.0469 2522.2 -0.0047452 578.88 0.37691 715.00 0.0013986 635.08 1675.1 1.8124 2.7343 3.0469 2522.2 -0.0047452 578.88 0.37691
237.38 1.0804e+05 undefined 637.81 1679.7 1.8178 715.00 0.0013986 637.81 1679.7 1.8178 2.7380 3.0503 2522.9 -0.0047396 578.59 0.37740 715.00 0.0013986 637.81 1679.7 1.8178 2.7380 3.0503 2522.9 -0.0047396 578.59 0.37740
238.38 1.0824e+05 undefined 640.55 1684.3 1.8231 715.00 0.0013986 640.55 1684.3 1.8231 2.7416 3.0537 2523.7 -0.0047342 578.30 0.37789 715.00 0.0013986 640.55 1684.3 1.8231 2.7416 3.0537 2523.7 -0.0047342 578.30 0.37789
239.38 1.0843e+05 undefined 643.29 1688.9 1.8285 715.00 0.0013986 643.29 1688.9 1.8285 2.7452 3.0571 2524.5 -0.0047287 578.02 0.37838 715.00 0.0013986 643.29 1688.9 1.8285 2.7452 3.0571 2524.5 -0.0047287 578.02 0.37838
240.38 1.0862e+05 undefined 646.04 1693.5 1.8338 715.00 0.0013986 646.04 1693.5 1.8338 2.7488 3.0605 2525.2 -0.0047232 577.73 0.37887 715.00 0.0013986 646.04 1693.5 1.8338 2.7488 3.0605 2525.2 -0.0047232 577.73 0.37887
241.38 1.0882e+05 undefined 648.79 1698.1 1.8392 715.00 0.0013986 648.79 1698.1 1.8392 2.7524 3.0639 2526.0 -0.0047178 577.45 0.37936 715.00 0.0013986 648.79 1698.1 1.8392 2.7524 3.0639 2526.0 -0.0047178 577.45 0.37936
242.38 1.0901e+05 undefined 651.55 1702.7 1.8445 715.00 0.0013986 651.55 1702.7 1.8445 2.7560 3.0673 2526.8 -0.0047124 577.17 0.37985 715.00 0.0013986 651.55 1702.7 1.8445 2.7560 3.0673 2526.8 -0.0047124 577.17 0.37985
243.38 1.0920e+05 undefined 654.30 1707.3 1.8499 715.00 0.0013986 654.30 1707.3 1.8499 2.7596 3.0707 2527.5 -0.0047070 576.89 0.38035 715.00 0.0013986 654.30 1707.3 1.8499 2.7596 3.0707 2527.5 -0.0047070 576.89 0.38035
244.38 1.0940e+05 undefined 657.07 1712.0 1.8552 715.00 0.0013986 657.07 1712.0 1.8552 2.7632 3.0741 2528.3 -0.0047016 576.62 0.38084 715.00 0.0013986 657.07 1712.0 1.8552 2.7632 3.0741 2528.3 -0.0047016 576.62 0.38084
245.38 1.0959e+05 undefined 659.83 1716.6 1.8606 715.00 0.0013986 659.83 1716.6 1.8606 2.7668 3.0774 2529.1 -0.0046962 576.34 0.38133 715.00 0.0013986 659.83 1716.6 1.8606 2.7668 3.0774 2529.1 -0.0046962 576.34 0.38133
246.38 1.0978e+05 undefined 662.60 1721.2 1.8659 715.00 0.0013986 662.60 1721.2 1.8659 2.7704 3.0808 2529.8 -0.0046909 576.07 0.38182 715.00 0.0013986 662.60 1721.2 1.8659 2.7704 3.0808 2529.8 -0.0046909 576.07 0.38182
247.38 1.0997e+05 undefined 665.37 1725.8 1.8712 715.00 0.0013986 665.37 1725.8 1.8712 2.7740 3.0842 2530.6 -0.0046856 575.79 0.38231 715.00 0.0013986 665.37 1725.8 1.8712 2.7740 3.0842 2530.6 -0.0046856 575.79 0.38231
248.38 1.1016e+05 undefined 668.15 1730.5 1.8766 715.00 0.0013986 668.15 1730.5 1.8766 2.7775 3.0875 2531.3 -0.0046803 575.52 0.38281 715.00 0.0013986 668.15 1730.5 1.8766 2.7775 3.0875 2531.3 -0.0046803 575.52 0.38281
249.38 1.1036e+05 undefined 670.93 1735.1 1.8819 715.00 0.0013986 670.93 1735.1 1.8819 2.7811 3.0909 2532.1 -0.0046750 575.26 0.38330 715.00 0.0013986 670.93 1735.1 1.8819 2.7811 3.0909 2532.1 -0.0046750 575.26 0.38330
250.38 1.1055e+05 undefined 673.71 1739.7 1.8872 715.00 0.0013986 673.71 1739.7 1.8872 2.7847 3.0942 2532.9 -0.0046697 574.99 0.38379 715.00 0.0013986 673.71 1739.7 1.8872 2.7847 3.0942 2532.9 -0.0046697 574.99 0.38379
251.38 1.1074e+05 undefined 676.50 1744.4 1.8925 715.00 0.0013986 676.50 1744.4 1.8925 2.7882 3.0976 2533.6 -0.0046645 574.72 0.38429 715.00 0.0013986 676.50 1744.4 1.8925 2.7882 3.0976 2533.6 -0.0046645 574.72 0.38429
252.38 1.1093e+05 undefined 679.29 1749.0 1.8978 715.00 0.0013986 679.29 1749.0 1.8978 2.7918 3.1009 2534.4 -0.0046592 574.46 0.38478 715.00 0.0013986 679.29 1749.0 1.8978 2.7918 3.1009 2534.4 -0.0046592 574.46 0.38478
253.38 1.1112e+05 undefined 682.08 1753.6 1.9032 715.00 0.0013986 682.08 1753.6 1.9032 2.7953 3.1043 2535.2 -0.0046540 574.20 0.38528 715.00 0.0013986 682.08 1753.6 1.9032 2.7953 3.1043 2535.2 -0.0046540 574.20 0.38528
254.38 1.1131e+05 undefined 684.88 1758.3 1.9085 715.00 0.0013986 684.88 1758.3 1.9085 2.7989 3.1076 2535.9 -0.0046488 573.94 0.38577 715.00 0.0013986 684.88 1758.3 1.9085 2.7989 3.1076 2535.9 -0.0046488 573.94 0.38577
255.38 1.1150e+05 undefined 687.68 1762.9 1.9138 715.00 0.0013986 687.68 1762.9 1.9138 2.8024 3.1109 2536.7 -0.0046436 573.68 0.38627 715.00 0.0013986 687.68 1762.9 1.9138 2.8024 3.1109 2536.7 -0.0046436 573.68 0.38627
256.38 1.1169e+05 undefined 690.48 1767.6 1.9191 715.00 0.0013986 690.48 1767.6 1.9191 2.8059 3.1143 2537.4 -0.0046385 573.42 0.38676 715.00 0.0013986 690.48 1767.6 1.9191 2.8059 3.1143 2537.4 -0.0046385 573.42 0.38676
257.38 1.1189e+05 undefined 693.29 1772.2 1.9244 715.00 0.0013986 693.29 1772.2 1.9244 2.8094 3.1176 2538.2 -0.0046333 573.16 0.38726 715.00 0.0013986 693.29 1772.2 1.9244 2.8094 3.1176 2538.2 -0.0046333 573.16 0.38726
258.38 1.1208e+05 undefined 696.10 1776.8 1.9297 715.00 0.0013986 696.10 1776.8 1.9297 2.8130 3.1209 2538.9 -0.0046282 572.91 0.38775 715.00 0.0013986 696.10 1776.8 1.9297 2.8130 3.1209 2538.9 -0.0046282 572.91 0.38775
259.38 1.1227e+05 undefined 698.92 1781.5 1.9349 715.00 0.0013986 698.92 1781.5 1.9349 2.8165 3.1242 2539.7 -0.0046231 572.66 0.38825 715.00 0.0013986 698.92 1781.5 1.9349 2.8165 3.1242 2539.7 -0.0046231 572.66 0.38825
260.38 1.1246e+05 undefined 701.73 1786.1 1.9402 715.00 0.0013986 701.73 1786.1 1.9402 2.8200 3.1275 2540.5 -0.0046180 572.41 0.38875 715.00 0.0013986 701.73 1786.1 1.9402 2.8200 3.1275 2540.5 -0.0046180 572.41 0.38875
261.38 1.1265e+05 undefined 704.56 1790.8 1.9455 715.00 0.0013986 704.56 1790.8 1.9455 2.8235 3.1308 2541.2 -0.0046129 572.16 0.38924 715.00 0.0013986 704.56 1790.8 1.9455 2.8235 3.1308 2541.2 -0.0046129 572.16 0.38924
262.38 1.1284e+05 undefined 707.38 1795.5 1.9508 715.00 0.0013986 707.38 1795.5 1.9508 2.8270 3.1341 2542.0 -0.0046079 571.91 0.38974 715.00 0.0013986 707.38 1795.5 1.9508 2.8270 3.1341 2542.0 -0.0046079 571.91 0.38974
263.38 1.1303e+05 undefined 710.21 1800.1 1.9561 715.00 0.0013986 710.21 1800.1 1.9561 2.8305 3.1374 2542.7 -0.0046028 571.66 0.39024 715.00 0.0013986 710.21 1800.1 1.9561 2.8305 3.1374 2542.7 -0.0046028 571.66 0.39024
264.38 1.1321e+05 undefined 713.04 1804.8 1.9613 715.00 0.0013986 713.04 1804.8 1.9613 2.8340 3.1407 2543.5 -0.0045978 571.42 0.39074 715.00 0.0013986 713.04 1804.8 1.9613 2.8340 3.1407 2543.5 -0.0045978 571.42 0.39074
265.38 1.1340e+05 undefined 715.88 1809.4 1.9666 715.00 0.0013986 715.88 1809.4 1.9666 2.8375 3.1440 2544.2 -0.0045928 571.17 0.39123 715.00 0.0013986 715.88 1809.4 1.9666 2.8375 3.1440 2544.2 -0.0045928 571.17 0.39123
266.38 1.1359e+05 undefined 718.72 1814.1 1.9719 715.00 0.0013986 718.72 1814.1 1.9719 2.8410 3.1473 2545.0 -0.0045878 570.93 0.39173 715.00 0.0013986 718.72 1814.1 1.9719 2.8410 3.1473 2545.0 -0.0045878 570.93 0.39173
267.38 1.1378e+05 undefined 721.56 1818.8 1.9771 715.00 0.0013986 721.56 1818.8 1.9771 2.8444 3.1506 2545.7 -0.0045829 570.69 0.39223 715.00 0.0013986 721.56 1818.8 1.9771 2.8444 3.1506 2545.7 -0.0045829 570.69 0.39223
268.38 1.1397e+05 undefined 724.41 1823.4 1.9824 715.00 0.0013986 724.41 1823.4 1.9824 2.8479 3.1538 2546.5 -0.0045779 570.45 0.39273 715.00 0.0013986 724.41 1823.4 1.9824 2.8479 3.1538 2546.5 -0.0045779 570.45 0.39273
269.38 1.1416e+05 undefined 727.25 1828.1 1.9877 715.00 0.0013986 727.25 1828.1 1.9877 2.8514 3.1571 2547.2 -0.0045730 570.21 0.39323 715.00 0.0013986 727.25 1828.1 1.9877 2.8514 3.1571 2547.2 -0.0045730 570.21 0.39323
270.38 1.1435e+05 undefined 730.11 1832.8 1.9929 715.00 0.0013986 730.11 1832.8 1.9929 2.8548 3.1604 2548.0 -0.0045680 569.97 0.39373 715.00 0.0013986 730.11 1832.8 1.9929 2.8548 3.1604 2548.0 -0.0045680 569.97 0.39373
271.38 1.1454e+05 undefined 732.96 1837.4 1.9982 715.00 0.0013986 732.96 1837.4 1.9982 2.8583 3.1636 2548.7 -0.0045631 569.74 0.39423 715.00 0.0013986 732.96 1837.4 1.9982 2.8583 3.1636 2548.7 -0.0045631 569.74 0.39423
272.38 1.1472e+05 undefined 735.82 1842.1 2.0034 715.00 0.0013986 735.82 1842.1 2.0034 2.8617 3.1669 2549.5 -0.0045582 569.50 0.39473 715.00 0.0013986 735.82 1842.1 2.0034 2.8617 3.1669 2549.5 -0.0045582 569.50 0.39473
273.38 1.1491e+05 undefined 738.69 1846.8 2.0087 715.00 0.0013986 738.69 1846.8 2.0087 2.8652 3.1701 2550.2 -0.0045534 569.27 0.39523 715.00 0.0013986 738.69 1846.8 2.0087 2.8652 3.1701 2550.2 -0.0045534 569.27 0.39523
274.38 1.1510e+05 undefined 741.55 1851.5 2.0139 715.00 0.0013986 741.55 1851.5 2.0139 2.8686 3.1734 2551.0 -0.0045485 569.04 0.39573 715.00 0.0013986 741.55 1851.5 2.0139 2.8686 3.1734 2551.0 -0.0045485 569.04 0.39573
275.38 1.1529e+05 undefined 744.43 1856.1 2.0191 715.00 0.0013986 744.43 1856.1 2.0191 2.8721 3.1766 2551.7 -0.0045437 568.81 0.39623 715.00 0.0013986 744.43 1856.1 2.0191 2.8721 3.1766 2551.7 -0.0045437 568.81 0.39623
276.38 1.1547e+05 undefined 747.30 1860.8 2.0244 715.00 0.0013986 747.30 1860.8 2.0244 2.8755 3.1799 2552.5 -0.0045388 568.58 0.39673 715.00 0.0013986 747.30 1860.8 2.0244 2.8755 3.1799 2552.5 -0.0045388 568.58 0.39673
277.38 1.1566e+05 undefined 750.18 1865.5 2.0296 715.00 0.0013986 750.18 1865.5 2.0296 2.8789 3.1831 2553.2 -0.0045340 568.35 0.39723 715.00 0.0013986 750.18 1865.5 2.0296 2.8789 3.1831 2553.2 -0.0045340 568.35 0.39723
278.38 1.1585e+05 undefined 753.06 1870.2 2.0348 715.00 0.0013986 753.06 1870.2 2.0348 2.8823 3.1863 2554.0 -0.0045292 568.13 0.39773 715.00 0.0013986 753.06 1870.2 2.0348 2.8823 3.1863 2554.0 -0.0045292 568.13 0.39773
279.38 1.1604e+05 undefined 755.94 1874.9 2.0401 715.00 0.0013986 755.94 1874.9 2.0401 2.8858 3.1895 2554.7 -0.0045245 567.90 0.39824 715.00 0.0013986 755.94 1874.9 2.0401 2.8858 3.1895 2554.7 -0.0045245 567.90 0.39824
280.38 1.1622e+05 undefined 758.83 1879.6 2.0453 715.00 0.0013986 758.83 1879.6 2.0453 2.8892 3.1928 2555.5 -0.0045197 567.68 0.39874 715.00 0.0013986 758.83 1879.6 2.0453 2.8892 3.1928 2555.5 -0.0045197 567.68 0.39874
281.38 1.1641e+05 undefined 761.72 1884.2 2.0505 715.00 0.0013986 761.72 1884.2 2.0505 2.8926 3.1960 2556.2 -0.0045150 567.46 0.39924 715.00 0.0013986 761.72 1884.2 2.0505 2.8926 3.1960 2556.2 -0.0045150 567.46 0.39924
282.38 1.1659e+05 undefined 764.61 1888.9 2.0557 715.00 0.0013986 764.61 1888.9 2.0557 2.8960 3.1992 2556.9 -0.0045102 567.24 0.39966 715.00 0.0013986 764.61 1888.9 2.0557 2.8960 3.1992 2556.9 -0.0045102 567.24 0.39966
283.38 1.1678e+05 undefined 767.51 1893.6 2.0609 715.00 0.0013986 767.51 1893.6 2.0609 2.8994 3.2024 2557.7 -0.0045055 567.02 0.40016 715.00 0.0013986 767.51 1893.6 2.0609 2.8994 3.2024 2557.7 -0.0045055 567.02 0.40016
284.38 1.1697e+05 undefined 770.41 1898.3 2.0661 715.00 0.0013986 770.41 1898.3 2.0661 2.9028 3.2056 2558.4 -0.0045008 566.80 0.40066 715.00 0.0013986 770.41 1898.3 2.0661 2.9028 3.2056 2558.4 -0.0045008 566.80 0.40066
285.38 1.1715e+05 undefined 773.32 1903.0 2.0713 715.00 0.0013986 773.32 1903.0 2.0713 2.9062 3.2088 2559.2 -0.0044962 566.58 0.40117 715.00 0.0013986 773.32 1903.0 2.0713 2.9062 3.2088 2559.2 -0.0044962 566.58 0.40117
286.38 1.1734e+05 undefined 776.22 1907.7 2.0765 715.00 0.0013986 776.22 1907.7 2.0765 2.9095 3.2120 2559.9 -0.0044915 566.37 0.40167 715.00 0.0013986 776.22 1907.7 2.0765 2.9095 3.2120 2559.9 -0.0044915 566.37 0.40167
287.38 1.1752e+05 undefined 779.14 1912.4 2.0817 715.00 0.0013986 779.14 1912.4 2.0817 2.9129 3.2152 2560.6 -0.0044868 566.15 0.40218 715.00 0.0013986 779.14 1912.4 2.0817 2.9129 3.2152 2560.6 -0.0044868 566.15 0.40218
288.38 1.1771e+05 undefined 782.05 1917.1 2.0869 715.00 0.0013986 782.05 1917.1 2.0869 2.9163 3.2184 2561.4 -0.0044822 565.94 0.40268 715.00 0.0013986 782.05 1917.1 2.0869 2.9163 3.2184 2561.4 -0.0044822 565.94 0.40268
289.38 1.1790e+05 undefined 784.97 1921.8 2.0921 715.00 0.0013986 784.97 1921.8 2.0921 2.9197 3.2216 2562.1 -0.0044776 565.73 0.40318 715.00 0.0013986 784.97 1921.8 2.0921 2.9197 3.2216 2562.1 -0.0044776 565.73 0.40318
290.38 1.1808e+05 undefined 787.89 1926.5 2.0973 715.00 0.0013986 787.89 1926.5 2.0973 2.9230 3.2247 2562.9 -0.0044730 565.51 0.40369 715.00 0.0013986 787.89 1926.5 2.0973 2.9230 3.2247 2562.9 -0.0044730 565.51 0.40369
291.38 1.1827e+05 undefined 790.81 1931.3 2.1025 715.00 0.0013986 790.81 1931.3 2.1025 2.9264 3.2279 2563.6 -0.0044684 565.30 0.40420 715.00 0.0013986 790.81 1931.3 2.1025 2.9264 3.2279 2563.6 -0.0044684 565.30 0.40420
292.38 1.1845e+05 undefined 793.74 1936.0 2.1077 715.00 0.0013986 793.74 1936.0 2.1077 2.9297 3.2311 2564.3 -0.0044638 565.10 0.40470 715.00 0.0013986 793.74 1936.0 2.1077 2.9297 3.2311 2564.3 -0.0044638 565.10 0.40470
293.38 1.1864e+05 undefined 796.67 1940.7 2.1129 715.00 0.0013986 796.67 1940.7 2.1129 2.9331 3.2343 2565.1 -0.0044592 564.89 0.40521 715.00 0.0013986 796.67 1940.7 2.1129 2.9331 3.2343 2565.1 -0.0044592 564.89 0.40521
294.38 1.1882e+05 undefined 799.61 1945.4 2.1180 715.00 0.0013986 799.61 1945.4 2.1180 2.9364 3.2374 2565.8 -0.0044547 564.68 0.40571 715.00 0.0013986 799.61 1945.4 2.1180 2.9364 3.2374 2565.8 -0.0044547 564.68 0.40571
295.38 1.1900e+05 undefined 802.55 1950.1 2.1232 715.00 0.0013986 802.55 1950.1 2.1232 2.9398 3.2406 2566.5 -0.0044502 564.48 0.40622 715.00 0.0013986 802.55 1950.1 2.1232 2.9398 3.2406 2566.5 -0.0044502 564.48 0.40622
296.38 1.1919e+05 undefined 805.49 1954.8 2.1284 715.00 0.0013986 805.49 1954.8 2.1284 2.9431 3.2437 2567.3 -0.0044457 564.27 0.40673 715.00 0.0013986 805.49 1954.8 2.1284 2.9431 3.2437 2567.3 -0.0044457 564.27 0.40673
297.38 1.1937e+05 undefined 808.43 1959.6 2.1335 715.00 0.0013986 808.43 1959.6 2.1335 2.9464 3.2469 2568.0 -0.0044412 564.07 0.40723 715.00 0.0013986 808.43 1959.6 2.1335 2.9464 3.2469 2568.0 -0.0044412 564.07 0.40723
298.38 1.1956e+05 undefined 811.38 1964.3 2.1387 715.00 0.0013986 811.38 1964.3 2.1387 2.9498 3.2500 2568.7 -0.0044367 563.87 0.40774 715.00 0.0013986 811.38 1964.3 2.1387 2.9498 3.2500 2568.7 -0.0044367 563.87 0.40774
299.38 1.1974e+05 undefined 814.33 1969.0 2.1439 715.00 0.0013986 814.33 1969.0 2.1439 2.9531 3.2532 2569.5 -0.0044322 563.67 0.40825 715.00 0.0013986 814.33 1969.0 2.1439 2.9531 3.2532 2569.5 -0.0044322 563.67 0.40825
300.38 1.1993e+05 undefined 817.29 1973.7 2.1490 715.00 0.0013986 817.29 1973.7 2.1490 2.9564 3.2563 2570.2 -0.0044277 563.47 0.40876 715.00 0.0013986 817.29 1973.7 2.1490 2.9564 3.2563 2570.2 -0.0044277 563.47 0.40876