Temperature (C) Pressure (psia) Quality (l+v) Internal Energy (l+v, kJ/kg) Enthalpy (l+v, kJ/kg) Entropy (l+v, J/g*K) Density (l, kg/m3) Volume (l, m3/kg) Internal Energy (l, kJ/kg) Enthalpy (l, kJ/kg) Entropy (l, J/g*K) Cv (l, J/g*K) Cp (l, J/g*K) Sound Spd. (l, m/s) Joule-Thomson (l, F/psia) Viscosity (l, uPa*s) Therm. Cond. (l, W/m*K) Density (v, kg/m3) Volume (v, m3/kg) Internal Energy (v, kJ/kg) Enthalpy (v, kJ/kg) Entropy (v, J/g*K) Cv (v, J/g*K) Cp (v, J/g*K) Sound Spd. (v, m/s) Joule-Thomson (v, F/psia) Viscosity (v, uPa*s) Therm. Cond. (v, W/m*K)
-187.62 2.4953e-08 1.6309e-13 -196.64 -196.64 -1.3959 733.13 0.0013640 -196.64 -196.64 -1.3959 1.3553 1.9158 2136.4 -0.0077592 10960. 0.20792 1.0669e-08 9.3732e+07 350.13 366.26 5.1858 0.69067 0.87923 143.28 6.1051 2.3259 0.0017061
-186.62 3.7339e-08 2.1054e-13 -194.73 -194.73 -1.3736 732.08 0.0013660 -194.73 -194.73 -1.3736 1.3539 1.9166 2129.6 -0.0077546 10073. 0.20765 1.5780e-08 6.3371e+07 350.82 367.14 5.1200 0.69462 0.88317 144.03 5.9178 2.3534 0.0017533
-185.62 5.5322e-08 2.6335e-13 -192.81 -192.81 -1.3516 731.04 0.0013679 -192.81 -192.81 -1.3516 1.3525 1.9174 2122.9 -0.0077498 9276.1 0.20737 2.3112e-08 4.3267e+07 351.52 368.02 5.0561 0.69857 0.88713 144.77 5.7383 2.3808 0.0018007
-184.62 8.1182e-08 3.1669e-13 -190.89 -190.89 -1.3298 730.00 0.0013699 -190.89 -190.89 -1.3298 1.3513 1.9182 2116.1 -0.0077448 8557.8 0.20708 3.3533e-08 2.9821e+07 352.22 368.91 4.9939 0.70253 0.89108 145.51 5.5662 2.4083 0.0018485
-183.62 1.1803e-07 3.6113e-13 -188.97 -188.97 -1.3083 728.96 0.0013718 -188.97 -188.97 -1.3083 1.3501 1.9191 2109.3 -0.0077395 7909.8 0.20678 4.8211e-08 2.0742e+07 352.92 369.81 4.9333 0.70648 0.89504 146.24 5.4011 2.4357 0.0018965
-182.62 1.7009e-07 3.8023e-13 -187.05 -187.05 -1.2869 727.92 0.0013738 -187.05 -187.05 -1.2869 1.3490 1.9201 2102.5 -0.0077340 7324.3 0.20647 6.8704e-08 1.4555e+07 353.63 370.70 4.8744 0.71043 0.89899 146.97 5.2426 2.4632 0.0019448
-181.62 2.4299e-07 3.4705e-13 -185.13 -185.13 -1.2658 726.88 0.0013757 -185.13 -185.13 -1.2658 1.3480 1.9210 2095.7 -0.0077283 6794.5 0.20616 9.7079e-08 1.0301e+07 354.35 371.60 4.8170 0.71438 0.90294 147.69 5.0904 2.4906 0.0019934
-180.62 3.4425e-07 2.1938e-13 -183.21 -183.21 -1.2450 725.85 0.0013777 -183.21 -183.21 -1.2450 1.3470 1.9220 2088.9 -0.0077225 6314.4 0.20584 1.3605e-07 7.3504e+06 355.06 372.51 4.7612 0.71833 0.90688 148.41 4.9442 2.5181 0.0020423
-179.62 81.723 undefined -181.39 -180.62 -1.2254 725.00 0.0013793 -181.39 -180.62 -1.2254 1.3466 1.9229 2083.8 -0.0077171 5912.8 0.20564 725.00 0.0013793 -181.39 -180.62 -1.2254 1.3466 1.9229 2083.8 -0.0077171 5912.8 0.20564
-178.62 535.81 undefined -180.05 -174.95 -1.2111 725.00 0.0013793 -180.05 -174.95 -1.2111 1.3485 1.9230 2086.8 -0.0077146 5691.9 0.20605 725.00 0.0013793 -180.05 -174.95 -1.2111 1.3485 1.9230 2086.8 -0.0077146 5691.9 0.20605
-177.62 987.78 undefined -178.70 -169.30 -1.1969 725.00 0.0013793 -178.70 -169.30 -1.1969 1.3504 1.9232 2089.8 -0.0077119 5484.5 0.20646 725.00 0.0013793 -178.70 -169.30 -1.1969 1.3504 1.9232 2089.8 -0.0077119 5484.5 0.20646
-176.62 1437.7 undefined -177.34 -163.67 -1.1828 725.00 0.0013793 -177.34 -163.67 -1.1828 1.3522 1.9234 2092.9 -0.0077091 5289.6 0.20687 725.00 0.0013793 -177.34 -163.67 -1.1828 1.3522 1.9234 2092.9 -0.0077091 5289.6 0.20687
-175.62 1885.5 undefined -175.99 -158.06 -1.1689 725.00 0.0013793 -175.99 -158.06 -1.1689 1.3541 1.9236 2095.9 -0.0077063 5106.3 0.20728 725.00 0.0013793 -175.99 -158.06 -1.1689 1.3541 1.9236 2095.9 -0.0077063 5106.3 0.20728
-174.62 2331.3 undefined -174.64 -152.46 -1.1550 725.00 0.0013793 -174.64 -152.46 -1.1550 1.3560 1.9239 2098.9 -0.0077033 4933.6 0.20770 725.00 0.0013793 -174.64 -152.46 -1.1550 1.3560 1.9239 2098.9 -0.0077033 4933.6 0.20770
-173.62 2775.2 undefined -173.28 -146.89 -1.1413 725.00 0.0013793 -173.28 -146.89 -1.1413 1.3579 1.9242 2102.0 -0.0077003 4770.9 0.20811 725.00 0.0013793 -173.28 -146.89 -1.1413 1.3579 1.9242 2102.0 -0.0077003 4770.9 0.20811
-172.62 3217.1 undefined -171.92 -141.33 -1.1277 725.00 0.0013793 -171.92 -141.33 -1.1277 1.3598 1.9245 2105.0 -0.0076972 4617.3 0.20852 725.00 0.0013793 -171.92 -141.33 -1.1277 1.3598 1.9245 2105.0 -0.0076972 4617.3 0.20852
-171.62 3657.2 undefined -170.56 -135.78 -1.1143 725.00 0.0013793 -170.56 -135.78 -1.1143 1.3618 1.9248 2108.0 -0.0076940 4472.4 0.20893 725.00 0.0013793 -170.56 -135.78 -1.1143 1.3618 1.9248 2108.0 -0.0076940 4472.4 0.20893
-170.62 4095.3 undefined -169.20 -130.25 -1.1009 725.00 0.0013793 -169.20 -130.25 -1.1009 1.3637 1.9252 2111.0 -0.0076908 4335.3 0.20934 725.00 0.0013793 -169.20 -130.25 -1.1009 1.3637 1.9252 2111.0 -0.0076908 4335.3 0.20934
-169.62 4531.6 undefined -167.83 -124.74 -1.0877 725.00 0.0013793 -167.83 -124.74 -1.0877 1.3656 1.9256 2114.0 -0.0076875 4205.7 0.20976 725.00 0.0013793 -167.83 -124.74 -1.0877 1.3656 1.9256 2114.0 -0.0076875 4205.7 0.20976
-168.62 4966.1 undefined -166.47 -119.24 -1.0745 725.00 0.0013793 -166.47 -119.24 -1.0745 1.3676 1.9260 2117.0 -0.0076842 4082.9 0.21017 725.00 0.0013793 -166.47 -119.24 -1.0745 1.3676 1.9260 2117.0 -0.0076842 4082.9 0.21017
-167.62 5398.7 undefined -165.10 -113.76 -1.0615 725.00 0.0013793 -165.10 -113.76 -1.0615 1.3695 1.9264 2119.9 -0.0076809 3966.6 0.21058 725.00 0.0013793 -165.10 -113.76 -1.0615 1.3695 1.9264 2119.9 -0.0076809 3966.6 0.21058
-166.62 5829.6 undefined -163.73 -108.29 -1.0486 725.00 0.0013793 -163.73 -108.29 -1.0486 1.3715 1.9268 2122.9 -0.0076775 3856.3 0.21100 725.00 0.0013793 -163.73 -108.29 -1.0486 1.3715 1.9268 2122.9 -0.0076775 3856.3 0.21100
-165.62 6258.8 undefined -162.35 -102.83 -1.0357 725.00 0.0013793 -162.35 -102.83 -1.0357 1.3734 1.9273 2125.8 -0.0076741 3751.6 0.21141 725.00 0.0013793 -162.35 -102.83 -1.0357 1.3734 1.9273 2125.8 -0.0076741 3751.6 0.21141
-164.62 6686.2 undefined -160.98 -97.394 -1.0230 725.00 0.0013793 -160.98 -97.394 -1.0230 1.3754 1.9277 2128.7 -0.0076706 3652.1 0.21182 725.00 0.0013793 -160.98 -97.394 -1.0230 1.3754 1.9277 2128.7 -0.0076706 3652.1 0.21182
-163.62 7111.9 undefined -159.60 -91.969 -1.0104 725.00 0.0013793 -159.60 -91.969 -1.0104 1.3773 1.9282 2131.6 -0.0076672 3557.5 0.21224 725.00 0.0013793 -159.60 -91.969 -1.0104 1.3773 1.9282 2131.6 -0.0076672 3557.5 0.21224
-162.62 7535.9 undefined -158.22 -86.559 -0.99787 725.00 0.0013793 -158.22 -86.559 -0.99787 1.3793 1.9287 2134.5 -0.0076637 3467.4 0.21265 725.00 0.0013793 -158.22 -86.559 -0.99787 1.3793 1.9287 2134.5 -0.0076637 3467.4 0.21265
-161.62 7958.2 undefined -156.84 -81.162 -0.98544 725.00 0.0013793 -156.84 -81.162 -0.98544 1.3813 1.9292 2137.3 -0.0076602 3381.7 0.21307 725.00 0.0013793 -156.84 -81.162 -0.98544 1.3813 1.9292 2137.3 -0.0076602 3381.7 0.21307
-160.62 8378.9 undefined -155.46 -75.779 -0.97310 725.00 0.0013793 -155.46 -75.779 -0.97310 1.3833 1.9297 2140.2 -0.0076567 3300.0 0.21349 725.00 0.0013793 -155.46 -75.779 -0.97310 1.3833 1.9297 2140.2 -0.0076567 3300.0 0.21349
-159.62 8798.0 undefined -154.08 -70.409 -0.96086 725.00 0.0013793 -154.08 -70.409 -0.96086 1.3852 1.9302 2143.0 -0.0076532 3222.1 0.21390 725.00 0.0013793 -154.08 -70.409 -0.96086 1.3852 1.9302 2143.0 -0.0076532 3222.1 0.21390
-158.62 9215.5 undefined -152.69 -65.053 -0.94870 725.00 0.0013793 -152.69 -65.053 -0.94870 1.3872 1.9308 2145.8 -0.0076497 3147.8 0.21432 725.00 0.0013793 -152.69 -65.053 -0.94870 1.3872 1.9308 2145.8 -0.0076497 3147.8 0.21432
-157.62 9631.3 undefined -151.30 -59.710 -0.93663 725.00 0.0013793 -151.30 -59.710 -0.93663 1.3892 1.9313 2148.5 -0.0076462 3076.8 0.21473 725.00 0.0013793 -151.30 -59.710 -0.93663 1.3892 1.9313 2148.5 -0.0076462 3076.8 0.21473
-156.62 10046. undefined -149.91 -54.380 -0.92465 725.00 0.0013793 -149.91 -54.380 -0.92465 1.3912 1.9318 2151.3 -0.0076427 3008.9 0.21515 725.00 0.0013793 -149.91 -54.380 -0.92465 1.3912 1.9318 2151.3 -0.0076427 3008.9 0.21515
-155.62 10458. undefined -148.52 -49.063 -0.91275 725.00 0.0013793 -148.52 -49.063 -0.91275 1.3932 1.9324 2154.0 -0.0076391 2944.0 0.21557 725.00 0.0013793 -148.52 -49.063 -0.91275 1.3932 1.9324 2154.0 -0.0076391 2944.0 0.21557
-154.62 10869. undefined -147.13 -43.758 -0.90094 725.00 0.0013793 -147.13 -43.758 -0.90094 1.3951 1.9330 2156.7 -0.0076356 2881.9 0.21598 725.00 0.0013793 -147.13 -43.758 -0.90094 1.3951 1.9330 2156.7 -0.0076356 2881.9 0.21598
-153.62 11279. undefined -145.73 -38.466 -0.88921 725.00 0.0013793 -145.73 -38.466 -0.88921 1.3971 1.9335 2159.4 -0.0076320 2822.4 0.21640 725.00 0.0013793 -145.73 -38.466 -0.88921 1.3971 1.9335 2159.4 -0.0076320 2822.4 0.21640
-152.62 11687. undefined -144.33 -33.187 -0.87756 725.00 0.0013793 -144.33 -33.187 -0.87756 1.3991 1.9341 2162.0 -0.0076285 2765.3 0.21682 725.00 0.0013793 -144.33 -33.187 -0.87756 1.3991 1.9341 2162.0 -0.0076285 2765.3 0.21682
-151.62 12094. undefined -142.93 -27.920 -0.86599 725.00 0.0013793 -142.93 -27.920 -0.86599 1.4011 1.9347 2164.7 -0.0076249 2710.7 0.21724 725.00 0.0013793 -142.93 -27.920 -0.86599 1.4011 1.9347 2164.7 -0.0076249 2710.7 0.21724
-150.62 12499. undefined -141.53 -22.665 -0.85450 725.00 0.0013793 -141.53 -22.665 -0.85450 1.4031 1.9353 2167.3 -0.0076214 2658.2 0.21766 725.00 0.0013793 -141.53 -22.665 -0.85450 1.4031 1.9353 2167.3 -0.0076214 2658.2 0.21766
-149.62 12903. undefined -140.13 -17.422 -0.84309 725.00 0.0013793 -140.13 -17.422 -0.84309 1.4051 1.9358 2169.9 -0.0076178 2607.9 0.21807 725.00 0.0013793 -140.13 -17.422 -0.84309 1.4051 1.9358 2169.9 -0.0076178 2607.9 0.21807
-148.62 13305. undefined -138.72 -12.191 -0.83175 725.00 0.0013793 -138.72 -12.191 -0.83175 1.4071 1.9364 2172.4 -0.0076143 2559.5 0.21849 725.00 0.0013793 -138.72 -12.191 -0.83175 1.4071 1.9364 2172.4 -0.0076143 2559.5 0.21849
-147.62 13706. undefined -137.31 -6.9712 -0.82049 725.00 0.0013793 -137.31 -6.9712 -0.82049 1.4091 1.9371 2175.0 -0.0076107 2513.0 0.21891 725.00 0.0013793 -137.31 -6.9712 -0.82049 1.4091 1.9371 2175.0 -0.0076107 2513.0 0.21891
-146.62 14105. undefined -135.90 -1.7634 -0.80930 725.00 0.0013793 -135.90 -1.7634 -0.80930 1.4110 1.9377 2177.5 -0.0076071 2468.2 0.21933 725.00 0.0013793 -135.90 -1.7634 -0.80930 1.4110 1.9377 2177.5 -0.0076071 2468.2 0.21933
-145.62 14503. undefined -134.49 3.4329 -0.79818 725.00 0.0013793 -134.49 3.4329 -0.79818 1.4130 1.9383 2180.0 -0.0076036 2425.2 0.21975 725.00 0.0013793 -134.49 3.4329 -0.79818 1.4130 1.9383 2180.0 -0.0076036 2425.2 0.21975
-144.62 14899. undefined -133.08 8.6178 -0.78714 725.00 0.0013793 -133.08 8.6178 -0.78714 1.4150 1.9389 2182.5 -0.0076000 2383.8 0.22017 725.00 0.0013793 -133.08 8.6178 -0.78714 1.4150 1.9389 2182.5 -0.0076000 2383.8 0.22017
-143.62 15295. undefined -131.66 13.792 -0.77616 725.00 0.0013793 -131.66 13.792 -0.77616 1.4170 1.9395 2185.0 -0.0075964 2343.8 0.22059 725.00 0.0013793 -131.66 13.792 -0.77616 1.4170 1.9395 2185.0 -0.0075964 2343.8 0.22059
-142.62 15688. undefined -130.24 18.954 -0.76526 725.00 0.0013793 -130.24 18.954 -0.76526 1.4190 1.9402 2187.4 -0.0075928 2305.3 0.22101 725.00 0.0013793 -130.24 18.954 -0.76526 1.4190 1.9402 2187.4 -0.0075928 2305.3 0.22101
-141.62 16081. undefined -128.82 24.106 -0.75442 725.00 0.0013793 -128.82 24.106 -0.75442 1.4210 1.9408 2189.8 -0.0075892 2268.2 0.22143 725.00 0.0013793 -128.82 24.106 -0.75442 1.4210 1.9408 2189.8 -0.0075892 2268.2 0.22143
-140.62 16472. undefined -127.40 29.246 -0.74365 725.00 0.0013793 -127.40 29.246 -0.74365 1.4230 1.9415 2192.2 -0.0075856 2232.4 0.22186 725.00 0.0013793 -127.40 29.246 -0.74365 1.4230 1.9415 2192.2 -0.0075856 2232.4 0.22186
-139.62 16861. undefined -125.98 34.376 -0.73295 725.00 0.0013793 -125.98 34.376 -0.73295 1.4250 1.9421 2194.6 -0.0075819 2197.8 0.22228 725.00 0.0013793 -125.98 34.376 -0.73295 1.4250 1.9421 2194.6 -0.0075819 2197.8 0.22228
-138.62 17250. undefined -124.55 39.495 -0.72231 725.00 0.0013793 -124.55 39.495 -0.72231 1.4270 1.9428 2196.9 -0.0075783 2164.5 0.22270 725.00 0.0013793 -124.55 39.495 -0.72231 1.4270 1.9428 2196.9 -0.0075783 2164.5 0.22270
-137.62 17637. undefined -123.12 44.604 -0.71173 725.00 0.0013793 -123.12 44.604 -0.71173 1.4290 1.9435 2199.3 -0.0075746 2132.2 0.22312 725.00 0.0013793 -123.12 44.604 -0.71173 1.4290 1.9435 2199.3 -0.0075746 2132.2 0.22312
-136.62 18023. undefined -121.69 49.702 -0.70122 725.00 0.0013793 -121.69 49.702 -0.70122 1.4310 1.9442 2201.6 -0.0075710 2101.0 0.22354 725.00 0.0013793 -121.69 49.702 -0.70122 1.4310 1.9442 2201.6 -0.0075710 2101.0 0.22354
-135.62 18407. undefined -120.26 54.790 -0.69077 725.00 0.0013793 -120.26 54.790 -0.69077 1.4330 1.9449 2203.9 -0.0075673 2070.8 0.22397 725.00 0.0013793 -120.26 54.790 -0.69077 1.4330 1.9449 2203.9 -0.0075673 2070.8 0.22397
-134.62 18790. undefined -118.83 59.867 -0.68038 725.00 0.0013793 -118.83 59.867 -0.68038 1.4350 1.9456 2206.2 -0.0075636 2041.6 0.22439 725.00 0.0013793 -118.83 59.867 -0.68038 1.4350 1.9456 2206.2 -0.0075636 2041.6 0.22439
-133.62 19172. undefined -117.39 64.935 -0.67005 725.00 0.0013793 -117.39 64.935 -0.67005 1.4370 1.9463 2208.4 -0.0075599 2013.4 0.22481 725.00 0.0013793 -117.39 64.935 -0.67005 1.4370 1.9463 2208.4 -0.0075599 2013.4 0.22481
-132.62 19553. undefined -115.95 69.992 -0.65978 725.00 0.0013793 -115.95 69.992 -0.65978 1.4390 1.9470 2210.7 -0.0075561 1986.0 0.22524 725.00 0.0013793 -115.95 69.992 -0.65978 1.4390 1.9470 2210.7 -0.0075561 1986.0 0.22524
-131.62 19932. undefined -114.51 75.040 -0.64957 725.00 0.0013793 -114.51 75.040 -0.64957 1.4410 1.9477 2212.9 -0.0075524 1959.5 0.22566 725.00 0.0013793 -114.51 75.040 -0.64957 1.4410 1.9477 2212.9 -0.0075524 1959.5 0.22566
-130.62 20310. undefined -113.07 80.077 -0.63941 725.00 0.0013793 -113.07 80.077 -0.63941 1.4431 1.9484 2215.1 -0.0075486 1933.8 0.22608 725.00 0.0013793 -113.07 80.077 -0.63941 1.4431 1.9484 2215.1 -0.0075486 1933.8 0.22608
-129.62 20687. undefined -111.63 85.105 -0.62932 725.00 0.0013793 -111.63 85.105 -0.62932 1.4451 1.9492 2217.3 -0.0075448 1908.9 0.22651 725.00 0.0013793 -111.63 85.105 -0.62932 1.4451 1.9492 2217.3 -0.0075448 1908.9 0.22651
-128.62 21062. undefined -110.18 90.123 -0.61928 725.00 0.0013793 -110.18 90.123 -0.61928 1.4471 1.9499 2219.5 -0.0075410 1884.7 0.22693 725.00 0.0013793 -110.18 90.123 -0.61928 1.4471 1.9499 2219.5 -0.0075410 1884.7 0.22693
-127.62 21437. undefined -108.73 95.132 -0.60929 725.00 0.0013793 -108.73 95.132 -0.60929 1.4491 1.9507 2221.6 -0.0075371 1861.2 0.22736 725.00 0.0013793 -108.73 95.132 -0.60929 1.4491 1.9507 2221.6 -0.0075371 1861.2 0.22736
-126.62 21810. undefined -107.28 100.13 -0.59936 725.00 0.0013793 -107.28 100.13 -0.59936 1.4512 1.9515 2223.7 -0.0075332 1838.5 0.22778 725.00 0.0013793 -107.28 100.13 -0.59936 1.4512 1.9515 2223.7 -0.0075332 1838.5 0.22778
-125.62 22182. undefined -105.83 105.12 -0.58948 725.00 0.0013793 -105.83 105.12 -0.58948 1.4532 1.9523 2225.8 -0.0075293 1816.3 0.22821 725.00 0.0013793 -105.83 105.12 -0.58948 1.4532 1.9523 2225.8 -0.0075293 1816.3 0.22821
-124.62 22553. undefined -104.38 110.10 -0.57966 725.00 0.0013793 -104.38 110.10 -0.57966 1.4553 1.9531 2227.9 -0.0075254 1794.9 0.22864 725.00 0.0013793 -104.38 110.10 -0.57966 1.4553 1.9531 2227.9 -0.0075254 1794.9 0.22864
-123.62 22922. undefined -102.92 115.07 -0.56989 725.00 0.0013793 -102.92 115.07 -0.56989 1.4573 1.9539 2230.0 -0.0075214 1774.0 0.22906 725.00 0.0013793 -102.92 115.07 -0.56989 1.4573 1.9539 2230.0 -0.0075214 1774.0 0.22906
-122.62 23291. undefined -101.46 120.04 -0.56016 725.00 0.0013793 -101.46 120.04 -0.56016 1.4594 1.9547 2232.1 -0.0075174 1753.7 0.22949 725.00 0.0013793 -101.46 120.04 -0.56016 1.4594 1.9547 2232.1 -0.0075174 1753.7 0.22949
-121.62 23658. undefined -100.00 124.99 -0.55049 725.00 0.0013793 -100.00 124.99 -0.55049 1.4614 1.9556 2234.1 -0.0075133 1733.9 0.22992 725.00 0.0013793 -100.00 124.99 -0.55049 1.4614 1.9556 2234.1 -0.0075133 1733.9 0.22992
-120.62 24024. undefined -98.538 129.93 -0.54087 725.00 0.0013793 -98.538 129.93 -0.54087 1.4635 1.9564 2236.2 -0.0075093 1714.7 0.23034 725.00 0.0013793 -98.538 129.93 -0.54087 1.4635 1.9564 2236.2 -0.0075093 1714.7 0.23034
-119.62 24389. undefined -97.073 134.87 -0.53130 725.00 0.0013793 -97.073 134.87 -0.53130 1.4656 1.9573 2238.2 -0.0075051 1696.0 0.23077 725.00 0.0013793 -97.073 134.87 -0.53130 1.4656 1.9573 2238.2 -0.0075051 1696.0 0.23077
-118.62 24753. undefined -95.607 139.80 -0.52178 725.00 0.0013793 -95.607 139.80 -0.52178 1.4677 1.9582 2240.2 -0.0075010 1677.8 0.23120 725.00 0.0013793 -95.607 139.80 -0.52178 1.4677 1.9582 2240.2 -0.0075010 1677.8 0.23120
-117.62 25116. undefined -94.138 144.72 -0.51231 725.00 0.0013793 -94.138 144.72 -0.51231 1.4698 1.9590 2242.1 -0.0074968 1660.1 0.23163 725.00 0.0013793 -94.138 144.72 -0.51231 1.4698 1.9590 2242.1 -0.0074968 1660.1 0.23163
-116.62 25478. undefined -92.667 149.63 -0.50288 725.00 0.0013793 -92.667 149.63 -0.50288 1.4719 1.9599 2244.1 -0.0074926 1642.8 0.23205 725.00 0.0013793 -92.667 149.63 -0.50288 1.4719 1.9599 2244.1 -0.0074926 1642.8 0.23205
-115.62 25838. undefined -91.194 154.53 -0.49350 725.00 0.0013793 -91.194 154.53 -0.49350 1.4740 1.9609 2246.0 -0.0074883 1626.0 0.23248 725.00 0.0013793 -91.194 154.53 -0.49350 1.4740 1.9609 2246.0 -0.0074883 1626.0 0.23248
-114.62 26198. undefined -89.719 159.42 -0.48417 725.00 0.0013793 -89.719 159.42 -0.48417 1.4761 1.9618 2248.0 -0.0074840 1609.6 0.23291 725.00 0.0013793 -89.719 159.42 -0.48417 1.4761 1.9618 2248.0 -0.0074840 1609.6 0.23291
-113.62 26556. undefined -88.242 164.31 -0.47488 725.00 0.0013793 -88.242 164.31 -0.47488 1.4782 1.9627 2249.9 -0.0074796 1593.6 0.23334 725.00 0.0013793 -88.242 164.31 -0.47488 1.4782 1.9627 2249.9 -0.0074796 1593.6 0.23334
-112.62 26913. undefined -86.763 169.18 -0.46563 725.00 0.0013793 -86.763 169.18 -0.46563 1.4803 1.9637 2251.8 -0.0074752 1578.1 0.23377 725.00 0.0013793 -86.763 169.18 -0.46563 1.4803 1.9637 2251.8 -0.0074752 1578.1 0.23377
-111.62 27270. undefined -85.281 174.05 -0.45643 725.00 0.0013793 -85.281 174.05 -0.45643 1.4825 1.9647 2253.7 -0.0074707 1562.9 0.23420 725.00 0.0013793 -85.281 174.05 -0.45643 1.4825 1.9647 2253.7 -0.0074707 1562.9 0.23420
-110.62 27625. undefined -83.798 178.91 -0.44728 725.00 0.0013793 -83.798 178.91 -0.44728 1.4846 1.9657 2255.5 -0.0074662 1548.0 0.23463 725.00 0.0013793 -83.798 178.91 -0.44728 1.4846 1.9657 2255.5 -0.0074662 1548.0 0.23463
-109.62 27979. undefined -82.312 183.77 -0.43816 725.00 0.0013793 -82.312 183.77 -0.43816 1.4868 1.9667 2257.4 -0.0074617 1533.5 0.23506 725.00 0.0013793 -82.312 183.77 -0.43816 1.4868 1.9667 2257.4 -0.0074617 1533.5 0.23506
-108.62 28332. undefined -80.824 188.61 -0.42909 725.00 0.0013793 -80.824 188.61 -0.42909 1.4889 1.9677 2259.2 -0.0074571 1519.4 0.23549 725.00 0.0013793 -80.824 188.61 -0.42909 1.4889 1.9677 2259.2 -0.0074571 1519.4 0.23549
-107.62 28684. undefined -79.334 193.45 -0.42006 725.00 0.0013793 -79.334 193.45 -0.42006 1.4911 1.9688 2261.1 -0.0074524 1505.6 0.23592 725.00 0.0013793 -79.334 193.45 -0.42006 1.4911 1.9688 2261.1 -0.0074524 1505.6 0.23592
-106.62 29035. undefined -77.842 198.28 -0.41108 725.00 0.0013793 -77.842 198.28 -0.41108 1.4933 1.9698 2262.9 -0.0074477 1492.1 0.23635 725.00 0.0013793 -77.842 198.28 -0.41108 1.4933 1.9698 2262.9 -0.0074477 1492.1 0.23635
-105.62 29385. undefined -76.348 203.10 -0.40213 725.00 0.0013793 -76.348 203.10 -0.40213 1.4955 1.9709 2264.7 -0.0074430 1478.9 0.23679 725.00 0.0013793 -76.348 203.10 -0.40213 1.4955 1.9709 2264.7 -0.0074430 1478.9 0.23679
-104.62 29734. undefined -74.851 207.92 -0.39322 725.00 0.0013793 -74.851 207.92 -0.39322 1.4977 1.9720 2266.5 -0.0074382 1466.1 0.23722 725.00 0.0013793 -74.851 207.92 -0.39322 1.4977 1.9720 2266.5 -0.0074382 1466.1 0.23722
-103.62 30082. undefined -73.352 212.72 -0.38436 725.00 0.0013793 -73.352 212.72 -0.38436 1.4999 1.9731 2268.2 -0.0074333 1453.5 0.23765 725.00 0.0013793 -73.352 212.72 -0.38436 1.4999 1.9731 2268.2 -0.0074333 1453.5 0.23765
-102.62 30429. undefined -71.851 217.53 -0.37553 725.00 0.0013793 -71.851 217.53 -0.37553 1.5022 1.9742 2270.0 -0.0074284 1441.2 0.23808 725.00 0.0013793 -71.851 217.53 -0.37553 1.5022 1.9742 2270.0 -0.0074284 1441.2 0.23808
-101.62 30775. undefined -70.348 222.32 -0.36674 725.00 0.0013793 -70.348 222.32 -0.36674 1.5044 1.9754 2271.7 -0.0074234 1429.2 0.23851 725.00 0.0013793 -70.348 222.32 -0.36674 1.5044 1.9754 2271.7 -0.0074234 1429.2 0.23851
-100.62 31119. undefined -68.842 227.10 -0.35799 725.00 0.0013793 -68.842 227.10 -0.35799 1.5067 1.9765 2273.5 -0.0074184 1417.4 0.23895 725.00 0.0013793 -68.842 227.10 -0.35799 1.5067 1.9765 2273.5 -0.0074184 1417.4 0.23895
-99.625 31463. undefined -67.335 231.88 -0.34927 725.00 0.0013793 -67.335 231.88 -0.34927 1.5089 1.9777 2275.2 -0.0074133 1405.9 0.23938 725.00 0.0013793 -67.335 231.88 -0.34927 1.5089 1.9777 2275.2 -0.0074133 1405.9 0.23938
-98.625 31806. undefined -65.825 236.65 -0.34059 725.00 0.0013793 -65.825 236.65 -0.34059 1.5112 1.9789 2276.9 -0.0074081 1394.6 0.23981 725.00 0.0013793 -65.825 236.65 -0.34059 1.5112 1.9789 2276.9 -0.0074081 1394.6 0.23981
-97.625 32148. undefined -64.312 241.42 -0.33195 725.00 0.0013793 -64.312 241.42 -0.33195 1.5135 1.9801 2278.6 -0.0074029 1383.6 0.24025 725.00 0.0013793 -64.312 241.42 -0.33195 1.5135 1.9801 2278.6 -0.0074029 1383.6 0.24025
-96.625 32490. undefined -62.798 246.18 -0.32335 725.00 0.0013793 -62.798 246.18 -0.32335 1.5158 1.9814 2280.3 -0.0073977 1372.8 0.24068 725.00 0.0013793 -62.798 246.18 -0.32335 1.5158 1.9814 2280.3 -0.0073977 1372.8 0.24068
-95.625 32830. undefined -61.281 250.93 -0.31478 725.00 0.0013793 -61.281 250.93 -0.31478 1.5181 1.9826 2281.9 -0.0073924 1362.2 0.24112 725.00 0.0013793 -61.281 250.93 -0.31478 1.5181 1.9826 2281.9 -0.0073924 1362.2 0.24112
-94.625 33169. undefined -59.761 255.67 -0.30624 725.00 0.0013793 -59.761 255.67 -0.30624 1.5205 1.9839 2283.6 -0.0073870 1351.9 0.24155 725.00 0.0013793 -59.761 255.67 -0.30624 1.5205 1.9839 2283.6 -0.0073870 1351.9 0.24155
-93.625 33507. undefined -58.240 260.41 -0.29775 725.00 0.0013793 -58.240 260.41 -0.29775 1.5228 1.9852 2285.2 -0.0073815 1341.7 0.24199 725.00 0.0013793 -58.240 260.41 -0.29775 1.5228 1.9852 2285.2 -0.0073815 1341.7 0.24199
-92.625 33844. undefined -56.716 265.14 -0.28928 725.00 0.0013793 -56.716 265.14 -0.28928 1.5252 1.9865 2286.9 -0.0073760 1331.8 0.24242 725.00 0.0013793 -56.716 265.14 -0.28928 1.5252 1.9865 2286.9 -0.0073760 1331.8 0.24242
-91.625 34181. undefined -55.189 269.87 -0.28085 725.00 0.0013793 -55.189 269.87 -0.28085 1.5275 1.9878 2288.5 -0.0073705 1322.1 0.24286 725.00 0.0013793 -55.189 269.87 -0.28085 1.5275 1.9878 2288.5 -0.0073705 1322.1 0.24286
-90.625 34516. undefined -53.661 274.59 -0.27245 725.00 0.0013793 -53.661 274.59 -0.27245 1.5299 1.9892 2290.1 -0.0073648 1312.5 0.24329 725.00 0.0013793 -53.661 274.59 -0.27245 1.5299 1.9892 2290.1 -0.0073648 1312.5 0.24329
-89.625 34851. undefined -52.130 279.30 -0.26408 725.00 0.0013793 -52.130 279.30 -0.26408 1.5323 1.9906 2291.7 -0.0073592 1303.2 0.24373 725.00 0.0013793 -52.130 279.30 -0.26408 1.5323 1.9906 2291.7 -0.0073592 1303.2 0.24373
-88.625 35184. undefined -50.596 284.01 -0.25575 725.00 0.0013793 -50.596 284.01 -0.25575 1.5347 1.9920 2293.3 -0.0073534 1294.0 0.24417 725.00 0.0013793 -50.596 284.01 -0.25575 1.5347 1.9920 2293.3 -0.0073534 1294.0 0.24417
-87.625 35517. undefined -49.060 288.71 -0.24745 725.00 0.0013793 -49.060 288.71 -0.24745 1.5372 1.9934 2294.8 -0.0073476 1285.0 0.24460 725.00 0.0013793 -49.060 288.71 -0.24745 1.5372 1.9934 2294.8 -0.0073476 1285.0 0.24460
-86.625 35849. undefined -47.522 293.40 -0.23918 725.00 0.0013793 -47.522 293.40 -0.23918 1.5396 1.9948 2296.4 -0.0073417 1276.2 0.24504 725.00 0.0013793 -47.522 293.40 -0.23918 1.5396 1.9948 2296.4 -0.0073417 1276.2 0.24504
-85.625 36180. undefined -45.981 298.09 -0.23094 725.00 0.0013793 -45.981 298.09 -0.23094 1.5421 1.9963 2297.9 -0.0073358 1267.6 0.24548 725.00 0.0013793 -45.981 298.09 -0.23094 1.5421 1.9963 2297.9 -0.0073358 1267.6 0.24548
-84.625 36510. undefined -44.438 302.77 -0.22273 725.00 0.0013793 -44.438 302.77 -0.22273 1.5445 1.9978 2299.5 -0.0073298 1259.1 0.24592 725.00 0.0013793 -44.438 302.77 -0.22273 1.5445 1.9978 2299.5 -0.0073298 1259.1 0.24592
-83.625 36839. undefined -42.892 307.45 -0.21456 725.00 0.0013793 -42.892 307.45 -0.21456 1.5470 1.9993 2301.0 -0.0073237 1250.8 0.24635 725.00 0.0013793 -42.892 307.45 -0.21456 1.5470 1.9993 2301.0 -0.0073237 1250.8 0.24635
-82.625 37168. undefined -41.344 312.12 -0.20641 725.00 0.0013793 -41.344 312.12 -0.20641 1.5495 2.0008 2302.5 -0.0073176 1242.6 0.24679 725.00 0.0013793 -41.344 312.12 -0.20641 1.5495 2.0008 2302.5 -0.0073176 1242.6 0.24679
-81.625 37495. undefined -39.793 316.79 -0.19829 725.00 0.0013793 -39.793 316.79 -0.19829 1.5520 2.0023 2304.0 -0.0073114 1234.6 0.24723 725.00 0.0013793 -39.793 316.79 -0.19829 1.5520 2.0023 2304.0 -0.0073114 1234.6 0.24723
-80.625 37822. undefined -38.240 321.45 -0.19020 725.00 0.0013793 -38.240 321.45 -0.19020 1.5546 2.0039 2305.5 -0.0073051 1226.7 0.24767 725.00 0.0013793 -38.240 321.45 -0.19020 1.5546 2.0039 2305.5 -0.0073051 1226.7 0.24767
-79.625 38148. undefined -36.684 326.10 -0.18214 725.00 0.0013793 -36.684 326.10 -0.18214 1.5571 2.0055 2307.0 -0.0072988 1219.0 0.24811 725.00 0.0013793 -36.684 326.10 -0.18214 1.5571 2.0055 2307.0 -0.0072988 1219.0 0.24811
-78.625 38472. undefined -35.125 330.75 -0.17411 725.00 0.0013793 -35.125 330.75 -0.17411 1.5597 2.0071 2308.5 -0.0072924 1211.4 0.24855 725.00 0.0013793 -35.125 330.75 -0.17411 1.5597 2.0071 2308.5 -0.0072924 1211.4 0.24855
-77.625 38797. undefined -33.564 335.39 -0.16610 725.00 0.0013793 -33.564 335.39 -0.16610 1.5623 2.0087 2310.0 -0.0072860 1203.9 0.24899 725.00 0.0013793 -33.564 335.39 -0.16610 1.5623 2.0087 2310.0 -0.0072860 1203.9 0.24899
-76.625 39120. undefined -32.001 340.03 -0.15813 725.00 0.0013793 -32.001 340.03 -0.15813 1.5649 2.0104 2311.4 -0.0072795 1196.6 0.24943 725.00 0.0013793 -32.001 340.03 -0.15813 1.5649 2.0104 2311.4 -0.0072795 1196.6 0.24943
-75.625 39442. undefined -30.435 344.66 -0.15018 725.00 0.0013793 -30.435 344.66 -0.15018 1.5675 2.0120 2312.9 -0.0072729 1189.4 0.24987 725.00 0.0013793 -30.435 344.66 -0.15018 1.5675 2.0120 2312.9 -0.0072729 1189.4 0.24987
-74.625 39764. undefined -28.866 349.29 -0.14226 725.00 0.0013793 -28.866 349.29 -0.14226 1.5701 2.0137 2314.3 -0.0072662 1182.4 0.25031 725.00 0.0013793 -28.866 349.29 -0.14226 1.5701 2.0137 2314.3 -0.0072662 1182.4 0.25031
-73.625 40085. undefined -27.294 353.91 -0.13436 725.00 0.0013793 -27.294 353.91 -0.13436 1.5727 2.0154 2315.7 -0.0072595 1175.4 0.25075 725.00 0.0013793 -27.294 353.91 -0.13436 1.5727 2.0154 2315.7 -0.0072595 1175.4 0.25075
-72.625 40405. undefined -25.720 358.53 -0.12649 725.00 0.0013793 -25.720 358.53 -0.12649 1.5754 2.0172 2317.1 -0.0072528 1168.6 0.25119 725.00 0.0013793 -25.720 358.53 -0.12649 1.5754 2.0172 2317.1 -0.0072528 1168.6 0.25119
-71.625 40724. undefined -24.144 363.14 -0.11865 725.00 0.0013793 -24.144 363.14 -0.11865 1.5781 2.0189 2318.6 -0.0072459 1161.9 0.25163 725.00 0.0013793 -24.144 363.14 -0.11865 1.5781 2.0189 2318.6 -0.0072459 1161.9 0.25163
-70.625 41042. undefined -22.564 367.75 -0.11083 725.00 0.0013793 -22.564 367.75 -0.11083 1.5808 2.0207 2320.0 -0.0072390 1155.3 0.25207 725.00 0.0013793 -22.564 367.75 -0.11083 1.5808 2.0207 2320.0 -0.0072390 1155.3 0.25207
-69.625 41360. undefined -20.982 372.35 -0.10304 725.00 0.0013793 -20.982 372.35 -0.10304 1.5835 2.0225 2321.3 -0.0072321 1148.8 0.25252 725.00 0.0013793 -20.982 372.35 -0.10304 1.5835 2.0225 2321.3 -0.0072321 1148.8 0.25252
-68.625 41677. undefined -19.397 376.95 -0.095270 725.00 0.0013793 -19.397 376.95 -0.095270 1.5862 2.0243 2322.7 -0.0072250 1142.5 0.25296 725.00 0.0013793 -19.397 376.95 -0.095270 1.5862 2.0243 2322.7 -0.0072250 1142.5 0.25296
-67.625 41993. undefined -17.810 381.54 -0.087527 725.00 0.0013793 -17.810 381.54 -0.087527 1.5890 2.0262 2324.1 -0.0072179 1136.2 0.25340 725.00 0.0013793 -17.810 381.54 -0.087527 1.5890 2.0262 2324.1 -0.0072179 1136.2 0.25340
-66.625 42308. undefined -16.219 386.13 -0.079808 725.00 0.0013793 -16.219 386.13 -0.079808 1.5917 2.0280 2325.5 -0.0072108 1130.0 0.25384 725.00 0.0013793 -16.219 386.13 -0.079808 1.5917 2.0280 2325.5 -0.0072108 1130.0 0.25384
-65.625 42623. undefined -14.626 390.71 -0.072112 725.00 0.0013793 -14.626 390.71 -0.072112 1.5945 2.0299 2326.8 -0.0072036 1124.0 0.25429 725.00 0.0013793 -14.626 390.71 -0.072112 1.5945 2.0299 2326.8 -0.0072036 1124.0 0.25429
-64.625 42936. undefined -13.030 395.29 -0.064441 725.00 0.0013793 -13.030 395.29 -0.064441 1.5973 2.0318 2328.2 -0.0071963 1118.0 0.25473 725.00 0.0013793 -13.030 395.29 -0.064441 1.5973 2.0318 2328.2 -0.0071963 1118.0 0.25473
-63.625 43249. undefined -11.432 399.87 -0.056792 725.00 0.0013793 -11.432 399.87 -0.056792 1.6001 2.0338 2329.5 -0.0071890 1112.1 0.25517 725.00 0.0013793 -11.432 399.87 -0.056792 1.6001 2.0338 2329.5 -0.0071890 1112.1 0.25517
-62.625 43561. undefined -9.8301 404.44 -0.049167 725.00 0.0013793 -9.8301 404.44 -0.049167 1.6029 2.0357 2330.8 -0.0071816 1106.4 0.25562 725.00 0.0013793 -9.8301 404.44 -0.049167 1.6029 2.0357 2330.8 -0.0071816 1106.4 0.25562
-61.625 43873. undefined -8.2258 409.01 -0.041564 725.00 0.0013793 -8.2258 409.01 -0.041564 1.6058 2.0377 2332.1 -0.0071741 1100.7 0.25606 725.00 0.0013793 -8.2258 409.01 -0.041564 1.6058 2.0377 2332.1 -0.0071741 1100.7 0.25606
-60.625 44184. undefined -6.6186 413.57 -0.033984 725.00 0.0013793 -6.6186 413.57 -0.033984 1.6086 2.0397 2333.5 -0.0071666 1095.1 0.25651 725.00 0.0013793 -6.6186 413.57 -0.033984 1.6086 2.0397 2333.5 -0.0071666 1095.1 0.25651
-59.625 44494. undefined -5.0086 418.13 -0.026426 725.00 0.0013793 -5.0086 418.13 -0.026426 1.6115 2.0417 2334.8 -0.0071590 1089.6 0.25695 725.00 0.0013793 -5.0086 418.13 -0.026426 1.6115 2.0417 2334.8 -0.0071590 1089.6 0.25695
-58.625 44803. undefined -3.3956 422.68 -0.018890 725.00 0.0013793 -3.3956 422.68 -0.018890 1.6144 2.0438 2336.1 -0.0071514 1084.2 0.25740 725.00 0.0013793 -3.3956 422.68 -0.018890 1.6144 2.0438 2336.1 -0.0071514 1084.2 0.25740
-57.625 45111. undefined -1.7798 427.23 -0.011375 725.00 0.0013793 -1.7798 427.23 -0.011375 1.6173 2.0458 2337.4 -0.0071437 1078.8 0.25784 725.00 0.0013793 -1.7798 427.23 -0.011375 1.6173 2.0458 2337.4 -0.0071437 1078.8 0.25784
-56.625 45419. undefined -0.16101 431.77 -0.0038818 725.00 0.0013793 -0.16101 431.77 -0.0038818 1.6202 2.0479 2338.6 -0.0071360 1073.6 0.25829 725.00 0.0013793 -0.16101 431.77 -0.0038818 1.6202 2.0479 2338.6 -0.0071360 1073.6 0.25829
-55.625 45726. undefined 1.4607 436.32 0.0035906 725.00 0.0013793 1.4607 436.32 0.0035906 1.6232 2.0500 2339.9 -0.0071282 1068.4 0.25873 725.00 0.0013793 1.4607 436.32 0.0035906 1.6232 2.0500 2339.9 -0.0071282 1068.4 0.25873
-54.625 46032. undefined 3.0853 440.85 0.011042 725.00 0.0013793 3.0853 440.85 0.011042 1.6261 2.0521 2341.2 -0.0071203 1063.3 0.25918 725.00 0.0013793 3.0853 440.85 0.011042 1.6261 2.0521 2341.2 -0.0071203 1063.3 0.25918
-53.625 46338. undefined 4.7129 445.39 0.018473 725.00 0.0013793 4.7129 445.39 0.018473 1.6291 2.0543 2342.4 -0.0071124 1058.3 0.25963 725.00 0.0013793 4.7129 445.39 0.018473 1.6291 2.0543 2342.4 -0.0071124 1058.3 0.25963
-52.625 46643. undefined 6.3435 449.92 0.025884 725.00 0.0013793 6.3435 449.92 0.025884 1.6321 2.0565 2343.7 -0.0071044 1053.4 0.26007 725.00 0.0013793 6.3435 449.92 0.025884 1.6321 2.0565 2343.7 -0.0071044 1053.4 0.26007
-51.625 46947. undefined 7.9771 454.45 0.033275 725.00 0.0013793 7.9771 454.45 0.033275 1.6351 2.0587 2344.9 -0.0070964 1048.5 0.26052 725.00 0.0013793 7.9771 454.45 0.033275 1.6351 2.0587 2344.9 -0.0070964 1048.5 0.26052
-50.625 47251. undefined 9.6137 458.97 0.040647 725.00 0.0013793 9.6137 458.97 0.040647 1.6381 2.0609 2346.2 -0.0070883 1043.7 0.26097 725.00 0.0013793 9.6137 458.97 0.040647 1.6381 2.0609 2346.2 -0.0070883 1043.7 0.26097
-49.625 47554. undefined 11.253 463.49 0.047998 725.00 0.0013793 11.253 463.49 0.047998 1.6412 2.0631 2347.4 -0.0070801 1039.0 0.26142 725.00 0.0013793 11.253 463.49 0.047998 1.6412 2.0631 2347.4 -0.0070801 1039.0 0.26142
-48.625 47856. undefined 12.896 468.00 0.055331 725.00 0.0013793 12.896 468.00 0.055331 1.6442 2.0654 2348.6 -0.0070719 1034.3 0.26187 725.00 0.0013793 12.896 468.00 0.055331 1.6442 2.0654 2348.6 -0.0070719 1034.3 0.26187
-47.625 48157. undefined 14.542 472.52 0.062645 725.00 0.0013793 14.542 472.52 0.062645 1.6473 2.0676 2349.9 -0.0070637 1029.7 0.26231 725.00 0.0013793 14.542 472.52 0.062645 1.6473 2.0676 2349.9 -0.0070637 1029.7 0.26231
-46.625 48458. undefined 16.191 477.03 0.069940 725.00 0.0013793 16.191 477.03 0.069940 1.6504 2.0699 2351.1 -0.0070554 1025.2 0.26276 725.00 0.0013793 16.191 477.03 0.069940 1.6504 2.0699 2351.1 -0.0070554 1025.2 0.26276
-45.625 48758. undefined 17.843 481.53 0.077216 725.00 0.0013793 17.843 481.53 0.077216 1.6535 2.0723 2352.3 -0.0070470 1020.8 0.26321 725.00 0.0013793 17.843 481.53 0.077216 1.6535 2.0723 2352.3 -0.0070470 1020.8 0.26321
-44.625 49057. undefined 19.498 486.03 0.084474 725.00 0.0013793 19.498 486.03 0.084474 1.6566 2.0746 2353.5 -0.0070386 1016.4 0.26366 725.00 0.0013793 19.498 486.03 0.084474 1.6566 2.0746 2353.5 -0.0070386 1016.4 0.26366
-43.625 49356. undefined 21.156 490.53 0.091715 725.00 0.0013793 21.156 490.53 0.091715 1.6597 2.0770 2354.7 -0.0070302 1012.1 0.26411 725.00 0.0013793 21.156 490.53 0.091715 1.6597 2.0770 2354.7 -0.0070302 1012.1 0.26411
-42.625 49654. undefined 22.817 495.03 0.098937 725.00 0.0013793 22.817 495.03 0.098937 1.6629 2.0793 2355.9 -0.0070217 1007.8 0.26456 725.00 0.0013793 22.817 495.03 0.098937 1.6629 2.0793 2355.9 -0.0070217 1007.8 0.26456
-41.625 49952. undefined 24.482 499.52 0.10614 725.00 0.0013793 24.482 499.52 0.10614 1.6661 2.0817 2357.0 -0.0070132 1003.6 0.26501 725.00 0.0013793 24.482 499.52 0.10614 1.6661 2.0817 2357.0 -0.0070132 1003.6 0.26501
-40.625 50248. undefined 26.149 504.01 0.11333 725.00 0.0013793 26.149 504.01 0.11333 1.6693 2.0842 2358.2 -0.0070046 999.43 0.26546 725.00 0.0013793 26.149 504.01 0.11333 1.6693 2.0842 2358.2 -0.0070046 999.43 0.26546
-39.625 50545. undefined 27.820 508.50 0.12050 725.00 0.0013793 27.820 508.50 0.12050 1.6725 2.0866 2359.4 -0.0069959 995.34 0.26591 725.00 0.0013793 27.820 508.50 0.12050 1.6725 2.0866 2359.4 -0.0069959 995.34 0.26591
-38.625 50840. undefined 29.494 512.98 0.12765 725.00 0.0013793 29.494 512.98 0.12765 1.6757 2.0891 2360.5 -0.0069872 991.31 0.26636 725.00 0.0013793 29.494 512.98 0.12765 1.6757 2.0891 2360.5 -0.0069872 991.31 0.26636
-37.625 51135. undefined 31.171 517.46 0.13479 725.00 0.0013793 31.171 517.46 0.13479 1.6789 2.0916 2361.7 -0.0069785 987.33 0.26681 725.00 0.0013793 31.171 517.46 0.13479 1.6789 2.0916 2361.7 -0.0069785 987.33 0.26681
-36.625 51429. undefined 32.852 521.94 0.14191 725.00 0.0013793 32.852 521.94 0.14191 1.6821 2.0941 2362.9 -0.0069697 983.41 0.26727 725.00 0.0013793 32.852 521.94 0.14191 1.6821 2.0941 2362.9 -0.0069697 983.41 0.26727
-35.625 51723. undefined 34.536 526.42 0.14901 725.00 0.0013793 34.536 526.42 0.14901 1.6854 2.0966 2364.0 -0.0069609 979.54 0.26772 725.00 0.0013793 34.536 526.42 0.14901 1.6854 2.0966 2364.0 -0.0069609 979.54 0.26772
-34.625 52015. undefined 36.223 530.89 0.15610 725.00 0.0013793 36.223 530.89 0.15610 1.6887 2.0991 2365.1 -0.0069521 975.73 0.26817 725.00 0.0013793 36.223 530.89 0.15610 1.6887 2.0991 2365.1 -0.0069521 975.73 0.26817
-33.625 52308. undefined 37.913 535.36 0.16317 725.00 0.0013793 37.913 535.36 0.16317 1.6920 2.1017 2366.3 -0.0069432 971.96 0.26862 725.00 0.0013793 37.913 535.36 0.16317 1.6920 2.1017 2366.3 -0.0069432 971.96 0.26862
-32.625 52599. undefined 39.607 539.83 0.17023 725.00 0.0013793 39.607 539.83 0.17023 1.6953 2.1043 2367.4 -0.0069342 968.25 0.26908 725.00 0.0013793 39.607 539.83 0.17023 1.6953 2.1043 2367.4 -0.0069342 968.25 0.26908
-31.625 52891. undefined 41.304 544.29 0.17727 725.00 0.0013793 41.304 544.29 0.17727 1.6986 2.1069 2368.5 -0.0069252 964.58 0.26953 725.00 0.0013793 41.304 544.29 0.17727 1.6986 2.1069 2368.5 -0.0069252 964.58 0.26953
-30.625 53181. undefined 43.004 548.76 0.18429 725.00 0.0013793 43.004 548.76 0.18429 1.7019 2.1095 2369.7 -0.0069162 960.97 0.26998 725.00 0.0013793 43.004 548.76 0.18429 1.7019 2.1095 2369.7 -0.0069162 960.97 0.26998
-29.625 53471. undefined 44.708 553.22 0.19130 725.00 0.0013793 44.708 553.22 0.19130 1.7053 2.1121 2370.8 -0.0069072 957.40 0.27044 725.00 0.0013793 44.708 553.22 0.19130 1.7053 2.1121 2370.8 -0.0069072 957.40 0.27044
-28.625 53760. undefined 46.415 557.67 0.19830 725.00 0.0013793 46.415 557.67 0.19830 1.7086 2.1148 2371.9 -0.0068981 953.88 0.27089 725.00 0.0013793 46.415 557.67 0.19830 1.7086 2.1148 2371.9 -0.0068981 953.88 0.27089
-27.625 54049. undefined 48.125 562.13 0.20528 725.00 0.0013793 48.125 562.13 0.20528 1.7120 2.1174 2373.0 -0.0068889 950.40 0.27134 725.00 0.0013793 48.125 562.13 0.20528 1.7120 2.1174 2373.0 -0.0068889 950.40 0.27134
-26.625 54337. undefined 49.839 566.58 0.21225 725.00 0.0013793 49.839 566.58 0.21225 1.7154 2.1201 2374.1 -0.0068798 946.97 0.27180 725.00 0.0013793 49.839 566.58 0.21225 1.7154 2.1201 2374.1 -0.0068798 946.97 0.27180
-25.625 54624. undefined 51.556 571.03 0.21920 725.00 0.0013793 51.556 571.03 0.21920 1.7188 2.1228 2375.2 -0.0068706 943.59 0.27225 725.00 0.0013793 51.556 571.03 0.21920 1.7188 2.1228 2375.2 -0.0068706 943.59 0.27225
-24.625 54911. undefined 53.276 575.48 0.22613 725.00 0.0013793 53.276 575.48 0.22613 1.7222 2.1256 2376.3 -0.0068613 940.24 0.27271 725.00 0.0013793 53.276 575.48 0.22613 1.7222 2.1256 2376.3 -0.0068613 940.24 0.27271
-23.625 55197. undefined 55.000 579.93 0.23306 725.00 0.0013793 55.000 579.93 0.23306 1.7257 2.1283 2377.4 -0.0068520 936.94 0.27316 725.00 0.0013793 55.000 579.93 0.23306 1.7257 2.1283 2377.4 -0.0068520 936.94 0.27316
-22.625 55483. undefined 56.728 584.37 0.23996 725.00 0.0013793 56.728 584.37 0.23996 1.7291 2.1311 2378.4 -0.0068427 933.69 0.27362 725.00 0.0013793 56.728 584.37 0.23996 1.7291 2.1311 2378.4 -0.0068427 933.69 0.27362
-21.625 55768. undefined 58.458 588.81 0.24686 725.00 0.0013793 58.458 588.81 0.24686 1.7326 2.1339 2379.5 -0.0068334 930.47 0.27408 725.00 0.0013793 58.458 588.81 0.24686 1.7326 2.1339 2379.5 -0.0068334 930.47 0.27408
-20.625 56052. undefined 60.193 593.25 0.25374 725.00 0.0013793 60.193 593.25 0.25374 1.7361 2.1367 2380.6 -0.0068240 927.30 0.27453 725.00 0.0013793 60.193 593.25 0.25374 1.7361 2.1367 2380.6 -0.0068240 927.30 0.27453
-19.625 56336. undefined 61.930 597.69 0.26061 725.00 0.0013793 61.930 597.69 0.26061 1.7395 2.1395 2381.7 -0.0068146 924.16 0.27499 725.00 0.0013793 61.930 597.69 0.26061 1.7395 2.1395 2381.7 -0.0068146 924.16 0.27499
-18.625 56620. undefined 63.672 602.12 0.26746 725.00 0.0013793 63.672 602.12 0.26746 1.7430 2.1423 2382.7 -0.0068052 921.06 0.27545 725.00 0.0013793 63.672 602.12 0.26746 1.7430 2.1423 2382.7 -0.0068052 921.06 0.27545
-17.625 56902. undefined 65.417 606.56 0.27431 725.00 0.0013793 65.417 606.56 0.27431 1.7466 2.1452 2383.8 -0.0067957 918.01 0.27590 725.00 0.0013793 65.417 606.56 0.27431 1.7466 2.1452 2383.8 -0.0067957 918.01 0.27590
-16.625 57185. undefined 67.165 610.99 0.28113 725.00 0.0013793 67.165 610.99 0.28113 1.7501 2.1480 2384.8 -0.0067863 914.99 0.27636 725.00 0.0013793 67.165 610.99 0.28113 1.7501 2.1480 2384.8 -0.0067863 914.99 0.27636
-15.625 57466. undefined 68.917 615.42 0.28795 725.00 0.0013793 68.917 615.42 0.28795 1.7536 2.1509 2385.9 -0.0067768 912.00 0.27682 725.00 0.0013793 68.917 615.42 0.28795 1.7536 2.1509 2385.9 -0.0067768 912.00 0.27682
-14.625 57747. undefined 70.672 619.85 0.29475 725.00 0.0013793 70.672 619.85 0.29475 1.7572 2.1538 2387.0 -0.0067672 909.06 0.27728 725.00 0.0013793 70.672 619.85 0.29475 1.7572 2.1538 2387.0 -0.0067672 909.06 0.27728
-13.625 58028. undefined 72.431 624.28 0.30154 725.00 0.0013793 72.431 624.28 0.30154 1.7607 2.1567 2388.0 -0.0067577 906.15 0.27774 725.00 0.0013793 72.431 624.28 0.30154 1.7607 2.1567 2388.0 -0.0067577 906.15 0.27774
-12.625 58308. undefined 74.194 628.70 0.30832 725.00 0.0013793 74.194 628.70 0.30832 1.7643 2.1597 2389.0 -0.0067481 903.27 0.27819 725.00 0.0013793 74.194 628.70 0.30832 1.7643 2.1597 2389.0 -0.0067481 903.27 0.27819
-11.625 58587. undefined 75.960 633.13 0.31509 725.00 0.0013793 75.960 633.13 0.31509 1.7679 2.1626 2390.1 -0.0067385 900.43 0.27865 725.00 0.0013793 75.960 633.13 0.31509 1.7679 2.1626 2390.1 -0.0067385 900.43 0.27865
-10.625 58866. undefined 77.729 637.55 0.32184 725.00 0.0013793 77.729 637.55 0.32184 1.7715 2.1656 2391.1 -0.0067288 897.63 0.27911 725.00 0.0013793 77.729 637.55 0.32184 1.7715 2.1656 2391.1 -0.0067288 897.63 0.27911
-9.6250 59145. undefined 79.503 641.97 0.32858 725.00 0.0013793 79.503 641.97 0.32858 1.7751 2.1686 2392.1 -0.0067192 894.86 0.27957 725.00 0.0013793 79.503 641.97 0.32858 1.7751 2.1686 2392.1 -0.0067192 894.86 0.27957
-8.6250 59422. undefined 81.280 646.39 0.33531 725.00 0.0013793 81.280 646.39 0.33531 1.7787 2.1716 2393.2 -0.0067095 892.12 0.28003 725.00 0.0013793 81.280 646.39 0.33531 1.7787 2.1716 2393.2 -0.0067095 892.12 0.28003
-7.6250 59700. undefined 83.060 650.80 0.34203 725.00 0.0013793 83.060 650.80 0.34203 1.7824 2.1746 2394.2 -0.0066998 889.41 0.28049 725.00 0.0013793 83.060 650.80 0.34203 1.7824 2.1746 2394.2 -0.0066998 889.41 0.28049
-6.6250 59976. undefined 84.844 655.22 0.34874 725.00 0.0013793 84.844 655.22 0.34874 1.7860 2.1776 2395.2 -0.0066901 886.74 0.28095 725.00 0.0013793 84.844 655.22 0.34874 1.7860 2.1776 2395.2 -0.0066901 886.74 0.28095
-5.6250 60253. undefined 86.632 659.64 0.35544 725.00 0.0013793 86.632 659.64 0.35544 1.7897 2.1807 2396.2 -0.0066804 884.09 0.28141 725.00 0.0013793 86.632 659.64 0.35544 1.7897 2.1807 2396.2 -0.0066804 884.09 0.28141
-4.6250 60528. undefined 88.424 664.05 0.36212 725.00 0.0013793 88.424 664.05 0.36212 1.7933 2.1837 2397.2 -0.0066706 881.48 0.28187 725.00 0.0013793 88.424 664.05 0.36212 1.7933 2.1837 2397.2 -0.0066706 881.48 0.28187
-3.6250 60803. undefined 90.219 668.46 0.36879 725.00 0.0013793 90.219 668.46 0.36879 1.7970 2.1868 2398.3 -0.0066609 878.90 0.28234 725.00 0.0013793 90.219 668.46 0.36879 1.7970 2.1868 2398.3 -0.0066609 878.90 0.28234
-2.6250 61078. undefined 92.018 672.87 0.37545 725.00 0.0013793 92.018 672.87 0.37545 1.8007 2.1899 2399.3 -0.0066511 876.35 0.28280 725.00 0.0013793 92.018 672.87 0.37545 1.8007 2.1899 2399.3 -0.0066511 876.35 0.28280
-1.6250 61352. undefined 93.820 677.28 0.38211 725.00 0.0013793 93.820 677.28 0.38211 1.8044 2.1930 2400.3 -0.0066413 873.83 0.28326 725.00 0.0013793 93.820 677.28 0.38211 1.8044 2.1930 2400.3 -0.0066413 873.83 0.28326
-0.62500 61626. undefined 95.627 681.69 0.38875 725.00 0.0013793 95.627 681.69 0.38875 1.8081 2.1961 2401.3 -0.0066315 871.33 0.28372 725.00 0.0013793 95.627 681.69 0.38875 1.8081 2.1961 2401.3 -0.0066315 871.33 0.28372
0.37500 61899. undefined 97.436 686.10 0.39537 725.00 0.0013793 97.436 686.10 0.39537 1.8118 2.1992 2402.3 -0.0066216 868.87 0.28418 725.00 0.0013793 97.436 686.10 0.39537 1.8118 2.1992 2402.3 -0.0066216 868.87 0.28418
1.3750 62172. undefined 99.250 690.50 0.40199 725.00 0.0013793 99.250 690.50 0.40199 1.8156 2.2024 2403.3 -0.0066118 866.43 0.28465 725.00 0.0013793 99.250 690.50 0.40199 1.8156 2.2024 2403.3 -0.0066118 866.43 0.28465
2.3750 62444. undefined 101.07 694.91 0.40860 725.00 0.0013793 101.07 694.91 0.40860 1.8193 2.2055 2404.3 -0.0066019 864.03 0.28511 725.00 0.0013793 101.07 694.91 0.40860 1.8193 2.2055 2404.3 -0.0066019 864.03 0.28511
3.3750 62715. undefined 102.89 699.31 0.41520 725.00 0.0013793 102.89 699.31 0.41520 1.8231 2.2087 2405.2 -0.0065921 861.64 0.28557 725.00 0.0013793 102.89 699.31 0.41520 1.8231 2.2087 2405.2 -0.0065921 861.64 0.28557
4.3750 62986. undefined 104.71 703.72 0.42179 725.00 0.0013793 104.71 703.72 0.42179 1.8268 2.2119 2406.2 -0.0065822 859.29 0.28604 725.00 0.0013793 104.71 703.72 0.42179 1.8268 2.2119 2406.2 -0.0065822 859.29 0.28604
5.3750 63257. undefined 106.54 708.12 0.42836 725.00 0.0013793 106.54 708.12 0.42836 1.8306 2.2151 2407.2 -0.0065723 856.96 0.28650 725.00 0.0013793 106.54 708.12 0.42836 1.8306 2.2151 2407.2 -0.0065723 856.96 0.28650
6.3750 63527. undefined 108.38 712.52 0.43493 725.00 0.0013793 108.38 712.52 0.43493 1.8344 2.2183 2408.2 -0.0065624 854.66 0.28697 725.00 0.0013793 108.38 712.52 0.43493 1.8344 2.2183 2408.2 -0.0065624 854.66 0.28697
7.3750 63797. undefined 110.21 716.92 0.44149 725.00 0.0013793 110.21 716.92 0.44149 1.8382 2.2215 2409.2 -0.0065525 852.38 0.28743 725.00 0.0013793 110.21 716.92 0.44149 1.8382 2.2215 2409.2 -0.0065525 852.38 0.28743
8.3750 64066. undefined 112.05 721.32 0.44804 725.00 0.0013793 112.05 721.32 0.44804 1.8420 2.2248 2410.1 -0.0065426 850.13 0.28789 725.00 0.0013793 112.05 721.32 0.44804 1.8420 2.2248 2410.1 -0.0065426 850.13 0.28789
9.3750 64335. undefined 113.90 725.72 0.45458 725.00 0.0013793 113.90 725.72 0.45458 1.8458 2.2280 2411.1 -0.0065327 847.91 0.28836 725.00 0.0013793 113.90 725.72 0.45458 1.8458 2.2280 2411.1 -0.0065327 847.91 0.28836
10.375 64603. undefined 115.74 730.12 0.46110 725.00 0.0013793 115.74 730.12 0.46110 1.8496 2.2313 2412.1 -0.0065227 845.71 0.28882 725.00 0.0013793 115.74 730.12 0.46110 1.8496 2.2313 2412.1 -0.0065227 845.71 0.28882
11.375 64870. undefined 117.59 734.51 0.46762 725.00 0.0013793 117.59 734.51 0.46762 1.8534 2.2345 2413.0 -0.0065128 843.53 0.28929 725.00 0.0013793 117.59 734.51 0.46762 1.8534 2.2345 2413.0 -0.0065128 843.53 0.28929
12.375 65138. undefined 119.45 738.91 0.47413 725.00 0.0013793 119.45 738.91 0.47413 1.8573 2.2378 2414.0 -0.0065029 841.38 0.28976 725.00 0.0013793 119.45 738.91 0.47413 1.8573 2.2378 2414.0 -0.0065029 841.38 0.28976
13.375 65404. undefined 121.31 743.31 0.48063 725.00 0.0013793 121.31 743.31 0.48063 1.8611 2.2411 2415.0 -0.0064929 839.25 0.29022 725.00 0.0013793 121.31 743.31 0.48063 1.8611 2.2411 2415.0 -0.0064929 839.25 0.29022
14.375 65671. undefined 123.17 747.70 0.48712 725.00 0.0013793 123.17 747.70 0.48712 1.8650 2.2444 2415.9 -0.0064830 837.14 0.29069 725.00 0.0013793 123.17 747.70 0.48712 1.8650 2.2444 2415.9 -0.0064830 837.14 0.29069
15.375 65936. undefined 125.04 752.09 0.49361 725.00 0.0013793 125.04 752.09 0.49361 1.8688 2.2477 2416.9 -0.0064730 835.06 0.29116 725.00 0.0013793 125.04 752.09 0.49361 1.8688 2.2477 2416.9 -0.0064730 835.06 0.29116
16.375 66202. undefined 126.91 756.49 0.50008 725.00 0.0013793 126.91 756.49 0.50008 1.8727 2.2511 2417.8 -0.0064631 833.00 0.29162 725.00 0.0013793 126.91 756.49 0.50008 1.8727 2.2511 2417.8 -0.0064631 833.00 0.29162
17.375 66467. undefined 128.78 760.88 0.50654 725.00 0.0013793 128.78 760.88 0.50654 1.8766 2.2544 2418.8 -0.0064531 830.96 0.29209 725.00 0.0013793 128.78 760.88 0.50654 1.8766 2.2544 2418.8 -0.0064531 830.96 0.29209
18.375 66731. undefined 130.66 765.28 0.51300 725.00 0.0013793 130.66 765.28 0.51300 1.8805 2.2578 2419.7 -0.0064432 828.94 0.29256 725.00 0.0013793 130.66 765.28 0.51300 1.8805 2.2578 2419.7 -0.0064432 828.94 0.29256
19.375 66995. undefined 132.55 769.67 0.51944 725.00 0.0013793 132.55 769.67 0.51944 1.8844 2.2611 2420.7 -0.0064332 826.94 0.29303 725.00 0.0013793 132.55 769.67 0.51944 1.8844 2.2611 2420.7 -0.0064332 826.94 0.29303
20.375 67258. undefined 134.43 774.06 0.52588 725.00 0.0013793 134.43 774.06 0.52588 1.8883 2.2645 2421.6 -0.0064232 824.97 0.29350 725.00 0.0013793 134.43 774.06 0.52588 1.8883 2.2645 2421.6 -0.0064232 824.97 0.29350
21.375 67521. undefined 136.32 778.45 0.53231 725.00 0.0013793 136.32 778.45 0.53231 1.8922 2.2679 2422.6 -0.0064133 823.01 0.29396 725.00 0.0013793 136.32 778.45 0.53231 1.8922 2.2679 2422.6 -0.0064133 823.01 0.29396
22.375 67784. undefined 138.22 782.84 0.53873 725.00 0.0013793 138.22 782.84 0.53873 1.8961 2.2713 2423.5 -0.0064033 821.08 0.29443 725.00 0.0013793 138.22 782.84 0.53873 1.8961 2.2713 2423.5 -0.0064033 821.08 0.29443
23.375 68046. undefined 140.11 787.23 0.54514 725.00 0.0013793 140.11 787.23 0.54514 1.9000 2.2747 2424.5 -0.0063933 819.17 0.29490 725.00 0.0013793 140.11 787.23 0.54514 1.9000 2.2747 2424.5 -0.0063933 819.17 0.29490
24.375 68308. undefined 142.02 791.62 0.55154 725.00 0.0013793 142.02 791.62 0.55154 1.9039 2.2781 2425.4 -0.0063834 817.27 0.29537 725.00 0.0013793 142.02 791.62 0.55154 1.9039 2.2781 2425.4 -0.0063834 817.27 0.29537
25.375 68569. undefined 143.92 796.01 0.55794 725.00 0.0013793 143.92 796.01 0.55794 1.9079 2.2815 2426.3 -0.0063734 815.40 0.29584 725.00 0.0013793 143.92 796.01 0.55794 1.9079 2.2815 2426.3 -0.0063734 815.40 0.29584
26.375 68830. undefined 145.83 800.41 0.56433 725.00 0.0013793 145.83 800.41 0.56433 1.9118 2.2850 2427.3 -0.0063635 813.54 0.29631 725.00 0.0013793 145.83 800.41 0.56433 1.9118 2.2850 2427.3 -0.0063635 813.54 0.29631
27.375 69090. undefined 147.75 804.79 0.57071 725.00 0.0013793 147.75 804.79 0.57071 1.9158 2.2884 2428.2 -0.0063535 811.71 0.29678 725.00 0.0013793 147.75 804.79 0.57071 1.9158 2.2884 2428.2 -0.0063535 811.71 0.29678
28.375 69350. undefined 149.66 809.18 0.57708 725.00 0.0013793 149.66 809.18 0.57708 1.9197 2.2919 2429.1 -0.0063436 809.89 0.29725 725.00 0.0013793 149.66 809.18 0.57708 1.9197 2.2919 2429.1 -0.0063436 809.89 0.29725
29.375 69610. undefined 151.59 813.57 0.58344 725.00 0.0013793 151.59 813.57 0.58344 1.9237 2.2953 2430.1 -0.0063337 808.10 0.29772 725.00 0.0013793 151.59 813.57 0.58344 1.9237 2.2953 2430.1 -0.0063337 808.10 0.29772
30.375 69869. undefined 153.51 817.96 0.58979 725.00 0.0013793 153.51 817.96 0.58979 1.9277 2.2988 2431.0 -0.0063237 806.32 0.29819 725.00 0.0013793 153.51 817.96 0.58979 1.9277 2.2988 2431.0 -0.0063237 806.32 0.29819
31.375 70127. undefined 155.44 822.35 0.59614 725.00 0.0013793 155.44 822.35 0.59614 1.9317 2.3023 2431.9 -0.0063138 804.56 0.29867 725.00 0.0013793 155.44 822.35 0.59614 1.9317 2.3023 2431.9 -0.0063138 804.56 0.29867
32.375 70386. undefined 157.37 826.74 0.60248 725.00 0.0013793 157.37 826.74 0.60248 1.9356 2.3058 2432.8 -0.0063039 802.81 0.29914 725.00 0.0013793 157.37 826.74 0.60248 1.9356 2.3058 2432.8 -0.0063039 802.81 0.29914
33.375 70643. undefined 159.31 831.13 0.60881 725.00 0.0013793 159.31 831.13 0.60881 1.9396 2.3093 2433.7 -0.0062939 801.09 0.29961 725.00 0.0013793 159.31 831.13 0.60881 1.9396 2.3093 2433.7 -0.0062939 801.09 0.29961
34.375 70901. undefined 161.25 835.52 0.61514 725.00 0.0013793 161.25 835.52 0.61514 1.9436 2.3128 2434.7 -0.0062840 799.38 0.30008 725.00 0.0013793 161.25 835.52 0.61514 1.9436 2.3128 2434.7 -0.0062840 799.38 0.30008
35.375 71158. undefined 163.20 839.91 0.62145 725.00 0.0013793 163.20 839.91 0.62145 1.9476 2.3163 2435.6 -0.0062741 797.69 0.30056 725.00 0.0013793 163.20 839.91 0.62145 1.9476 2.3163 2435.6 -0.0062741 797.69 0.30056
36.375 71414. undefined 165.15 844.30 0.62776 725.00 0.0013793 165.15 844.30 0.62776 1.9516 2.3198 2436.5 -0.0062642 796.01 0.30103 725.00 0.0013793 165.15 844.30 0.62776 1.9516 2.3198 2436.5 -0.0062642 796.01 0.30103
37.375 71670. undefined 167.10 848.69 0.63406 725.00 0.0013793 167.10 848.69 0.63406 1.9556 2.3234 2437.4 -0.0062544 794.35 0.30150 725.00 0.0013793 167.10 848.69 0.63406 1.9556 2.3234 2437.4 -0.0062544 794.35 0.30150
38.375 71926. undefined 169.06 853.08 0.64036 725.00 0.0013793 169.06 853.08 0.64036 1.9597 2.3269 2438.3 -0.0062445 792.71 0.30197 725.00 0.0013793 169.06 853.08 0.64036 1.9597 2.3269 2438.3 -0.0062445 792.71 0.30197
39.375 72181. undefined 171.02 857.47 0.64664 725.00 0.0013793 171.02 857.47 0.64664 1.9637 2.3305 2439.2 -0.0062346 791.09 0.30245 725.00 0.0013793 171.02 857.47 0.64664 1.9637 2.3305 2439.2 -0.0062346 791.09 0.30245
40.375 72436. undefined 172.99 861.86 0.65292 725.00 0.0013793 172.99 861.86 0.65292 1.9677 2.3340 2440.1 -0.0062248 789.48 0.30292 725.00 0.0013793 172.99 861.86 0.65292 1.9677 2.3340 2440.1 -0.0062248 789.48 0.30292
41.375 72691. undefined 174.96 866.24 0.65920 725.00 0.0013793 174.96 866.24 0.65920 1.9717 2.3376 2441.0 -0.0062149 787.89 0.30340 725.00 0.0013793 174.96 866.24 0.65920 1.9717 2.3376 2441.0 -0.0062149 787.89 0.30340
42.375 72945. undefined 176.93 870.63 0.66546 725.00 0.0013793 176.93 870.63 0.66546 1.9758 2.3412 2441.9 -0.0062051 786.31 0.30387 725.00 0.0013793 176.93 870.63 0.66546 1.9758 2.3412 2441.9 -0.0062051 786.31 0.30387
43.375 73198. undefined 178.91 875.02 0.67172 725.00 0.0013793 178.91 875.02 0.67172 1.9798 2.3447 2442.8 -0.0061953 784.75 0.30435 725.00 0.0013793 178.91 875.02 0.67172 1.9798 2.3447 2442.8 -0.0061953 784.75 0.30435
44.375 73451. undefined 180.89 879.41 0.67797 725.00 0.0013793 180.89 879.41 0.67797 1.9839 2.3483 2443.7 -0.0061854 783.20 0.30482 725.00 0.0013793 180.89 879.41 0.67797 1.9839 2.3483 2443.7 -0.0061854 783.20 0.30482
45.375 73704. undefined 182.88 883.80 0.68422 725.00 0.0013793 182.88 883.80 0.68422 1.9879 2.3519 2444.6 -0.0061756 781.67 0.30530 725.00 0.0013793 182.88 883.80 0.68422 1.9879 2.3519 2444.6 -0.0061756 781.67 0.30530
46.375 73957. undefined 184.87 888.20 0.69045 725.00 0.0013793 184.87 888.20 0.69045 1.9920 2.3555 2445.5 -0.0061659 780.15 0.30577 725.00 0.0013793 184.87 888.20 0.69045 1.9920 2.3555 2445.5 -0.0061659 780.15 0.30577
47.375 74209. undefined 186.86 892.59 0.69668 725.00 0.0013793 186.86 892.59 0.69668 1.9960 2.3591 2446.4 -0.0061561 778.65 0.30625 725.00 0.0013793 186.86 892.59 0.69668 1.9960 2.3591 2446.4 -0.0061561 778.65 0.30625
48.375 74460. undefined 188.86 896.98 0.70291 725.00 0.0013793 188.86 896.98 0.70291 2.0001 2.3627 2447.3 -0.0061463 777.16 0.30673 725.00 0.0013793 188.86 896.98 0.70291 2.0001 2.3627 2447.3 -0.0061463 777.16 0.30673
49.375 74712. undefined 190.86 901.37 0.70912 725.00 0.0013793 190.86 901.37 0.70912 2.0041 2.3663 2448.2 -0.0061366 775.69 0.30720 725.00 0.0013793 190.86 901.37 0.70912 2.0041 2.3663 2448.2 -0.0061366 775.69 0.30720
50.375 74963. undefined 192.87 905.76 0.71534 725.00 0.0013793 192.87 905.76 0.71534 2.0082 2.3700 2449.1 -0.0061268 774.23 0.30768 725.00 0.0013793 192.87 905.76 0.71534 2.0082 2.3700 2449.1 -0.0061268 774.23 0.30768
51.375 75213. undefined 194.88 910.15 0.72154 725.00 0.0013793 194.88 910.15 0.72154 2.0123 2.3736 2450.0 -0.0061171 772.78 0.30816 725.00 0.0013793 194.88 910.15 0.72154 2.0123 2.3736 2450.0 -0.0061171 772.78 0.30816
52.375 75463. undefined 196.89 914.55 0.72774 725.00 0.0013793 196.89 914.55 0.72774 2.0164 2.3772 2450.9 -0.0061074 771.35 0.30864 725.00 0.0013793 196.89 914.55 0.72774 2.0164 2.3772 2450.9 -0.0061074 771.35 0.30864
53.375 75713. undefined 198.91 918.94 0.73393 725.00 0.0013793 198.91 918.94 0.73393 2.0205 2.3809 2451.8 -0.0060977 769.93 0.30911 725.00 0.0013793 198.91 918.94 0.73393 2.0205 2.3809 2451.8 -0.0060977 769.93 0.30911
54.375 75962. undefined 200.93 923.33 0.74011 725.00 0.0013793 200.93 923.33 0.74011 2.0245 2.3845 2452.6 -0.0060880 768.53 0.30959 725.00 0.0013793 200.93 923.33 0.74011 2.0245 2.3845 2452.6 -0.0060880 768.53 0.30959
55.375 76211. undefined 202.96 927.73 0.74629 725.00 0.0013793 202.96 927.73 0.74629 2.0286 2.3882 2453.5 -0.0060784 767.13 0.31007 725.00 0.0013793 202.96 927.73 0.74629 2.0286 2.3882 2453.5 -0.0060784 767.13 0.31007
56.375 76460. undefined 204.99 932.12 0.75246 725.00 0.0013793 204.99 932.12 0.75246 2.0327 2.3918 2454.4 -0.0060687 765.76 0.31055 725.00 0.0013793 204.99 932.12 0.75246 2.0327 2.3918 2454.4 -0.0060687 765.76 0.31055
57.375 76708. undefined 207.02 936.52 0.75863 725.00 0.0013793 207.02 936.52 0.75863 2.0368 2.3955 2455.3 -0.0060591 764.39 0.31103 725.00 0.0013793 207.02 936.52 0.75863 2.0368 2.3955 2455.3 -0.0060591 764.39 0.31103
58.375 76956. undefined 209.06 940.91 0.76479 725.00 0.0013793 209.06 940.91 0.76479 2.0409 2.3992 2456.2 -0.0060495 763.04 0.31151 725.00 0.0013793 209.06 940.91 0.76479 2.0409 2.3992 2456.2 -0.0060495 763.04 0.31151
59.375 77203. undefined 211.11 945.31 0.77094 725.00 0.0013793 211.11 945.31 0.77094 2.0450 2.4029 2457.0 -0.0060399 761.70 0.31199 725.00 0.0013793 211.11 945.31 0.77094 2.0450 2.4029 2457.0 -0.0060399 761.70 0.31199
60.375 77450. undefined 213.15 949.71 0.77709 725.00 0.0013793 213.15 949.71 0.77709 2.0491 2.4065 2457.9 -0.0060303 760.37 0.31247 725.00 0.0013793 213.15 949.71 0.77709 2.0491 2.4065 2457.9 -0.0060303 760.37 0.31247
61.375 77697. undefined 215.20 954.10 0.78323 725.00 0.0013793 215.20 954.10 0.78323 2.0532 2.4102 2458.8 -0.0060208 759.05 0.31295 725.00 0.0013793 215.20 954.10 0.78323 2.0532 2.4102 2458.8 -0.0060208 759.05 0.31295
62.375 77943. undefined 217.26 958.50 0.78936 725.00 0.0013793 217.26 958.50 0.78936 2.0573 2.4139 2459.7 -0.0060112 757.75 0.31343 725.00 0.0013793 217.26 958.50 0.78936 2.0573 2.4139 2459.7 -0.0060112 757.75 0.31343
63.375 78189. undefined 219.32 962.90 0.79549 725.00 0.0013793 219.32 962.90 0.79549 2.0614 2.4176 2460.5 -0.0060017 756.45 0.31391 725.00 0.0013793 219.32 962.90 0.79549 2.0614 2.4176 2460.5 -0.0060017 756.45 0.31391
64.375 78435. undefined 221.38 967.30 0.80161 725.00 0.0013793 221.38 967.30 0.80161 2.0655 2.4213 2461.4 -0.0059922 755.17 0.31439 725.00 0.0013793 221.38 967.30 0.80161 2.0655 2.4213 2461.4 -0.0059922 755.17 0.31439
65.375 78680. undefined 223.45 971.70 0.80773 725.00 0.0013793 223.45 971.70 0.80773 2.0697 2.4250 2462.3 -0.0059827 753.90 0.31487 725.00 0.0013793 223.45 971.70 0.80773 2.0697 2.4250 2462.3 -0.0059827 753.90 0.31487
66.375 78925. undefined 225.52 976.10 0.81384 725.00 0.0013793 225.52 976.10 0.81384 2.0738 2.4287 2463.2 -0.0059732 752.65 0.31535 725.00 0.0013793 225.52 976.10 0.81384 2.0738 2.4287 2463.2 -0.0059732 752.65 0.31535
67.375 79169. undefined 227.60 980.50 0.81995 725.00 0.0013793 227.60 980.50 0.81995 2.0779 2.4324 2464.0 -0.0059638 751.40 0.31584 725.00 0.0013793 227.60 980.50 0.81995 2.0779 2.4324 2464.0 -0.0059638 751.40 0.31584
68.375 79414. undefined 229.68 984.90 0.82604 725.00 0.0013793 229.68 984.90 0.82604 2.0820 2.4361 2464.9 -0.0059544 750.17 0.31632 725.00 0.0013793 229.68 984.90 0.82604 2.0820 2.4361 2464.9 -0.0059544 750.17 0.31632
69.375 79657. undefined 231.76 989.30 0.83214 725.00 0.0013793 231.76 989.30 0.83214 2.0861 2.4398 2465.8 -0.0059450 748.94 0.31680 725.00 0.0013793 231.76 989.30 0.83214 2.0861 2.4398 2465.8 -0.0059450 748.94 0.31680
70.375 79901. undefined 233.85 993.71 0.83823 725.00 0.0013793 233.85 993.71 0.83823 2.0903 2.4436 2466.6 -0.0059356 747.73 0.31728 725.00 0.0013793 233.85 993.71 0.83823 2.0903 2.4436 2466.6 -0.0059356 747.73 0.31728
71.375 80144. undefined 235.94 998.11 0.84431 725.00 0.0013793 235.94 998.11 0.84431 2.0944 2.4473 2467.5 -0.0059262 746.53 0.31777 725.00 0.0013793 235.94 998.11 0.84431 2.0944 2.4473 2467.5 -0.0059262 746.53 0.31777
72.375 80387. undefined 238.04 1002.5 0.85038 725.00 0.0013793 238.04 1002.5 0.85038 2.0985 2.4510 2468.4 -0.0059168 745.34 0.31825 725.00 0.0013793 238.04 1002.5 0.85038 2.0985 2.4510 2468.4 -0.0059168 745.34 0.31825
73.375 80629. undefined 240.14 1006.9 0.85645 725.00 0.0013793 240.14 1006.9 0.85645 2.1026 2.4548 2469.2 -0.0059075 744.16 0.31873 725.00 0.0013793 240.14 1006.9 0.85645 2.1026 2.4548 2469.2 -0.0059075 744.16 0.31873
74.375 80871. undefined 242.24 1011.3 0.86252 725.00 0.0013793 242.24 1011.3 0.86252 2.1068 2.4585 2470.1 -0.0058982 742.99 0.31922 725.00 0.0013793 242.24 1011.3 0.86252 2.1068 2.4585 2470.1 -0.0058982 742.99 0.31922
75.375 81113. undefined 244.35 1015.7 0.86858 725.00 0.0013793 244.35 1015.7 0.86858 2.1109 2.4622 2470.9 -0.0058889 741.83 0.31970 725.00 0.0013793 244.35 1015.7 0.86858 2.1109 2.4622 2470.9 -0.0058889 741.83 0.31970
76.375 81354. undefined 246.47 1020.1 0.87463 725.00 0.0013793 246.47 1020.1 0.87463 2.1150 2.4660 2471.8 -0.0058797 740.68 0.32019 725.00 0.0013793 246.47 1020.1 0.87463 2.1150 2.4660 2471.8 -0.0058797 740.68 0.32019
77.375 81595. undefined 248.58 1024.6 0.88068 725.00 0.0013793 248.58 1024.6 0.88068 2.1192 2.4697 2472.6 -0.0058704 739.54 0.32067 725.00 0.0013793 248.58 1024.6 0.88068 2.1192 2.4697 2472.6 -0.0058704 739.54 0.32067
78.375 81836. undefined 250.70 1029.0 0.88672 725.00 0.0013793 250.70 1029.0 0.88672 2.1233 2.4735 2473.5 -0.0058612 738.41 0.32116 725.00 0.0013793 250.70 1029.0 0.88672 2.1233 2.4735 2473.5 -0.0058612 738.41 0.32116
79.375 82076. undefined 252.83 1033.4 0.89276 725.00 0.0013793 252.83 1033.4 0.89276 2.1274 2.4772 2474.4 -0.0058520 737.29 0.32164 725.00 0.0013793 252.83 1033.4 0.89276 2.1274 2.4772 2474.4 -0.0058520 737.29 0.32164
80.375 82316. undefined 254.96 1037.8 0.89879 725.00 0.0013793 254.96 1037.8 0.89879 2.1316 2.4810 2475.2 -0.0058428 736.18 0.32213 725.00 0.0013793 254.96 1037.8 0.89879 2.1316 2.4810 2475.2 -0.0058428 736.18 0.32213
81.375 82556. undefined 257.09 1042.2 0.90482 725.00 0.0013793 257.09 1042.2 0.90482 2.1357 2.4847 2476.1 -0.0058337 735.08 0.32262 725.00 0.0013793 257.09 1042.2 0.90482 2.1357 2.4847 2476.1 -0.0058337 735.08 0.32262
82.375 82795. undefined 259.23 1046.6 0.91084 725.00 0.0013793 259.23 1046.6 0.91084 2.1398 2.4885 2476.9 -0.0058245 733.99 0.32310 725.00 0.0013793 259.23 1046.6 0.91084 2.1398 2.4885 2476.9 -0.0058245 733.99 0.32310
83.375 83034. undefined 261.37 1051.0 0.91686 725.00 0.0013793 261.37 1051.0 0.91686 2.1440 2.4922 2477.8 -0.0058154 732.91 0.32359 725.00 0.0013793 261.37 1051.0 0.91686 2.1440 2.4922 2477.8 -0.0058154 732.91 0.32359
84.375 83273. undefined 263.52 1055.4 0.92287 725.00 0.0013793 263.52 1055.4 0.92287 2.1481 2.4960 2478.6 -0.0058063 731.84 0.32408 725.00 0.0013793 263.52 1055.4 0.92287 2.1481 2.4960 2478.6 -0.0058063 731.84 0.32408
85.375 83511. undefined 265.67 1059.9 0.92888 725.00 0.0013793 265.67 1059.9 0.92888 2.1522 2.4998 2479.5 -0.0057973 730.77 0.32456 725.00 0.0013793 265.67 1059.9 0.92888 2.1522 2.4998 2479.5 -0.0057973 730.77 0.32456
86.375 83749. undefined 267.82 1064.3 0.93488 725.00 0.0013793 267.82 1064.3 0.93488 2.1564 2.5035 2480.3 -0.0057882 729.72 0.32505 725.00 0.0013793 267.82 1064.3 0.93488 2.1564 2.5035 2480.3 -0.0057882 729.72 0.32505
87.375 83987. undefined 269.98 1068.7 0.94087 725.00 0.0013793 269.98 1068.7 0.94087 2.1605 2.5073 2481.2 -0.0057792 728.68 0.32554 725.00 0.0013793 269.98 1068.7 0.94087 2.1605 2.5073 2481.2 -0.0057792 728.68 0.32554
88.375 84224. undefined 272.14 1073.1 0.94686 725.00 0.0013793 272.14 1073.1 0.94686 2.1647 2.5111 2482.0 -0.0057702 727.64 0.32603 725.00 0.0013793 272.14 1073.1 0.94686 2.1647 2.5111 2482.0 -0.0057702 727.64 0.32603
89.375 84461. undefined 274.31 1077.5 0.95285 725.00 0.0013793 274.31 1077.5 0.95285 2.1688 2.5148 2482.9 -0.0057612 726.61 0.32652 725.00 0.0013793 274.31 1077.5 0.95285 2.1688 2.5148 2482.9 -0.0057612 726.61 0.32652
90.375 84698. undefined 276.48 1082.0 0.95883 725.00 0.0013793 276.48 1082.0 0.95883 2.1729 2.5186 2483.7 -0.0057523 725.59 0.32700 725.00 0.0013793 276.48 1082.0 0.95883 2.1729 2.5186 2483.7 -0.0057523 725.59 0.32700
91.375 84935. undefined 278.66 1086.4 0.96480 725.00 0.0013793 278.66 1086.4 0.96480 2.1771 2.5224 2484.5 -0.0057433 724.58 0.32749 725.00 0.0013793 278.66 1086.4 0.96480 2.1771 2.5224 2484.5 -0.0057433 724.58 0.32749
92.375 85171. undefined 280.84 1090.8 0.97077 725.00 0.0013793 280.84 1090.8 0.97077 2.1812 2.5262 2485.4 -0.0057344 723.58 0.32798 725.00 0.0013793 280.84 1090.8 0.97077 2.1812 2.5262 2485.4 -0.0057344 723.58 0.32798
93.375 85406. undefined 283.02 1095.2 0.97674 725.00 0.0013793 283.02 1095.2 0.97674 2.1853 2.5299 2486.2 -0.0057256 722.59 0.32847 725.00 0.0013793 283.02 1095.2 0.97674 2.1853 2.5299 2486.2 -0.0057256 722.59 0.32847
94.375 85642. undefined 285.21 1099.7 0.98270 725.00 0.0013793 285.21 1099.7 0.98270 2.1895 2.5337 2487.1 -0.0057167 721.61 0.32896 725.00 0.0013793 285.21 1099.7 0.98270 2.1895 2.5337 2487.1 -0.0057167 721.61 0.32896
95.375 85877. undefined 287.40 1104.1 0.98865 725.00 0.0013793 287.40 1104.1 0.98865 2.1936 2.5375 2487.9 -0.0057079 720.63 0.32945 725.00 0.0013793 287.40 1104.1 0.98865 2.1936 2.5375 2487.9 -0.0057079 720.63 0.32945
96.375 86112. undefined 289.59 1108.5 0.99460 725.00 0.0013793 289.59 1108.5 0.99460 2.1978 2.5413 2488.7 -0.0056991 719.66 0.32994 725.00 0.0013793 289.59 1108.5 0.99460 2.1978 2.5413 2488.7 -0.0056991 719.66 0.32994
97.375 86346. undefined 291.79 1112.9 1.0005 725.00 0.0013793 291.79 1112.9 1.0005 2.2019 2.5450 2489.6 -0.0056903 718.70 0.33043 725.00 0.0013793 291.79 1112.9 1.0005 2.2019 2.5450 2489.6 -0.0056903 718.70 0.33043
98.375 86580. undefined 294.00 1117.4 1.0065 725.00 0.0013793 294.00 1117.4 1.0065 2.2060 2.5488 2490.4 -0.0056815 717.75 0.33092 725.00 0.0013793 294.00 1117.4 1.0065 2.2060 2.5488 2490.4 -0.0056815 717.75 0.33092
99.375 86814. undefined 296.21 1121.8 1.0124 725.00 0.0013793 296.21 1121.8 1.0124 2.2102 2.5526 2491.3 -0.0056728 716.81 0.33142 725.00 0.0013793 296.21 1121.8 1.0124 2.2102 2.5526 2491.3 -0.0056728 716.81 0.33142
100.38 87048. undefined 298.42 1126.2 1.0184 725.00 0.0013793 298.42 1126.2 1.0184 2.2143 2.5564 2492.1 -0.0056641 715.87 0.33191 725.00 0.0013793 298.42 1126.2 1.0184 2.2143 2.5564 2492.1 -0.0056641 715.87 0.33191
101.38 87281. undefined 300.63 1130.7 1.0243 725.00 0.0013793 300.63 1130.7 1.0243 2.2184 2.5602 2492.9 -0.0056554 714.94 0.33240 725.00 0.0013793 300.63 1130.7 1.0243 2.2184 2.5602 2492.9 -0.0056554 714.94 0.33240
102.38 87514. undefined 302.85 1135.1 1.0302 725.00 0.0013793 302.85 1135.1 1.0302 2.2225 2.5640 2493.8 -0.0056468 714.02 0.33289 725.00 0.0013793 302.85 1135.1 1.0302 2.2225 2.5640 2493.8 -0.0056468 714.02 0.33289
103.38 87747. undefined 305.08 1139.6 1.0361 725.00 0.0013793 305.08 1139.6 1.0361 2.2267 2.5677 2494.6 -0.0056381 713.11 0.33338 725.00 0.0013793 305.08 1139.6 1.0361 2.2267 2.5677 2494.6 -0.0056381 713.11 0.33338
104.38 87979. undefined 307.31 1144.0 1.0420 725.00 0.0013793 307.31 1144.0 1.0420 2.2308 2.5715 2495.4 -0.0056295 712.20 0.33388 725.00 0.0013793 307.31 1144.0 1.0420 2.2308 2.5715 2495.4 -0.0056295 712.20 0.33388
105.38 88211. undefined 309.54 1148.4 1.0479 725.00 0.0013793 309.54 1148.4 1.0479 2.2349 2.5753 2496.2 -0.0056209 711.30 0.33437 725.00 0.0013793 309.54 1148.4 1.0479 2.2349 2.5753 2496.2 -0.0056209 711.30 0.33437
106.38 88443. undefined 311.78 1152.9 1.0538 725.00 0.0013793 311.78 1152.9 1.0538 2.2391 2.5791 2497.1 -0.0056124 710.41 0.33486 725.00 0.0013793 311.78 1152.9 1.0538 2.2391 2.5791 2497.1 -0.0056124 710.41 0.33486
107.38 88674. undefined 314.02 1157.3 1.0597 725.00 0.0013793 314.02 1157.3 1.0597 2.2432 2.5829 2497.9 -0.0056038 709.52 0.33536 725.00 0.0013793 314.02 1157.3 1.0597 2.2432 2.5829 2497.9 -0.0056038 709.52 0.33536
108.38 88905. undefined 316.26 1161.8 1.0656 725.00 0.0013793 316.26 1161.8 1.0656 2.2473 2.5867 2498.7 -0.0055953 708.65 0.33585 725.00 0.0013793 316.26 1161.8 1.0656 2.2473 2.5867 2498.7 -0.0055953 708.65 0.33585
109.38 89136. undefined 318.51 1166.2 1.0715 725.00 0.0013793 318.51 1166.2 1.0715 2.2514 2.5905 2499.6 -0.0055868 707.78 0.33635 725.00 0.0013793 318.51 1166.2 1.0715 2.2514 2.5905 2499.6 -0.0055868 707.78 0.33635
110.38 89367. undefined 320.77 1170.6 1.0774 725.00 0.0013793 320.77 1170.6 1.0774 2.2555 2.5942 2500.4 -0.0055784 706.91 0.33684 725.00 0.0013793 320.77 1170.6 1.0774 2.2555 2.5942 2500.4 -0.0055784 706.91 0.33684
111.38 89597. undefined 323.02 1175.1 1.0833 725.00 0.0013793 323.02 1175.1 1.0833 2.2597 2.5980 2501.2 -0.0055700 706.06 0.33734 725.00 0.0013793 323.02 1175.1 1.0833 2.2597 2.5980 2501.2 -0.0055700 706.06 0.33734
112.38 89827. undefined 325.29 1179.5 1.0891 725.00 0.0013793 325.29 1179.5 1.0891 2.2638 2.6018 2502.0 -0.0055615 705.21 0.33783 725.00 0.0013793 325.29 1179.5 1.0891 2.2638 2.6018 2502.0 -0.0055615 705.21 0.33783
113.38 90057. undefined 327.55 1184.0 1.0950 725.00 0.0013793 327.55 1184.0 1.0950 2.2679 2.6056 2502.9 -0.0055532 704.37 0.33833 725.00 0.0013793 327.55 1184.0 1.0950 2.2679 2.6056 2502.9 -0.0055532 704.37 0.33833
114.38 90286. undefined 329.82 1188.4 1.1009 725.00 0.0013793 329.82 1188.4 1.1009 2.2720 2.6094 2503.7 -0.0055448 703.53 0.33882 725.00 0.0013793 329.82 1188.4 1.1009 2.2720 2.6094 2503.7 -0.0055448 703.53 0.33882
115.38 90515. undefined 332.10 1192.9 1.1067 725.00 0.0013793 332.10 1192.9 1.1067 2.2761 2.6132 2504.5 -0.0055365 702.70 0.33932 725.00 0.0013793 332.10 1192.9 1.1067 2.2761 2.6132 2504.5 -0.0055365 702.70 0.33932
116.38 90744. undefined 334.37 1197.3 1.1126 725.00 0.0013793 334.37 1197.3 1.1126 2.2802 2.6170 2505.3 -0.0055282 701.88 0.33981 725.00 0.0013793 334.37 1197.3 1.1126 2.2802 2.6170 2505.3 -0.0055282 701.88 0.33981
117.38 90972. undefined 336.66 1201.8 1.1185 725.00 0.0013793 336.66 1201.8 1.1185 2.2843 2.6207 2506.2 -0.0055199 701.06 0.34031 725.00 0.0013793 336.66 1201.8 1.1185 2.2843 2.6207 2506.2 -0.0055199 701.06 0.34031
118.38 91201. undefined 338.94 1206.3 1.1243 725.00 0.0013793 338.94 1206.3 1.1243 2.2884 2.6245 2507.0 -0.0055116 700.25 0.34081 725.00 0.0013793 338.94 1206.3 1.1243 2.2884 2.6245 2507.0 -0.0055116 700.25 0.34081
119.38 91428. undefined 341.23 1210.7 1.1301 725.00 0.0013793 341.23 1210.7 1.1301 2.2925 2.6283 2507.8 -0.0055034 699.45 0.34131 725.00 0.0013793 341.23 1210.7 1.1301 2.2925 2.6283 2507.8 -0.0055034 699.45 0.34131
120.38 91656. undefined 343.53 1215.2 1.1360 725.00 0.0013793 343.53 1215.2 1.1360 2.2966 2.6321 2508.6 -0.0054952 698.65 0.34180 725.00 0.0013793 343.53 1215.2 1.1360 2.2966 2.6321 2508.6 -0.0054952 698.65 0.34180
121.38 91883. undefined 345.83 1219.6 1.1418 725.00 0.0013793 345.83 1219.6 1.1418 2.3007 2.6359 2509.4 -0.0054870 697.86 0.34230 725.00 0.0013793 345.83 1219.6 1.1418 2.3007 2.6359 2509.4 -0.0054870 697.86 0.34230
122.38 92111. undefined 348.13 1224.1 1.1476 725.00 0.0013793 348.13 1224.1 1.1476 2.3048 2.6396 2510.3 -0.0054789 697.07 0.34280 725.00 0.0013793 348.13 1224.1 1.1476 2.3048 2.6396 2510.3 -0.0054789 697.07 0.34280
123.38 92337. undefined 350.44 1228.6 1.1535 725.00 0.0013793 350.44 1228.6 1.1535 2.3089 2.6434 2511.1 -0.0054708 696.30 0.34330 725.00 0.0013793 350.44 1228.6 1.1535 2.3089 2.6434 2511.1 -0.0054708 696.30 0.34330
124.38 92564. undefined 352.75 1233.0 1.1593 725.00 0.0013793 352.75 1233.0 1.1593 2.3130 2.6472 2511.9 -0.0054627 695.52 0.34380 725.00 0.0013793 352.75 1233.0 1.1593 2.3130 2.6472 2511.9 -0.0054627 695.52 0.34380
125.38 92790. undefined 355.06 1237.5 1.1651 725.00 0.0013793 355.06 1237.5 1.1651 2.3171 2.6510 2512.7 -0.0054546 694.76 0.34429 725.00 0.0013793 355.06 1237.5 1.1651 2.3171 2.6510 2512.7 -0.0054546 694.76 0.34429
126.38 93016. undefined 357.38 1242.0 1.1709 725.00 0.0013793 357.38 1242.0 1.1709 2.3212 2.6547 2513.5 -0.0054465 693.99 0.34479 725.00 0.0013793 357.38 1242.0 1.1709 2.3212 2.6547 2513.5 -0.0054465 693.99 0.34479
127.38 93242. undefined 359.70 1246.4 1.1767 725.00 0.0013793 359.70 1246.4 1.1767 2.3252 2.6585 2514.3 -0.0054385 693.24 0.34529 725.00 0.0013793 359.70 1246.4 1.1767 2.3252 2.6585 2514.3 -0.0054385 693.24 0.34529
128.38 93467. undefined 362.03 1250.9 1.1825 725.00 0.0013793 362.03 1250.9 1.1825 2.3293 2.6623 2515.1 -0.0054305 692.49 0.34579 725.00 0.0013793 362.03 1250.9 1.1825 2.3293 2.6623 2515.1 -0.0054305 692.49 0.34579
129.38 93692. undefined 364.36 1255.4 1.1883 725.00 0.0013793 364.36 1255.4 1.1883 2.3334 2.6660 2516.0 -0.0054225 691.75 0.34629 725.00 0.0013793 364.36 1255.4 1.1883 2.3334 2.6660 2516.0 -0.0054225 691.75 0.34629
130.38 93917. undefined 366.70 1259.9 1.1941 725.00 0.0013793 366.70 1259.9 1.1941 2.3375 2.6698 2516.8 -0.0054146 691.01 0.34679 725.00 0.0013793 366.70 1259.9 1.1941 2.3375 2.6698 2516.8 -0.0054146 691.01 0.34679
131.38 94142. undefined 369.04 1264.3 1.1999 725.00 0.0013793 369.04 1264.3 1.1999 2.3415 2.6736 2517.6 -0.0054067 690.28 0.34729 725.00 0.0013793 369.04 1264.3 1.1999 2.3415 2.6736 2517.6 -0.0054067 690.28 0.34729
132.38 94366. undefined 371.38 1268.8 1.2057 725.00 0.0013793 371.38 1268.8 1.2057 2.3456 2.6773 2518.4 -0.0053988 689.55 0.34780 725.00 0.0013793 371.38 1268.8 1.2057 2.3456 2.6773 2518.4 -0.0053988 689.55 0.34780
133.38 94590. undefined 373.73 1273.3 1.2115 725.00 0.0013793 373.73 1273.3 1.2115 2.3497 2.6811 2519.2 -0.0053909 688.83 0.34830 725.00 0.0013793 373.73 1273.3 1.2115 2.3497 2.6811 2519.2 -0.0053909 688.83 0.34830
134.38 94814. undefined 376.08 1277.8 1.2173 725.00 0.0013793 376.08 1277.8 1.2173 2.3537 2.6849 2520.0 -0.0053831 688.11 0.34880 725.00 0.0013793 376.08 1277.8 1.2173 2.3537 2.6849 2520.0 -0.0053831 688.11 0.34880
135.38 95037. undefined 378.44 1282.2 1.2230 725.00 0.0013793 378.44 1282.2 1.2230 2.3578 2.6886 2520.8 -0.0053753 687.40 0.34930 725.00 0.0013793 378.44 1282.2 1.2230 2.3578 2.6886 2520.8 -0.0053753 687.40 0.34930
136.38 95261. undefined 380.80 1286.7 1.2288 725.00 0.0013793 380.80 1286.7 1.2288 2.3618 2.6924 2521.6 -0.0053675 686.70 0.34980 725.00 0.0013793 380.80 1286.7 1.2288 2.3618 2.6924 2521.6 -0.0053675 686.70 0.34980
137.38 95484. undefined 383.16 1291.2 1.2346 725.00 0.0013793 383.16 1291.2 1.2346 2.3659 2.6961 2522.4 -0.0053597 686.00 0.35031 725.00 0.0013793 383.16 1291.2 1.2346 2.3659 2.6961 2522.4 -0.0053597 686.00 0.35031
138.38 95706. undefined 385.53 1295.7 1.2403 725.00 0.0013793 385.53 1295.7 1.2403 2.3699 2.6999 2523.2 -0.0053520 685.30 0.35081 725.00 0.0013793 385.53 1295.7 1.2403 2.3699 2.6999 2523.2 -0.0053520 685.30 0.35081
139.38 95929. undefined 387.90 1300.2 1.2461 725.00 0.0013793 387.90 1300.2 1.2461 2.3740 2.7037 2524.0 -0.0053443 684.62 0.35131 725.00 0.0013793 387.90 1300.2 1.2461 2.3740 2.7037 2524.0 -0.0053443 684.62 0.35131
140.38 96151. undefined 390.28 1304.7 1.2518 725.00 0.0013793 390.28 1304.7 1.2518 2.3780 2.7074 2524.8 -0.0053366 683.93 0.35181 725.00 0.0013793 390.28 1304.7 1.2518 2.3780 2.7074 2524.8 -0.0053366 683.93 0.35181
141.38 96373. undefined 392.66 1309.2 1.2576 725.00 0.0013793 392.66 1309.2 1.2576 2.3821 2.7112 2525.7 -0.0053289 683.25 0.35232 725.00 0.0013793 392.66 1309.2 1.2576 2.3821 2.7112 2525.7 -0.0053289 683.25 0.35232
142.38 96595. undefined 395.04 1313.7 1.2633 725.00 0.0013793 395.04 1313.7 1.2633 2.3861 2.7149 2526.5 -0.0053213 682.58 0.35282 725.00 0.0013793 395.04 1313.7 1.2633 2.3861 2.7149 2526.5 -0.0053213 682.58 0.35282
143.38 96816. undefined 397.43 1318.1 1.2691 725.00 0.0013793 397.43 1318.1 1.2691 2.3901 2.7186 2527.3 -0.0053137 681.91 0.35333 725.00 0.0013793 397.43 1318.1 1.2691 2.3901 2.7186 2527.3 -0.0053137 681.91 0.35333
144.38 97037. undefined 399.82 1322.6 1.2748 725.00 0.0013793 399.82 1322.6 1.2748 2.3942 2.7224 2528.1 -0.0053061 681.25 0.35383 725.00 0.0013793 399.82 1322.6 1.2748 2.3942 2.7224 2528.1 -0.0053061 681.25 0.35383
145.38 97258. undefined 402.22 1327.1 1.2805 725.00 0.0013793 402.22 1327.1 1.2805 2.3982 2.7261 2528.9 -0.0052985 680.59 0.35434 725.00 0.0013793 402.22 1327.1 1.2805 2.3982 2.7261 2528.9 -0.0052985 680.59 0.35434
146.38 97479. undefined 404.62 1331.6 1.2863 725.00 0.0013793 404.62 1331.6 1.2863 2.4022 2.7299 2529.7 -0.0052910 679.93 0.35484 725.00 0.0013793 404.62 1331.6 1.2863 2.4022 2.7299 2529.7 -0.0052910 679.93 0.35484
147.38 97699. undefined 407.02 1336.1 1.2920 725.00 0.0013793 407.02 1336.1 1.2920 2.4062 2.7336 2530.5 -0.0052835 679.28 0.35535 725.00 0.0013793 407.02 1336.1 1.2920 2.4062 2.7336 2530.5 -0.0052835 679.28 0.35535
148.38 97919. undefined 409.43 1340.6 1.2977 725.00 0.0013793 409.43 1340.6 1.2977 2.4103 2.7373 2531.3 -0.0052760 678.64 0.35585 725.00 0.0013793 409.43 1340.6 1.2977 2.4103 2.7373 2531.3 -0.0052760 678.64 0.35585
149.38 98139. undefined 411.84 1345.1 1.3034 725.00 0.0013793 411.84 1345.1 1.3034 2.4143 2.7411 2532.1 -0.0052685 678.00 0.35636 725.00 0.0013793 411.84 1345.1 1.3034 2.4143 2.7411 2532.1 -0.0052685 678.00 0.35636
150.38 98359. undefined 414.26 1349.7 1.3091 725.00 0.0013793 414.26 1349.7 1.3091 2.4183 2.7448 2532.9 -0.0052611 677.36 0.35686 725.00 0.0013793 414.26 1349.7 1.3091 2.4183 2.7448 2532.9 -0.0052611 677.36 0.35686
151.38 98578. undefined 416.68 1354.2 1.3148 725.00 0.0013793 416.68 1354.2 1.3148 2.4223 2.7485 2533.7 -0.0052537 676.73 0.35737 725.00 0.0013793 416.68 1354.2 1.3148 2.4223 2.7485 2533.7 -0.0052537 676.73 0.35737
152.38 98797. undefined 419.10 1358.7 1.3205 725.00 0.0013793 419.10 1358.7 1.3205 2.4263 2.7522 2534.5 -0.0052463 676.11 0.35788 725.00 0.0013793 419.10 1358.7 1.3205 2.4263 2.7522 2534.5 -0.0052463 676.11 0.35788
153.38 99016. undefined 421.53 1363.2 1.3262 725.00 0.0013793 421.53 1363.2 1.3262 2.4303 2.7559 2535.3 -0.0052389 675.49 0.35838 725.00 0.0013793 421.53 1363.2 1.3262 2.4303 2.7559 2535.3 -0.0052389 675.49 0.35838
154.38 99235. undefined 423.96 1367.7 1.3319 725.00 0.0013793 423.96 1367.7 1.3319 2.4343 2.7597 2536.0 -0.0052316 674.87 0.35889 725.00 0.0013793 423.96 1367.7 1.3319 2.4343 2.7597 2536.0 -0.0052316 674.87 0.35889
155.38 99453. undefined 426.40 1372.2 1.3376 725.00 0.0013793 426.40 1372.2 1.3376 2.4383 2.7634 2536.8 -0.0052243 674.26 0.35940 725.00 0.0013793 426.40 1372.2 1.3376 2.4383 2.7634 2536.8 -0.0052243 674.26 0.35940
156.38 99671. undefined 428.84 1376.7 1.3433 725.00 0.0013793 428.84 1376.7 1.3433 2.4423 2.7671 2537.6 -0.0052170 673.65 0.35991 725.00 0.0013793 428.84 1376.7 1.3433 2.4423 2.7671 2537.6 -0.0052170 673.65 0.35991
157.38 99889. undefined 431.28 1381.2 1.3490 725.00 0.0013793 431.28 1381.2 1.3490 2.4462 2.7708 2538.4 -0.0052098 673.04 0.36042 725.00 0.0013793 431.28 1381.2 1.3490 2.4462 2.7708 2538.4 -0.0052098 673.04 0.36042
158.38 1.0011e+05 undefined 433.73 1385.7 1.3547 725.00 0.0013793 433.73 1385.7 1.3547 2.4502 2.7745 2539.2 -0.0052025 672.44 0.36093 725.00 0.0013793 433.73 1385.7 1.3547 2.4502 2.7745 2539.2 -0.0052025 672.44 0.36093
159.38 1.0032e+05 undefined 436.18 1390.3 1.3604 725.00 0.0013793 436.18 1390.3 1.3604 2.4542 2.7782 2540.0 -0.0051953 671.85 0.36143 725.00 0.0013793 436.18 1390.3 1.3604 2.4542 2.7782 2540.0 -0.0051953 671.85 0.36143
160.38 1.0054e+05 undefined 438.64 1394.8 1.3660 725.00 0.0013793 438.64 1394.8 1.3660 2.4582 2.7819 2540.8 -0.0051881 671.26 0.36194 725.00 0.0013793 438.64 1394.8 1.3660 2.4582 2.7819 2540.8 -0.0051881 671.26 0.36194
161.38 1.0076e+05 undefined 441.10 1399.3 1.3717 725.00 0.0013793 441.10 1399.3 1.3717 2.4621 2.7856 2541.6 -0.0051810 670.67 0.36245 725.00 0.0013793 441.10 1399.3 1.3717 2.4621 2.7856 2541.6 -0.0051810 670.67 0.36245
162.38 1.0097e+05 undefined 443.56 1403.8 1.3774 725.00 0.0013793 443.56 1403.8 1.3774 2.4661 2.7893 2542.4 -0.0051738 670.09 0.36296 725.00 0.0013793 443.56 1403.8 1.3774 2.4661 2.7893 2542.4 -0.0051738 670.09 0.36296
163.38 1.0119e+05 undefined 446.03 1408.4 1.3830 725.00 0.0013793 446.03 1408.4 1.3830 2.4700 2.7930 2543.2 -0.0051667 669.51 0.36347 725.00 0.0013793 446.03 1408.4 1.3830 2.4700 2.7930 2543.2 -0.0051667 669.51 0.36347
164.38 1.0141e+05 undefined 448.50 1412.9 1.3887 725.00 0.0013793 448.50 1412.9 1.3887 2.4740 2.7967 2544.0 -0.0051597 668.94 0.36398 725.00 0.0013793 448.50 1412.9 1.3887 2.4740 2.7967 2544.0 -0.0051597 668.94 0.36398
165.38 1.0162e+05 undefined 450.98 1417.4 1.3943 725.00 0.0013793 450.98 1417.4 1.3943 2.4780 2.8004 2544.8 -0.0051526 668.37 0.36449 725.00 0.0013793 450.98 1417.4 1.3943 2.4780 2.8004 2544.8 -0.0051526 668.37 0.36449
166.38 1.0184e+05 undefined 453.46 1422.0 1.4000 725.00 0.0013793 453.46 1422.0 1.4000 2.4819 2.8040 2545.5 -0.0051456 667.80 0.36500 725.00 0.0013793 453.46 1422.0 1.4000 2.4819 2.8040 2545.5 -0.0051456 667.80 0.36500
167.38 1.0205e+05 undefined 455.94 1426.5 1.4056 725.00 0.0013793 455.94 1426.5 1.4056 2.4858 2.8077 2546.3 -0.0051386 667.24 0.36552 725.00 0.0013793 455.94 1426.5 1.4056 2.4858 2.8077 2546.3 -0.0051386 667.24 0.36552
168.38 1.0227e+05 undefined 458.43 1431.0 1.4113 725.00 0.0013793 458.43 1431.0 1.4113 2.4898 2.8114 2547.1 -0.0051316 666.68 0.36603 725.00 0.0013793 458.43 1431.0 1.4113 2.4898 2.8114 2547.1 -0.0051316 666.68 0.36603
169.38 1.0248e+05 undefined 460.92 1435.6 1.4169 725.00 0.0013793 460.92 1435.6 1.4169 2.4937 2.8151 2547.9 -0.0051246 666.12 0.36654 725.00 0.0013793 460.92 1435.6 1.4169 2.4937 2.8151 2547.9 -0.0051246 666.12 0.36654
170.38 1.0270e+05 undefined 463.42 1440.1 1.4225 725.00 0.0013793 463.42 1440.1 1.4225 2.4976 2.8187 2548.7 -0.0051177 665.57 0.36705 725.00 0.0013793 463.42 1440.1 1.4225 2.4976 2.8187 2548.7 -0.0051177 665.57 0.36705
171.38 1.0291e+05 undefined 465.92 1444.6 1.4282 725.00 0.0013793 465.92 1444.6 1.4282 2.5016 2.8224 2549.5 -0.0051108 665.03 0.36756 725.00 0.0013793 465.92 1444.6 1.4282 2.5016 2.8224 2549.5 -0.0051108 665.03 0.36756
172.38 1.0313e+05 undefined 468.42 1449.2 1.4338 725.00 0.0013793 468.42 1449.2 1.4338 2.5055 2.8261 2550.3 -0.0051039 664.48 0.36808 725.00 0.0013793 468.42 1449.2 1.4338 2.5055 2.8261 2550.3 -0.0051039 664.48 0.36808
173.38 1.0334e+05 undefined 470.93 1453.7 1.4394 725.00 0.0013793 470.93 1453.7 1.4394 2.5094 2.8297 2551.1 -0.0050970 663.94 0.36859 725.00 0.0013793 470.93 1453.7 1.4394 2.5094 2.8297 2551.1 -0.0050970 663.94 0.36859
174.38 1.0356e+05 undefined 473.44 1458.3 1.4450 725.00 0.0013793 473.44 1458.3 1.4450 2.5133 2.8334 2551.8 -0.0050902 663.41 0.36910 725.00 0.0013793 473.44 1458.3 1.4450 2.5133 2.8334 2551.8 -0.0050902 663.41 0.36910
175.38 1.0377e+05 undefined 475.96 1462.8 1.4507 725.00 0.0013793 475.96 1462.8 1.4507 2.5172 2.8370 2552.6 -0.0050833 662.88 0.36962 725.00 0.0013793 475.96 1462.8 1.4507 2.5172 2.8370 2552.6 -0.0050833 662.88 0.36962
176.38 1.0398e+05 undefined 478.48 1467.4 1.4563 725.00 0.0013793 478.48 1467.4 1.4563 2.5211 2.8407 2553.4 -0.0050766 662.35 0.37013 725.00 0.0013793 478.48 1467.4 1.4563 2.5211 2.8407 2553.4 -0.0050766 662.35 0.37013
177.38 1.0420e+05 undefined 481.00 1471.9 1.4619 725.00 0.0013793 481.00 1471.9 1.4619 2.5250 2.8443 2554.2 -0.0050698 661.82 0.37064 725.00 0.0013793 481.00 1471.9 1.4619 2.5250 2.8443 2554.2 -0.0050698 661.82 0.37064
178.38 1.0441e+05 undefined 483.53 1476.5 1.4675 725.00 0.0013793 483.53 1476.5 1.4675 2.5289 2.8480 2555.0 -0.0050630 661.30 0.37116 725.00 0.0013793 483.53 1476.5 1.4675 2.5289 2.8480 2555.0 -0.0050630 661.30 0.37116
179.38 1.0462e+05 undefined 486.06 1481.0 1.4731 725.00 0.0013793 486.06 1481.0 1.4731 2.5328 2.8516 2555.7 -0.0050563 660.79 0.37167 725.00 0.0013793 486.06 1481.0 1.4731 2.5328 2.8516 2555.7 -0.0050563 660.79 0.37167
180.38 1.0483e+05 undefined 488.59 1485.6 1.4787 725.00 0.0013793 488.59 1485.6 1.4787 2.5367 2.8552 2556.5 -0.0050496 660.27 0.37219 725.00 0.0013793 488.59 1485.6 1.4787 2.5367 2.8552 2556.5 -0.0050496 660.27 0.37219
181.38 1.0505e+05 undefined 491.13 1490.1 1.4843 725.00 0.0013793 491.13 1490.1 1.4843 2.5406 2.8589 2557.3 -0.0050429 659.76 0.37270 725.00 0.0013793 491.13 1490.1 1.4843 2.5406 2.8589 2557.3 -0.0050429 659.76 0.37270
182.38 1.0526e+05 undefined 493.67 1494.7 1.4898 725.00 0.0013793 493.67 1494.7 1.4898 2.5445 2.8625 2558.1 -0.0050363 659.26 0.37322 725.00 0.0013793 493.67 1494.7 1.4898 2.5445 2.8625 2558.1 -0.0050363 659.26 0.37322
183.38 1.0547e+05 undefined 496.22 1499.2 1.4954 725.00 0.0013793 496.22 1499.2 1.4954 2.5483 2.8661 2558.9 -0.0050297 658.75 0.37374 725.00 0.0013793 496.22 1499.2 1.4954 2.5483 2.8661 2558.9 -0.0050297 658.75 0.37374
184.38 1.0568e+05 undefined 498.77 1503.8 1.5010 725.00 0.0013793 498.77 1503.8 1.5010 2.5522 2.8697 2559.6 -0.0050231 658.25 0.37425 725.00 0.0013793 498.77 1503.8 1.5010 2.5522 2.8697 2559.6 -0.0050231 658.25 0.37425
185.38 1.0589e+05 undefined 501.32 1508.4 1.5066 725.00 0.0013793 501.32 1508.4 1.5066 2.5561 2.8734 2560.4 -0.0050165 657.76 0.37477 725.00 0.0013793 501.32 1508.4 1.5066 2.5561 2.8734 2560.4 -0.0050165 657.76 0.37477
186.38 1.0610e+05 undefined 503.88 1512.9 1.5122 725.00 0.0013793 503.88 1512.9 1.5122 2.5599 2.8770 2561.2 -0.0050099 657.26 0.37528 725.00 0.0013793 503.88 1512.9 1.5122 2.5599 2.8770 2561.2 -0.0050099 657.26 0.37528
187.38 1.0632e+05 undefined 506.44 1517.5 1.5177 725.00 0.0013793 506.44 1517.5 1.5177 2.5638 2.8806 2562.0 -0.0050034 656.77 0.37580 725.00 0.0013793 506.44 1517.5 1.5177 2.5638 2.8806 2562.0 -0.0050034 656.77 0.37580
188.38 1.0653e+05 undefined 509.01 1522.1 1.5233 725.00 0.0013793 509.01 1522.1 1.5233 2.5676 2.8842 2562.7 -0.0049969 656.29 0.37632 725.00 0.0013793 509.01 1522.1 1.5233 2.5676 2.8842 2562.7 -0.0049969 656.29 0.37632
189.38 1.0674e+05 undefined 511.58 1526.6 1.5289 725.00 0.0013793 511.58 1526.6 1.5289 2.5715 2.8878 2563.5 -0.0049904 655.80 0.37684 725.00 0.0013793 511.58 1526.6 1.5289 2.5715 2.8878 2563.5 -0.0049904 655.80 0.37684
190.38 1.0695e+05 undefined 514.15 1531.2 1.5344 725.00 0.0013793 514.15 1531.2 1.5344 2.5753 2.8914 2564.3 -0.0049839 655.32 0.37736 725.00 0.0013793 514.15 1531.2 1.5344 2.5753 2.8914 2564.3 -0.0049839 655.32 0.37736
191.38 1.0716e+05 undefined 516.73 1535.8 1.5400 725.00 0.0013793 516.73 1535.8 1.5400 2.5791 2.8950 2565.1 -0.0049775 654.85 0.37787 725.00 0.0013793 516.73 1535.8 1.5400 2.5791 2.8950 2565.1 -0.0049775 654.85 0.37787
192.38 1.0737e+05 undefined 519.31 1540.4 1.5455 725.00 0.0013793 519.31 1540.4 1.5455 2.5830 2.8986 2565.8 -0.0049711 654.37 0.37839 725.00 0.0013793 519.31 1540.4 1.5455 2.5830 2.8986 2565.8 -0.0049711 654.37 0.37839
193.38 1.0758e+05 undefined 521.90 1544.9 1.5511 725.00 0.0013793 521.90 1544.9 1.5511 2.5868 2.9022 2566.6 -0.0049647 653.90 0.37891 725.00 0.0013793 521.90 1544.9 1.5511 2.5868 2.9022 2566.6 -0.0049647 653.90 0.37891
194.38 1.0779e+05 undefined 524.48 1549.5 1.5566 725.00 0.0013793 524.48 1549.5 1.5566 2.5906 2.9058 2567.4 -0.0049583 653.43 0.37943 725.00 0.0013793 524.48 1549.5 1.5566 2.5906 2.9058 2567.4 -0.0049583 653.43 0.37943
195.38 1.0800e+05 undefined 527.08 1554.1 1.5621 725.00 0.0013793 527.08 1554.1 1.5621 2.5944 2.9093 2568.2 -0.0049519 652.97 0.37995 725.00 0.0013793 527.08 1554.1 1.5621 2.5944 2.9093 2568.2 -0.0049519 652.97 0.37995
196.38 1.0820e+05 undefined 529.67 1558.7 1.5677 725.00 0.0013793 529.67 1558.7 1.5677 2.5982 2.9129 2568.9 -0.0049456 652.51 0.38047 725.00 0.0013793 529.67 1558.7 1.5677 2.5982 2.9129 2568.9 -0.0049456 652.51 0.38047
197.38 1.0841e+05 undefined 532.27 1563.3 1.5732 725.00 0.0013793 532.27 1563.3 1.5732 2.6020 2.9165 2569.7 -0.0049393 652.05 0.38099 725.00 0.0013793 532.27 1563.3 1.5732 2.6020 2.9165 2569.7 -0.0049393 652.05 0.38099
198.38 1.0862e+05 undefined 534.88 1567.9 1.5787 725.00 0.0013793 534.88 1567.9 1.5787 2.6059 2.9200 2570.5 -0.0049330 651.60 0.38151 725.00 0.0013793 534.88 1567.9 1.5787 2.6059 2.9200 2570.5 -0.0049330 651.60 0.38151
199.38 1.0883e+05 undefined 537.48 1572.5 1.5843 725.00 0.0013793 537.48 1572.5 1.5843 2.6096 2.9236 2571.2 -0.0049267 651.14 0.38203 725.00 0.0013793 537.48 1572.5 1.5843 2.6096 2.9236 2571.2 -0.0049267 651.14 0.38203
200.38 1.0904e+05 undefined 540.10 1577.0 1.5898 725.00 0.0013793 540.10 1577.0 1.5898 2.6134 2.9272 2572.0 -0.0049205 650.69 0.38255 725.00 0.0013793 540.10 1577.0 1.5898 2.6134 2.9272 2572.0 -0.0049205 650.69 0.38255
201.38 1.0925e+05 undefined 542.71 1581.6 1.5953 725.00 0.0013793 542.71 1581.6 1.5953 2.6172 2.9307 2572.8 -0.0049143 650.25 0.38307 725.00 0.0013793 542.71 1581.6 1.5953 2.6172 2.9307 2572.8 -0.0049143 650.25 0.38307
202.38 1.0945e+05 undefined 545.33 1586.2 1.6008 725.00 0.0013793 545.33 1586.2 1.6008 2.6210 2.9343 2573.5 -0.0049081 649.81 0.38359 725.00 0.0013793 545.33 1586.2 1.6008 2.6210 2.9343 2573.5 -0.0049081 649.81 0.38359
203.38 1.0966e+05 undefined 547.95 1590.8 1.6063 725.00 0.0013793 547.95 1590.8 1.6063 2.6248 2.9378 2574.3 -0.0049019 649.36 0.38412 725.00 0.0013793 547.95 1590.8 1.6063 2.6248 2.9378 2574.3 -0.0049019 649.36 0.38412
204.38 1.0987e+05 undefined 550.58 1595.4 1.6118 725.00 0.0013793 550.58 1595.4 1.6118 2.6286 2.9414 2575.1 -0.0048958 648.93 0.38464 725.00 0.0013793 550.58 1595.4 1.6118 2.6286 2.9414 2575.1 -0.0048958 648.93 0.38464
205.38 1.1008e+05 undefined 553.21 1600.0 1.6173 725.00 0.0013793 553.21 1600.0 1.6173 2.6323 2.9449 2575.8 -0.0048896 648.49 0.38516 725.00 0.0013793 553.21 1600.0 1.6173 2.6323 2.9449 2575.8 -0.0048896 648.49 0.38516
206.38 1.1028e+05 undefined 555.84 1604.6 1.6228 725.00 0.0013793 555.84 1604.6 1.6228 2.6361 2.9484 2576.6 -0.0048835 648.06 0.38568 725.00 0.0013793 555.84 1604.6 1.6228 2.6361 2.9484 2576.6 -0.0048835 648.06 0.38568
207.38 1.1049e+05 undefined 558.48 1609.2 1.6283 725.00 0.0013793 558.48 1609.2 1.6283 2.6399 2.9520 2577.4 -0.0048774 647.63 0.38620 725.00 0.0013793 558.48 1609.2 1.6283 2.6399 2.9520 2577.4 -0.0048774 647.63 0.38620
208.38 1.1070e+05 undefined 561.12 1613.8 1.6338 725.00 0.0013793 561.12 1613.8 1.6338 2.6436 2.9555 2578.1 -0.0048714 647.21 0.38673 725.00 0.0013793 561.12 1613.8 1.6338 2.6436 2.9555 2578.1 -0.0048714 647.21 0.38673
209.38 1.1090e+05 undefined 563.77 1618.4 1.6393 725.00 0.0013793 563.77 1618.4 1.6393 2.6474 2.9590 2578.9 -0.0048653 646.78 0.38725 725.00 0.0013793 563.77 1618.4 1.6393 2.6474 2.9590 2578.9 -0.0048653 646.78 0.38725
210.38 1.1111e+05 undefined 566.42 1623.1 1.6448 725.00 0.0013793 566.42 1623.1 1.6448 2.6511 2.9626 2579.7 -0.0048593 646.36 0.38778 725.00 0.0013793 566.42 1623.1 1.6448 2.6511 2.9626 2579.7 -0.0048593 646.36 0.38778
211.38 1.1131e+05 undefined 569.07 1627.7 1.6503 725.00 0.0013793 569.07 1627.7 1.6503 2.6548 2.9661 2580.4 -0.0048533 645.94 0.38830 725.00 0.0013793 569.07 1627.7 1.6503 2.6548 2.9661 2580.4 -0.0048533 645.94 0.38830
212.38 1.1152e+05 undefined 571.73 1632.3 1.6558 725.00 0.0013793 571.73 1632.3 1.6558 2.6586 2.9696 2581.2 -0.0048473 645.53 0.38882 725.00 0.0013793 571.73 1632.3 1.6558 2.6586 2.9696 2581.2 -0.0048473 645.53 0.38882
213.38 1.1172e+05 undefined 574.39 1636.9 1.6612 725.00 0.0013793 574.39 1636.9 1.6612 2.6623 2.9731 2581.9 -0.0048413 645.12 0.38935 725.00 0.0013793 574.39 1636.9 1.6612 2.6623 2.9731 2581.9 -0.0048413 645.12 0.38935
214.38 1.1193e+05 undefined 577.05 1641.5 1.6667 725.00 0.0013793 577.05 1641.5 1.6667 2.6660 2.9766 2582.7 -0.0048354 644.71 0.38987 725.00 0.0013793 577.05 1641.5 1.6667 2.6660 2.9766 2582.7 -0.0048354 644.71 0.38987
215.38 1.1213e+05 undefined 579.72 1646.1 1.6722 725.00 0.0013793 579.72 1646.1 1.6722 2.6698 2.9801 2583.5 -0.0048295 644.30 0.39040 725.00 0.0013793 579.72 1646.1 1.6722 2.6698 2.9801 2583.5 -0.0048295 644.30 0.39040
216.38 1.1234e+05 undefined 582.39 1650.7 1.6776 725.00 0.0013793 582.39 1650.7 1.6776 2.6735 2.9836 2584.2 -0.0048236 643.89 0.39092 725.00 0.0013793 582.39 1650.7 1.6776 2.6735 2.9836 2584.2 -0.0048236 643.89 0.39092
217.38 1.1254e+05 undefined 585.07 1655.4 1.6831 725.00 0.0013793 585.07 1655.4 1.6831 2.6772 2.9871 2585.0 -0.0048177 643.49 0.39145 725.00 0.0013793 585.07 1655.4 1.6831 2.6772 2.9871 2585.0 -0.0048177 643.49 0.39145
218.38 1.1275e+05 undefined 587.75 1660.0 1.6885 725.00 0.0013793 587.75 1660.0 1.6885 2.6809 2.9906 2585.7 -0.0048118 643.09 0.39198 725.00 0.0013793 587.75 1660.0 1.6885 2.6809 2.9906 2585.7 -0.0048118 643.09 0.39198
219.38 1.1295e+05 undefined 590.43 1664.6 1.6940 725.00 0.0013793 590.43 1664.6 1.6940 2.6846 2.9940 2586.5 -0.0048060 642.69 0.39250 725.00 0.0013793 590.43 1664.6 1.6940 2.6846 2.9940 2586.5 -0.0048060 642.69 0.39250
220.38 1.1316e+05 undefined 593.12 1669.2 1.6994 725.00 0.0013793 593.12 1669.2 1.6994 2.6883 2.9975 2587.3 -0.0048002 642.30 0.39303 725.00 0.0013793 593.12 1669.2 1.6994 2.6883 2.9975 2587.3 -0.0048002 642.30 0.39303
221.38 1.1336e+05 undefined 595.81 1673.9 1.7049 725.00 0.0013793 595.81 1673.9 1.7049 2.6920 3.0010 2588.0 -0.0047944 641.91 0.39356 725.00 0.0013793 595.81 1673.9 1.7049 2.6920 3.0010 2588.0 -0.0047944 641.91 0.39356
222.38 1.1356e+05 undefined 598.50 1678.5 1.7103 725.00 0.0013793 598.50 1678.5 1.7103 2.6957 3.0045 2588.8 -0.0047886 641.52 0.39408 725.00 0.0013793 598.50 1678.5 1.7103 2.6957 3.0045 2588.8 -0.0047886 641.52 0.39408
223.38 1.1377e+05 undefined 601.20 1683.1 1.7158 725.00 0.0013793 601.20 1683.1 1.7158 2.6993 3.0079 2589.5 -0.0047829 641.13 0.39461 725.00 0.0013793 601.20 1683.1 1.7158 2.6993 3.0079 2589.5 -0.0047829 641.13 0.39461
224.38 1.1397e+05 undefined 603.90 1687.8 1.7212 725.00 0.0013793 603.90 1687.8 1.7212 2.7030 3.0114 2590.3 -0.0047771 640.75 0.39514 725.00 0.0013793 603.90 1687.8 1.7212 2.7030 3.0114 2590.3 -0.0047771 640.75 0.39514
225.38 1.1417e+05 undefined 606.60 1692.4 1.7266 725.00 0.0013793 606.60 1692.4 1.7266 2.7067 3.0149 2591.0 -0.0047714 640.36 0.39567 725.00 0.0013793 606.60 1692.4 1.7266 2.7067 3.0149 2591.0 -0.0047714 640.36 0.39567
226.38 1.1438e+05 undefined 609.31 1697.0 1.7321 725.00 0.0013793 609.31 1697.0 1.7321 2.7104 3.0183 2591.8 -0.0047657 639.98 0.39620 725.00 0.0013793 609.31 1697.0 1.7321 2.7104 3.0183 2591.8 -0.0047657 639.98 0.39620
227.38 1.1458e+05 undefined 612.02 1701.7 1.7375 725.00 0.0013793 612.02 1701.7 1.7375 2.7140 3.0218 2592.5 -0.0047600 639.61 0.39672 725.00 0.0013793 612.02 1701.7 1.7375 2.7140 3.0218 2592.5 -0.0047600 639.61 0.39672
228.38 1.1478e+05 undefined 614.74 1706.3 1.7429 725.00 0.0013793 614.74 1706.3 1.7429 2.7177 3.0252 2593.3 -0.0047544 639.23 0.39725 725.00 0.0013793 614.74 1706.3 1.7429 2.7177 3.0252 2593.3 -0.0047544 639.23 0.39725
229.38 1.1498e+05 undefined 617.46 1711.0 1.7483 725.00 0.0013793 617.46 1711.0 1.7483 2.7213 3.0286 2594.0 -0.0047487 638.86 0.39778 725.00 0.0013793 617.46 1711.0 1.7483 2.7213 3.0286 2594.0 -0.0047487 638.86 0.39778
230.38 1.1519e+05 undefined 620.18 1715.6 1.7537 725.00 0.0013793 620.18 1715.6 1.7537 2.7250 3.0321 2594.8 -0.0047431 638.49 0.39831 725.00 0.0013793 620.18 1715.6 1.7537 2.7250 3.0321 2594.8 -0.0047431 638.49 0.39831
231.38 1.1539e+05 undefined 622.91 1720.3 1.7592 725.00 0.0013793 622.91 1720.3 1.7592 2.7286 3.0355 2595.5 -0.0047375 638.12 0.39884 725.00 0.0013793 622.91 1720.3 1.7592 2.7286 3.0355 2595.5 -0.0047375 638.12 0.39884
232.38 1.1559e+05 undefined 625.64 1724.9 1.7646 725.00 0.0013793 625.64 1724.9 1.7646 2.7322 3.0389 2596.3 -0.0047320 637.75 0.39937 725.00 0.0013793 625.64 1724.9 1.7646 2.7322 3.0389 2596.3 -0.0047320 637.75 0.39937
233.38 1.1579e+05 undefined 628.37 1729.6 1.7700 725.00 0.0013793 628.37 1729.6 1.7700 2.7359 3.0424 2597.0 -0.0047264 637.39 0.39990 725.00 0.0013793 628.37 1729.6 1.7700 2.7359 3.0424 2597.0 -0.0047264 637.39 0.39990
234.38 1.1599e+05 undefined 631.11 1734.2 1.7754 725.00 0.0013793 631.11 1734.2 1.7754 2.7395 3.0458 2597.8 -0.0047209 637.03 0.40043 725.00 0.0013793 631.11 1734.2 1.7754 2.7395 3.0458 2597.8 -0.0047209 637.03 0.40043
235.38 1.1619e+05 undefined 633.85 1738.9 1.7808 725.00 0.0013793 633.85 1738.9 1.7808 2.7431 3.0492 2598.5 -0.0047153 636.67 0.40097 725.00 0.0013793 633.85 1738.9 1.7808 2.7431 3.0492 2598.5 -0.0047153 636.67 0.40097
236.38 1.1640e+05 undefined 636.60 1743.5 1.7861 725.00 0.0013793 636.60 1743.5 1.7861 2.7467 3.0526 2599.3 -0.0047098 636.31 0.40150 725.00 0.0013793 636.60 1743.5 1.7861 2.7467 3.0526 2599.3 -0.0047098 636.31 0.40150
237.38 1.1660e+05 undefined 639.35 1748.2 1.7915 725.00 0.0013793 639.35 1748.2 1.7915 2.7504 3.0560 2600.0 -0.0047044 635.96 0.40203 725.00 0.0013793 639.35 1748.2 1.7915 2.7504 3.0560 2600.0 -0.0047044 635.96 0.40203
238.38 1.1680e+05 undefined 642.10 1752.8 1.7969 725.00 0.0013793 642.10 1752.8 1.7969 2.7540 3.0594 2600.8 -0.0046989 635.60 0.40256 725.00 0.0013793 642.10 1752.8 1.7969 2.7540 3.0594 2600.8 -0.0046989 635.60 0.40256
239.38 1.1700e+05 undefined 644.85 1757.5 1.8023 725.00 0.0013793 644.85 1757.5 1.8023 2.7576 3.0628 2601.5 -0.0046935 635.25 0.40309 725.00 0.0013793 644.85 1757.5 1.8023 2.7576 3.0628 2601.5 -0.0046935 635.25 0.40309
240.38 1.1720e+05 undefined 647.61 1762.2 1.8077 725.00 0.0013793 647.61 1762.2 1.8077 2.7612 3.0662 2602.3 -0.0046880 634.90 0.40362 725.00 0.0013793 647.61 1762.2 1.8077 2.7612 3.0662 2602.3 -0.0046880 634.90 0.40362
241.38 1.1740e+05 undefined 650.38 1766.8 1.8131 725.00 0.0013793 650.38 1766.8 1.8131 2.7648 3.0696 2603.0 -0.0046826 634.56 0.40416 725.00 0.0013793 650.38 1766.8 1.8131 2.7648 3.0696 2603.0 -0.0046826 634.56 0.40416
242.38 1.1760e+05 undefined 653.14 1771.5 1.8184 725.00 0.0013793 653.14 1771.5 1.8184 2.7683 3.0730 2603.8 -0.0046772 634.21 0.40469 725.00 0.0013793 653.14 1771.5 1.8184 2.7683 3.0730 2603.8 -0.0046772 634.21 0.40469
243.38 1.1780e+05 undefined 655.91 1776.2 1.8238 725.00 0.0013793 655.91 1776.2 1.8238 2.7719 3.0764 2604.5 -0.0046719 633.87 0.40522 725.00 0.0013793 655.91 1776.2 1.8238 2.7719 3.0764 2604.5 -0.0046719 633.87 0.40522
244.38 1.1800e+05 undefined 658.69 1780.8 1.8292 725.00 0.0013793 658.69 1780.8 1.8292 2.7755 3.0797 2605.3 -0.0046665 633.53 0.40576 725.00 0.0013793 658.69 1780.8 1.8292 2.7755 3.0797 2605.3 -0.0046665 633.53 0.40576
245.38 1.1820e+05 undefined 661.46 1785.5 1.8345 725.00 0.0013793 661.46 1785.5 1.8345 2.7791 3.0831 2606.0 -0.0046612 633.19 0.40629 725.00 0.0013793 661.46 1785.5 1.8345 2.7791 3.0831 2606.0 -0.0046612 633.19 0.40629
246.38 1.1839e+05 undefined 664.25 1790.2 1.8399 725.00 0.0013793 664.25 1790.2 1.8399 2.7826 3.0865 2606.7 -0.0046559 632.86 0.40683 725.00 0.0013793 664.25 1790.2 1.8399 2.7826 3.0865 2606.7 -0.0046559 632.86 0.40683
247.38 1.1859e+05 undefined 667.03 1794.9 1.8452 725.00 0.0013793 667.03 1794.9 1.8452 2.7862 3.0898 2607.5 -0.0046506 632.52 0.40736 725.00 0.0013793 667.03 1794.9 1.8452 2.7862 3.0898 2607.5 -0.0046506 632.52 0.40736
248.38 1.1879e+05 undefined 669.82 1799.5 1.8506 725.00 0.0013793 669.82 1799.5 1.8506 2.7898 3.0932 2608.2 -0.0046453 632.19 0.40790 725.00 0.0013793 669.82 1799.5 1.8506 2.7898 3.0932 2608.2 -0.0046453 632.19 0.40790
249.38 1.1899e+05 undefined 672.61 1804.2 1.8559 725.00 0.0013793 672.61 1804.2 1.8559 2.7933 3.0965 2609.0 -0.0046401 631.86 0.40843 725.00 0.0013793 672.61 1804.2 1.8559 2.7933 3.0965 2609.0 -0.0046401 631.86 0.40843
250.38 1.1919e+05 undefined 675.40 1808.9 1.8613 725.00 0.0013793 675.40 1808.9 1.8613 2.7969 3.0999 2609.7 -0.0046348 631.53 0.40897 725.00 0.0013793 675.40 1808.9 1.8613 2.7969 3.0999 2609.7 -0.0046348 631.53 0.40897
251.38 1.1939e+05 undefined 678.20 1813.6 1.8666 725.00 0.0013793 678.20 1813.6 1.8666 2.8004 3.1032 2610.5 -0.0046296 631.21 0.40950 725.00 0.0013793 678.20 1813.6 1.8666 2.8004 3.1032 2610.5 -0.0046296 631.21 0.40950
252.38 1.1959e+05 undefined 681.01 1818.3 1.8720 725.00 0.0013793 681.01 1818.3 1.8720 2.8039 3.1066 2611.2 -0.0046244 630.88 0.41004 725.00 0.0013793 681.01 1818.3 1.8720 2.8039 3.1066 2611.2 -0.0046244 630.88 0.41004
253.38 1.1978e+05 undefined 683.81 1823.0 1.8773 725.00 0.0013793 683.81 1823.0 1.8773 2.8075 3.1099 2611.9 -0.0046192 630.56 0.41057 725.00 0.0013793 683.81 1823.0 1.8773 2.8075 3.1099 2611.9 -0.0046192 630.56 0.41057
254.38 1.1998e+05 undefined 686.62 1827.6 1.8826 725.00 0.0013793 686.62 1827.6 1.8826 2.8110 3.1133 2612.7 -0.0046140 630.24 0.41111 725.00 0.0013793 686.62 1827.6 1.8826 2.8110 3.1133 2612.7 -0.0046140 630.24 0.41111
255.38 1.2018e+05 undefined 689.43 1832.3 1.8879 725.00 0.0013793 689.43 1832.3 1.8879 2.8145 3.1166 2613.4 -0.0046089 629.92 0.41165 725.00 0.0013793 689.43 1832.3 1.8879 2.8145 3.1166 2613.4 -0.0046089 629.92 0.41165
256.38 1.2038e+05 undefined 692.25 1837.0 1.8933 725.00 0.0013793 692.25 1837.0 1.8933 2.8180 3.1199 2614.1 -0.0046038 629.61 0.41219 725.00 0.0013793 692.25 1837.0 1.8933 2.8180 3.1199 2614.1 -0.0046038 629.61 0.41219
257.38 1.2057e+05 undefined 695.07 1841.7 1.8986 725.00 0.0013793 695.07 1841.7 1.8986 2.8215 3.1232 2614.9 -0.0045986 629.29 0.41272 725.00 0.0013793 695.07 1841.7 1.8986 2.8215 3.1232 2614.9 -0.0045986 629.29 0.41272
258.38 1.2077e+05 undefined 697.89 1846.4 1.9039 725.00 0.0013793 697.89 1846.4 1.9039 2.8250 3.1265 2615.6 -0.0045935 628.98 0.41326 725.00 0.0013793 697.89 1846.4 1.9039 2.8250 3.1265 2615.6 -0.0045935 628.98 0.41326
259.38 1.2097e+05 undefined 700.72 1851.1 1.9092 725.00 0.0013793 700.72 1851.1 1.9092 2.8286 3.1299 2616.4 -0.0045885 628.67 0.41380 725.00 0.0013793 700.72 1851.1 1.9092 2.8286 3.1299 2616.4 -0.0045885 628.67 0.41380
260.38 1.2116e+05 undefined 703.55 1855.8 1.9145 725.00 0.0013793 703.55 1855.8 1.9145 2.8320 3.1332 2617.1 -0.0045834 628.36 0.41434 725.00 0.0013793 703.55 1855.8 1.9145 2.8320 3.1332 2617.1 -0.0045834 628.36 0.41434
261.38 1.2136e+05 undefined 706.38 1860.5 1.9198 725.00 0.0013793 706.38 1860.5 1.9198 2.8355 3.1365 2617.8 -0.0045783 628.05 0.41488 725.00 0.0013793 706.38 1860.5 1.9198 2.8355 3.1365 2617.8 -0.0045783 628.05 0.41488
262.38 1.2156e+05 undefined 709.22 1865.2 1.9251 725.00 0.0013793 709.22 1865.2 1.9251 2.8390 3.1398 2618.6 -0.0045733 627.75 0.41541 725.00 0.0013793 709.22 1865.2 1.9251 2.8390 3.1398 2618.6 -0.0045733 627.75 0.41541
263.38 1.2175e+05 undefined 712.06 1869.9 1.9304 725.00 0.0013793 712.06 1869.9 1.9304 2.8425 3.1431 2619.3 -0.0045683 627.45 0.41595 725.00 0.0013793 712.06 1869.9 1.9304 2.8425 3.1431 2619.3 -0.0045683 627.45 0.41595
264.38 1.2195e+05 undefined 714.91 1874.6 1.9357 725.00 0.0013793 714.91 1874.6 1.9357 2.8460 3.1463 2620.0 -0.0045633 627.14 0.41649 725.00 0.0013793 714.91 1874.6 1.9357 2.8460 3.1463 2620.0 -0.0045633 627.14 0.41649
265.38 1.2214e+05 undefined 717.75 1879.3 1.9410 725.00 0.0013793 717.75 1879.3 1.9410 2.8495 3.1496 2620.8 -0.0045583 626.84 0.41703 725.00 0.0013793 717.75 1879.3 1.9410 2.8495 3.1496 2620.8 -0.0045583 626.84 0.41703
266.38 1.2234e+05 undefined 720.60 1884.1 1.9463 725.00 0.0013793 720.60 1884.1 1.9463 2.8529 3.1529 2621.5 -0.0045534 626.55 0.41757 725.00 0.0013793 720.60 1884.1 1.9463 2.8529 3.1529 2621.5 -0.0045534 626.55 0.41757
267.38 1.2254e+05 undefined 723.46 1888.8 1.9516 725.00 0.0013793 723.46 1888.8 1.9516 2.8564 3.1562 2622.2 -0.0045484 626.25 0.41811 725.00 0.0013793 723.46 1888.8 1.9516 2.8564 3.1562 2622.2 -0.0045484 626.25 0.41811
268.38 1.2273e+05 undefined 726.32 1893.5 1.9569 725.00 0.0013793 726.32 1893.5 1.9569 2.8598 3.1595 2623.0 -0.0045435 625.96 0.41865 725.00 0.0013793 726.32 1893.5 1.9569 2.8598 3.1595 2623.0 -0.0045435 625.96 0.41865
269.38 1.2293e+05 undefined 729.18 1898.2 1.9622 725.00 0.0013793 729.18 1898.2 1.9622 2.8633 3.1627 2623.7 -0.0045386 625.66 0.41920 725.00 0.0013793 729.18 1898.2 1.9622 2.8633 3.1627 2623.7 -0.0045386 625.66 0.41920
270.38 1.2312e+05 undefined 732.04 1902.9 1.9674 725.00 0.0013793 732.04 1902.9 1.9674 2.8667 3.1660 2624.4 -0.0045337 625.37 0.41974 725.00 0.0013793 732.04 1902.9 1.9674 2.8667 3.1660 2624.4 -0.0045337 625.37 0.41974
271.38 1.2332e+05 undefined 734.91 1907.6 1.9727 725.00 0.0013793 734.91 1907.6 1.9727 2.8702 3.1692 2625.1 -0.0045288 625.08 0.42028 725.00 0.0013793 734.91 1907.6 1.9727 2.8702 3.1692 2625.1 -0.0045288 625.08 0.42028
272.38 1.2351e+05 undefined 737.78 1912.4 1.9780 725.00 0.0013793 737.78 1912.4 1.9780 2.8736 3.1725 2625.9 -0.0045240 624.79 0.42082 725.00 0.0013793 737.78 1912.4 1.9780 2.8736 3.1725 2625.9 -0.0045240 624.79 0.42082
273.38 1.2370e+05 undefined 740.66 1917.1 1.9833 725.00 0.0013793 740.66 1917.1 1.9833 2.8771 3.1758 2626.6 -0.0045191 624.51 0.42136 725.00 0.0013793 740.66 1917.1 1.9833 2.8771 3.1758 2626.6 -0.0045191 624.51 0.42136
274.38 1.2390e+05 undefined 743.54 1921.8 1.9885 725.00 0.0013793 743.54 1921.8 1.9885 2.8805 3.1790 2627.3 -0.0045143 624.22 0.42191 725.00 0.0013793 743.54 1921.8 1.9885 2.8805 3.1790 2627.3 -0.0045143 624.22 0.42191
275.38 1.2409e+05 undefined 746.42 1926.5 1.9938 725.00 0.0013793 746.42 1926.5 1.9938 2.8839 3.1822 2628.1 -0.0045095 623.94 0.42245 725.00 0.0013793 746.42 1926.5 1.9938 2.8839 3.1822 2628.1 -0.0045095 623.94 0.42245
276.38 1.2429e+05 undefined 749.31 1931.3 1.9990 725.00 0.0013793 749.31 1931.3 1.9990 2.8873 3.1855 2628.8 -0.0045047 623.66 0.42299 725.00 0.0013793 749.31 1931.3 1.9990 2.8873 3.1855 2628.8 -0.0045047 623.66 0.42299
277.38 1.2448e+05 undefined 752.20 1936.0 2.0043 725.00 0.0013793 752.20 1936.0 2.0043 2.8907 3.1887 2629.5 -0.0044999 623.38 0.42353 725.00 0.0013793 752.20 1936.0 2.0043 2.8907 3.1887 2629.5 -0.0044999 623.38 0.42353
278.38 1.2467e+05 undefined 755.09 1940.7 2.0095 725.00 0.0013793 755.09 1940.7 2.0095 2.8942 3.1919 2630.2 -0.0044951 623.10 0.42408 725.00 0.0013793 755.09 1940.7 2.0095 2.8942 3.1919 2630.2 -0.0044951 623.10 0.42408
279.38 1.2487e+05 undefined 757.98 1945.5 2.0148 725.00 0.0013793 757.98 1945.5 2.0148 2.8976 3.1952 2631.0 -0.0044904 622.82 0.42462 725.00 0.0013793 757.98 1945.5 2.0148 2.8976 3.1952 2631.0 -0.0044904 622.82 0.42462
280.38 1.2506e+05 undefined 760.88 1950.2 2.0200 725.00 0.0013793 760.88 1950.2 2.0200 2.9010 3.1984 2631.7 -0.0044856 622.55 0.42517 725.00 0.0013793 760.88 1950.2 2.0200 2.9010 3.1984 2631.7 -0.0044856 622.55 0.42517
281.38 1.2525e+05 undefined 763.79 1955.0 2.0253 725.00 0.0013793 763.79 1955.0 2.0253 2.9044 3.2016 2632.4 -0.0044809 622.28 0.42571 725.00 0.0013793 763.79 1955.0 2.0253 2.9044 3.2016 2632.4 -0.0044809 622.28 0.42571
282.38 1.2545e+05 undefined 766.69 1959.7 2.0305 725.00 0.0013793 766.69 1959.7 2.0305 2.9077 3.2048 2633.1 -0.0044762 622.00 0.42618 725.00 0.0013793 766.69 1959.7 2.0305 2.9077 3.2048 2633.1 -0.0044762 622.00 0.42618
283.38 1.2564e+05 undefined 769.60 1964.4 2.0357 725.00 0.0013793 769.60 1964.4 2.0357 2.9111 3.2080 2633.9 -0.0044715 621.73 0.42672 725.00 0.0013793 769.60 1964.4 2.0357 2.9111 3.2080 2633.9 -0.0044715 621.73 0.42672
284.38 1.2583e+05 undefined 772.51 1969.2 2.0410 725.00 0.0013793 772.51 1969.2 2.0410 2.9145 3.2112 2634.6 -0.0044669 621.47 0.42727 725.00 0.0013793 772.51 1969.2 2.0410 2.9145 3.2112 2634.6 -0.0044669 621.47 0.42727
285.38 1.2602e+05 undefined 775.43 1973.9 2.0462 725.00 0.0013793 775.43 1973.9 2.0462 2.9179 3.2144 2635.3 -0.0044622 621.20 0.42781 725.00 0.0013793 775.43 1973.9 2.0462 2.9179 3.2144 2635.3 -0.0044622 621.20 0.42781
286.38 1.2622e+05 undefined 778.35 1978.7 2.0514 725.00 0.0013793 778.35 1978.7 2.0514 2.9213 3.2176 2636.0 -0.0044576 620.93 0.42836 725.00 0.0013793 778.35 1978.7 2.0514 2.9213 3.2176 2636.0 -0.0044576 620.93 0.42836
287.38 1.2641e+05 undefined 781.27 1983.4 2.0566 725.00 0.0013793 781.27 1983.4 2.0566 2.9246 3.2208 2636.7 -0.0044529 620.67 0.42890 725.00 0.0013793 781.27 1983.4 2.0566 2.9246 3.2208 2636.7 -0.0044529 620.67 0.42890
288.38 1.2660e+05 undefined 784.20 1988.2 2.0618 725.00 0.0013793 784.20 1988.2 2.0618 2.9280 3.2240 2637.5 -0.0044483 620.41 0.42945 725.00 0.0013793 784.20 1988.2 2.0618 2.9280 3.2240 2637.5 -0.0044483 620.41 0.42945
289.38 1.2679e+05 undefined 787.13 1992.9 2.0671 725.00 0.0013793 787.13 1992.9 2.0671 2.9313 3.2272 2638.2 -0.0044437 620.15 0.43000 725.00 0.0013793 787.13 1992.9 2.0671 2.9313 3.2272 2638.2 -0.0044437 620.15 0.43000
290.38 1.2698e+05 undefined 790.06 1997.7 2.0723 725.00 0.0013793 790.06 1997.7 2.0723 2.9347 3.2303 2638.9 -0.0044392 619.89 0.43054 725.00 0.0013793 790.06 1997.7 2.0723 2.9347 3.2303 2638.9 -0.0044392 619.89 0.43054
291.38 1.2718e+05 undefined 793.00 2002.4 2.0775 725.00 0.0013793 793.00 2002.4 2.0775 2.9380 3.2335 2639.6 -0.0044346 619.63 0.43109 725.00 0.0013793 793.00 2002.4 2.0775 2.9380 3.2335 2639.6 -0.0044346 619.63 0.43109
292.38 1.2737e+05 undefined 795.94 2007.2 2.0827 725.00 0.0013793 795.94 2007.2 2.0827 2.9414 3.2367 2640.3 -0.0044300 619.37 0.43164 725.00 0.0013793 795.94 2007.2 2.0827 2.9414 3.2367 2640.3 -0.0044300 619.37 0.43164
293.38 1.2756e+05 undefined 798.88 2012.0 2.0879 725.00 0.0013793 798.88 2012.0 2.0879 2.9447 3.2399 2641.1 -0.0044255 619.12 0.43219 725.00 0.0013793 798.88 2012.0 2.0879 2.9447 3.2399 2641.1 -0.0044255 619.12 0.43219
294.38 1.2775e+05 undefined 801.83 2016.7 2.0931 725.00 0.0013793 801.83 2016.7 2.0931 2.9480 3.2430 2641.8 -0.0044210 618.86 0.43273 725.00 0.0013793 801.83 2016.7 2.0931 2.9480 3.2430 2641.8 -0.0044210 618.86 0.43273
295.38 1.2794e+05 undefined 804.78 2021.5 2.0983 725.00 0.0013793 804.78 2021.5 2.0983 2.9514 3.2462 2642.5 -0.0044165 618.61 0.43328 725.00 0.0013793 804.78 2021.5 2.0983 2.9514 3.2462 2642.5 -0.0044165 618.61 0.43328
296.38 1.2813e+05 undefined 807.73 2026.3 2.1034 725.00 0.0013793 807.73 2026.3 2.1034 2.9547 3.2493 2643.2 -0.0044120 618.36 0.43383 725.00 0.0013793 807.73 2026.3 2.1034 2.9547 3.2493 2643.2 -0.0044120 618.36 0.43383
297.38 1.2832e+05 undefined 810.69 2031.0 2.1086 725.00 0.0013793 810.69 2031.0 2.1086 2.9580 3.2525 2643.9 -0.0044075 618.11 0.43438 725.00 0.0013793 810.69 2031.0 2.1086 2.9580 3.2525 2643.9 -0.0044075 618.11 0.43438
298.38 1.2851e+05 undefined 813.65 2035.8 2.1138 725.00 0.0013793 813.65 2035.8 2.1138 2.9613 3.2556 2644.6 -0.0044031 617.86 0.43493 725.00 0.0013793 813.65 2035.8 2.1138 2.9613 3.2556 2644.6 -0.0044031 617.86 0.43493
299.38 1.2870e+05 undefined 816.61 2040.6 2.1190 725.00 0.0013793 816.61 2040.6 2.1190 2.9646 3.2588 2645.4 -0.0043986 617.61 0.43548 725.00 0.0013793 816.61 2040.6 2.1190 2.9646 3.2588 2645.4 -0.0043986 617.61 0.43548
300.38 1.2889e+05 undefined 819.58 2045.3 2.1242 725.00 0.0013793 819.58 2045.3 2.1242 2.9679 3.2619 2646.1 -0.0043942 617.37 0.43603 725.00 0.0013793 819.58 2045.3 2.1242 2.9679 3.2619 2646.1 -0.0043942 617.37 0.43603