Temperature (C) Pressure (psia) Quality (l+v) Internal Energy (l+v, kJ/kg) Enthalpy (l+v, kJ/kg) Entropy (l+v, J/g*K) Density (l, kg/m3) Volume (l, m3/kg) Internal Energy (l, kJ/kg) Enthalpy (l, kJ/kg) Entropy (l, J/g*K) Cv (l, J/g*K) Cp (l, J/g*K) Sound Spd. (l, m/s) Joule-Thomson (l, F/psia) Viscosity (l, uPa*s) Therm. Cond. (l, W/m*K) Density (v, kg/m3) Volume (v, m3/kg) Internal Energy (v, kJ/kg) Enthalpy (v, kJ/kg) Entropy (v, J/g*K) Cv (v, J/g*K) Cp (v, J/g*K) Sound Spd. (v, m/s) Joule-Thomson (v, F/psia) Viscosity (v, uPa*s) Therm. Cond. (v, W/m*K)
-187.62 2.4953e-08 1.0523e-09 -196.64 -196.64 -1.3959 733.13 0.0013640 -196.64 -196.64 -1.3959 1.3553 1.9158 2136.4 -0.0077592 10960. 0.20792 1.0669e-08 9.3732e+07 350.13 366.26 5.1858 0.69067 0.87923 143.28 6.1051 2.3259 0.0017061
-186.62 3.7339e-08 1.5564e-09 -194.73 -194.73 -1.3736 732.08 0.0013660 -194.73 -194.73 -1.3736 1.3539 1.9166 2129.6 -0.0077546 10073. 0.20765 1.5780e-08 6.3371e+07 350.82 367.14 5.1200 0.69462 0.88317 144.03 5.9178 2.3534 0.0017533
-185.62 5.5322e-08 2.2796e-09 -192.81 -192.81 -1.3516 731.04 0.0013679 -192.81 -192.81 -1.3516 1.3525 1.9174 2122.9 -0.0077498 9276.1 0.20737 2.3112e-08 4.3267e+07 351.52 368.02 5.0561 0.69857 0.88713 144.77 5.7383 2.3808 0.0018007
-184.62 8.1182e-08 3.3074e-09 -190.89 -190.89 -1.3298 730.00 0.0013699 -190.89 -190.89 -1.3298 1.3513 1.9182 2116.1 -0.0077448 8557.8 0.20708 3.3533e-08 2.9821e+07 352.22 368.91 4.9939 0.70253 0.89108 145.51 5.5662 2.4083 0.0018485
-183.62 1.1803e-07 4.7549e-09 -188.97 -188.97 -1.3083 728.96 0.0013718 -188.97 -188.97 -1.3083 1.3501 1.9191 2109.3 -0.0077395 7909.8 0.20678 4.8211e-08 2.0742e+07 352.92 369.81 4.9333 0.70648 0.89504 146.24 5.4011 2.4357 0.0018965
-182.62 1.7009e-07 6.7760e-09 -187.05 -187.05 -1.2869 727.92 0.0013738 -187.05 -187.05 -1.2869 1.3490 1.9201 2102.5 -0.0077340 7324.3 0.20647 6.8704e-08 1.4555e+07 353.63 370.70 4.8744 0.71043 0.89899 146.97 5.2426 2.4632 0.0019448
-181.62 2.4299e-07 9.5743e-09 -185.13 -185.13 -1.2658 726.88 0.0013757 -185.13 -185.13 -1.2658 1.3480 1.9210 2095.7 -0.0077283 6794.5 0.20616 9.7079e-08 1.0301e+07 354.35 371.60 4.8170 0.71438 0.90294 147.69 5.0904 2.4906 0.0019934
-180.62 3.4425e-07 1.3417e-08 -183.21 -183.21 -1.2450 725.85 0.0013777 -183.21 -183.21 -1.2450 1.3470 1.9220 2088.9 -0.0077225 6314.4 0.20584 1.3605e-07 7.3504e+06 355.06 372.51 4.7612 0.71833 0.90688 148.41 4.9442 2.5181 0.0020423
-179.62 4.8378e-07 1.8654e-08 -181.29 -181.29 -1.2243 724.81 0.0013797 -181.29 -181.29 -1.2243 1.3461 1.9231 2082.0 -0.0077164 5878.8 0.20551 1.8915e-07 5.2868e+06 355.78 373.42 4.7068 0.72227 0.91082 149.13 4.8038 2.5456 0.0020915
-178.62 6.7459e-07 2.5736e-08 -179.37 -179.37 -1.2038 723.78 0.0013816 -179.37 -179.37 -1.2038 1.3453 1.9241 2075.2 -0.0077102 5482.9 0.20517 2.6096e-07 3.8320e+06 356.51 374.33 4.6538 0.72620 0.91475 149.84 4.6688 2.5731 0.0021410
-177.62 9.3358e-07 3.5242e-08 -177.44 -177.44 -1.1836 722.75 0.0013836 -177.44 -177.44 -1.1836 1.3445 1.9252 2068.4 -0.0077039 5122.6 0.20483 3.5737e-07 2.7982e+06 357.23 375.25 4.6022 0.73012 0.91867 150.54 4.5390 2.6005 0.0021907
-176.62 1.2826e-06 4.7915e-08 -175.52 -175.52 -1.1635 721.72 0.0013856 -175.52 -175.52 -1.1635 1.3437 1.9263 2061.5 -0.0076973 4794.1 0.20447 4.8588e-07 2.0581e+06 357.97 376.17 4.5519 0.73403 0.92258 151.25 4.4142 2.6280 0.0022408
-175.62 1.7496e-06 6.4691e-08 -173.59 -173.59 -1.1437 720.69 0.0013876 -173.59 -173.59 -1.1437 1.3430 1.9274 2054.7 -0.0076907 4494.3 0.20411 6.5601e-07 1.5244e+06 358.70 377.09 4.5029 0.73792 0.92648 151.95 4.2941 2.6555 0.0022912
-174.62 2.3705e-06 8.6754e-08 -171.66 -171.66 -1.1240 719.66 0.0013895 -171.66 -171.66 -1.1240 1.3423 1.9286 2047.9 -0.0076838 4220.2 0.20375 8.7976e-07 1.1367e+06 359.44 378.02 4.4551 0.74181 0.93036 152.64 4.1784 2.6830 0.0023418
-173.62 3.1903e-06 1.1558e-07 -169.73 -169.73 -1.1045 718.64 0.0013915 -169.73 -169.73 -1.1045 1.3417 1.9298 2041.0 -0.0076769 3969.3 0.20338 1.1721e-06 8.5314e+05 360.19 378.95 4.4085 0.74568 0.93423 153.33 4.0671 2.7105 0.0023928
-172.62 4.2661e-06 1.5302e-07 -167.80 -167.80 -1.0852 717.61 0.0013935 -167.80 -167.80 -1.0852 1.3411 1.9310 2034.2 -0.0076698 3739.3 0.20300 1.5518e-06 6.4441e+05 360.93 379.89 4.3631 0.74953 0.93809 154.02 3.9599 2.7379 0.0024440
-171.62 5.6692e-06 2.0134e-07 -165.87 -165.87 -1.0661 716.58 0.0013955 -165.87 -165.87 -1.0661 1.3405 1.9322 2027.3 -0.0076625 3528.0 0.20261 2.0419e-06 4.8974e+05 361.69 380.83 4.3188 0.75337 0.94193 154.71 3.8566 2.7654 0.0024955
-170.62 7.4884e-06 2.6335e-07 -163.94 -163.94 -1.0472 715.56 0.0013975 -163.94 -163.94 -1.0472 1.3400 1.9334 2020.5 -0.0076552 3333.8 0.20222 2.6708e-06 3.7442e+05 362.44 381.77 4.2755 0.75720 0.94575 155.39 3.7570 2.7929 0.0025473
-169.62 9.8334e-06 3.4247e-07 -162.00 -162.00 -1.0284 714.54 0.0013995 -162.00 -162.00 -1.0284 1.3395 1.9347 2013.6 -0.0076477 3154.9 0.20182 3.4733e-06 2.8791e+05 363.20 382.72 4.2334 0.76100 0.94956 156.07 3.6609 2.8204 0.0025994
-168.62 1.2839e-05 4.4287e-07 -160.07 -160.07 -1.0098 713.52 0.0014015 -160.07 -160.07 -1.0098 1.3390 1.9359 2006.8 -0.0076401 2989.9 0.20141 4.4917e-06 2.2263e+05 363.96 383.67 4.1922 0.76479 0.95335 156.74 3.5683 2.8479 0.0026518
-167.62 1.6672e-05 5.6961e-07 -158.13 -158.13 -0.99134 712.49 0.0014035 -158.13 -158.13 -0.99134 1.3386 1.9372 2000.0 -0.0076323 2837.5 0.20100 5.7771e-06 1.7310e+05 364.73 384.63 4.1521 0.76856 0.95712 157.41 3.4790 2.8754 0.0027045
-166.62 2.1533e-05 7.2875e-07 -156.19 -156.19 -0.97306 711.47 0.0014055 -156.19 -156.19 -0.97306 1.3382 1.9385 1993.1 -0.0076245 2696.5 0.20058 7.3914e-06 1.3529e+05 365.50 385.59 4.1129 0.77232 0.96087 158.08 3.3927 2.9029 0.0027575
-165.62 2.7666e-05 9.2760e-07 -154.25 -154.25 -0.95494 710.45 0.0014075 -154.25 -154.25 -0.95494 1.3378 1.9398 1986.3 -0.0076165 2566.0 0.20016 9.4084e-06 1.0629e+05 366.27 386.55 4.0746 0.77605 0.96460 158.75 3.3095 2.9304 0.0028108
-164.62 3.5367e-05 1.1748e-06 -152.31 -152.31 -0.93697 709.44 0.0014096 -152.31 -152.31 -0.93698 1.3375 1.9411 1979.4 -0.0076084 2444.9 0.19973 1.1916e-05 83918. 367.05 387.52 4.0372 0.77976 0.96832 159.41 3.2291 2.9579 0.0028643
-163.62 4.4989e-05 1.4808e-06 -150.37 -150.37 -0.91916 708.42 0.0014116 -150.37 -150.37 -0.91917 1.3371 1.9424 1972.6 -0.0076002 2332.3 0.19930 1.5020e-05 66577. 367.83 388.49 4.0008 0.78346 0.97201 160.07 3.1514 2.9854 0.0029182
-162.62 5.6956e-05 1.8577e-06 -148.43 -148.43 -0.90150 707.40 0.0014136 -148.43 -148.43 -0.90151 1.3368 1.9437 1965.8 -0.0075919 2227.7 0.19886 1.8844e-05 53068. 368.62 389.46 3.9651 0.78713 0.97569 160.72 3.0764 3.0129 0.0029723
-161.62 7.1773e-05 2.3199e-06 -146.48 -146.48 -0.88399 706.38 0.0014157 -146.48 -146.48 -0.88400 1.3365 1.9451 1959.0 -0.0075834 2130.2 0.19841 2.3533e-05 42494. 369.41 390.44 3.9304 0.79079 0.97935 161.38 3.0038 3.0404 0.0030268
-160.62 9.0036e-05 2.8844e-06 -144.54 -144.54 -0.86661 705.37 0.0014177 -144.54 -144.54 -0.86663 1.3363 1.9465 1952.1 -0.0075748 2039.2 0.19796 2.9258e-05 34178. 370.20 391.42 3.8964 0.79443 0.98298 162.03 2.9337 3.0679 0.0030815
-159.62 0.00011245 3.5706e-06 -142.59 -142.59 -0.84938 704.35 0.0014197 -142.59 -142.59 -0.84940 1.3360 1.9478 1945.3 -0.0075661 1954.2 0.19751 3.6221e-05 27609. 371.00 392.40 3.8632 0.79805 0.98660 162.68 2.8658 3.0955 0.0031365
-158.62 0.00013985 4.4017e-06 -140.64 -140.64 -0.83229 703.34 0.0014218 -140.64 -140.64 -0.83231 1.3358 1.9492 1938.5 -0.0075573 1874.8 0.19705 4.4652e-05 22395. 371.80 393.39 3.8307 0.80164 0.99020 163.32 2.8002 3.1230 0.0031918
-157.62 0.00017320 5.4041e-06 -138.69 -138.69 -0.81533 702.32 0.0014238 -138.69 -138.69 -0.81536 1.3356 1.9506 1931.7 -0.0075484 1800.3 0.19658 5.4822e-05 18241. 372.60 394.38 3.7990 0.80522 0.99378 163.96 2.7367 3.1505 0.0032474
-156.62 0.00021364 6.6085e-06 -136.74 -136.74 -0.79851 701.31 0.0014259 -136.74 -136.74 -0.79854 1.3354 1.9520 1924.9 -0.0075393 1730.5 0.19611 6.7040e-05 14916. 373.41 395.38 3.7680 0.80878 0.99734 164.60 2.6752 3.1780 0.0033033
-155.62 0.00026248 8.0500e-06 -134.78 -134.78 -0.78182 700.30 0.0014280 -134.79 -134.79 -0.78185 1.3352 1.9534 1918.1 -0.0075302 1664.9 0.19564 8.1666e-05 12245. 374.22 396.38 3.7377 0.81232 1.0009 165.24 2.6157 3.2055 0.0033595
-154.62 0.00032125 9.7692e-06 -132.83 -132.83 -0.76525 699.29 0.0014300 -132.83 -132.83 -0.76530 1.3350 1.9548 1911.3 -0.0075209 1603.3 0.19516 9.9109e-05 10090. 375.03 397.38 3.7081 0.81585 1.0044 165.87 2.5580 3.2330 0.0034160
-153.62 0.00039171 1.1812e-05 -130.87 -130.87 -0.74882 698.27 0.0014321 -130.88 -130.88 -0.74887 1.3349 1.9563 1904.5 -0.0075114 1545.3 0.19468 0.00011984 8344.6 375.85 398.39 3.6792 0.81935 1.0079 166.50 2.5022 3.2606 0.0034727
-152.62 0.00047590 1.4231e-05 -128.91 -128.91 -0.73250 697.26 0.0014342 -128.92 -128.92 -0.73256 1.3348 1.9577 1897.8 -0.0075019 1490.6 0.19419 0.00014439 6925.9 376.67 399.40 3.6509 0.82284 1.0114 167.13 2.4481 3.2881 0.0035298
-151.62 0.00057613 1.7087e-05 -126.95 -126.95 -0.71631 696.25 0.0014363 -126.96 -126.96 -0.71638 1.3346 1.9592 1891.0 -0.0074922 1438.9 0.19370 0.00017336 5768.4 377.49 400.41 3.6232 0.82631 1.0149 167.76 2.3957 3.3156 0.0035872
-150.62 0.00069507 2.0446e-05 -124.99 -124.99 -0.70023 695.24 0.0014384 -125.00 -125.00 -0.70032 1.3345 1.9606 1884.2 -0.0074824 1390.2 0.19320 0.00020744 4820.7 378.32 401.42 3.5962 0.82976 1.0183 168.38 2.3448 3.3431 0.0036448
-149.62 0.00083574 2.4384e-05 -123.03 -123.03 -0.68427 694.23 0.0014404 -123.04 -123.04 -0.68438 1.3345 1.9621 1877.4 -0.0074724 1344.0 0.19270 0.00024740 4042.0 379.15 402.44 3.5697 0.83319 1.0218 169.00 2.2956 3.3706 0.0037027
-148.62 0.0010016 2.8987e-05 -121.06 -121.06 -0.66843 693.22 0.0014425 -121.08 -121.08 -0.66855 1.3344 1.9636 1870.7 -0.0074623 1300.3 0.19220 0.00029412 3400.0 379.99 403.47 3.5438 0.83661 1.0252 169.62 2.2478 3.3982 0.0037610
-147.62 0.0011965 3.4352e-05 -119.10 -119.10 -0.65269 692.21 0.0014447 -119.11 -119.11 -0.65284 1.3343 1.9651 1863.9 -0.0074521 1258.9 0.19169 0.00034856 2869.0 380.83 404.49 3.5185 0.84001 1.0286 170.24 2.2014 3.4257 0.0038195
-146.62 0.0014249 4.0585e-05 -117.13 -117.13 -0.63707 691.20 0.0014468 -117.15 -117.15 -0.63724 1.3343 1.9666 1857.2 -0.0074417 1219.6 0.19117 0.00041181 2428.3 381.67 405.52 3.4938 0.84340 1.0320 170.85 2.1565 3.4532 0.0038783
-145.62 0.0016917 4.7807e-05 -115.16 -115.16 -0.62155 690.19 0.0014489 -115.18 -115.18 -0.62175 1.3343 1.9682 1850.4 -0.0074312 1182.3 0.19066 0.00048510 2061.4 382.51 406.56 3.4695 0.84677 1.0353 171.46 2.1128 3.4807 0.0039374
-144.62 0.0020026 5.6150e-05 -113.18 -113.18 -0.60614 689.18 0.0014510 -113.21 -113.21 -0.60637 1.3343 1.9697 1843.7 -0.0074206 1146.8 0.19014 0.00056976 1755.1 383.36 407.59 3.4458 0.85012 1.0387 172.07 2.0705 3.5082 0.0039967
-143.62 0.0023637 6.5761e-05 -111.21 -111.21 -0.59083 688.17 0.0014531 -111.24 -111.24 -0.59110 1.3343 1.9713 1836.9 -0.0074098 1113.0 0.18962 0.00066731 1498.6 384.21 408.63 3.4226 0.85346 1.0420 172.68 2.0294 3.5358 0.0040564
-142.62 0.0027820 7.6805e-05 -109.23 -109.23 -0.57563 687.16 0.0014553 -109.27 -109.27 -0.57593 1.3343 1.9728 1830.2 -0.0073988 1080.8 0.18909 0.00077939 1283.1 385.07 409.68 3.3999 0.85679 1.0454 173.28 1.9896 3.5633 0.0041164
-141.62 0.0032653 8.9461e-05 -107.25 -107.25 -0.56052 686.15 0.0014574 -107.30 -107.30 -0.56087 1.3343 1.9744 1823.5 -0.0073878 1050.1 0.18856 0.00090784 1101.5 385.93 410.72 3.3777 0.86011 1.0487 173.88 1.9508 3.5908 0.0041766
-140.62 0.0038222 0.00010393 -105.27 -105.27 -0.54550 685.14 0.0014596 -105.32 -105.32 -0.54591 1.3344 1.9760 1816.7 -0.0073765 1020.7 0.18803 0.0010547 948.16 386.79 411.77 3.3560 0.86341 1.0520 174.48 1.9133 3.6183 0.0042372
-139.62 0.0044623 0.00012042 -103.29 -103.28 -0.53058 684.13 0.0014617 -103.34 -103.34 -0.53105 1.3344 1.9776 1810.0 -0.0073651 992.74 0.18749 0.0012221 818.26 387.65 412.83 3.3347 0.86670 1.0553 175.08 1.8768 3.6459 0.0042980
-138.62 0.0051963 0.00013919 -101.30 -101.29 -0.51575 683.12 0.0014639 -101.37 -101.37 -0.51629 1.3345 1.9792 1803.3 -0.0073536 965.97 0.18695 0.0014125 707.94 388.52 413.88 3.3139 0.86998 1.0586 175.67 1.8413 3.6734 0.0043592
-137.62 0.0060358 0.00016048 -99.308 -99.304 -0.50101 682.11 0.0014660 -99.386 -99.386 -0.50162 1.3346 1.9808 1796.6 -0.0073419 940.35 0.18641 0.0016287 614.00 389.39 414.94 3.2935 0.87325 1.0619 176.26 1.8069 3.7009 0.0044206
-136.62 0.0069938 0.00018458 -97.314 -97.310 -0.48636 681.10 0.0014682 -97.404 -97.404 -0.48705 1.3347 1.9825 1789.9 -0.0073301 915.81 0.18586 0.0018733 533.80 390.26 416.00 3.2735 0.87650 1.0651 176.85 1.7734 3.7284 0.0044823
-135.62 0.0080843 0.00021181 -95.318 -95.313 -0.47179 680.09 0.0014704 -95.421 -95.421 -0.47258 1.3348 1.9841 1783.2 -0.0073180 892.30 0.18531 0.0021497 465.17 391.14 417.07 3.2540 0.87975 1.0684 177.44 1.7409 3.7559 0.0045443
-134.62 0.0093230 0.00024250 -93.318 -93.312 -0.45730 679.08 0.0014726 -93.436 -93.436 -0.45820 1.3350 1.9858 1776.5 -0.0073059 869.75 0.18476 0.0024613 406.30 392.02 418.14 3.2348 0.88299 1.0716 178.02 1.7093 3.7834 0.0046066
-133.62 0.010727 0.00027702 -91.315 -91.308 -0.44289 678.07 0.0014748 -91.450 -91.449 -0.44391 1.3351 1.9875 1769.8 -0.0072935 848.11 0.18421 0.0028116 355.67 392.91 419.21 3.2161 0.88622 1.0749 178.61 1.6786 3.8109 0.0046691
-132.62 0.012315 0.00031575 -89.309 -89.300 -0.42856 677.06 0.0014770 -89.461 -89.461 -0.42971 1.3353 1.9892 1763.1 -0.0072810 827.32 0.18365 0.0032049 312.03 393.79 420.29 3.1977 0.88944 1.0781 179.19 1.6488 3.8385 0.0047320
-131.62 0.014106 0.00035914 -87.298 -87.288 -0.41431 676.04 0.0014792 -87.471 -87.471 -0.41560 1.3354 1.9909 1756.4 -0.0072684 807.34 0.18309 0.0036453 274.33 394.68 421.36 3.1798 0.89266 1.0813 179.76 1.6197 3.8660 0.0047951
-130.62 0.016124 0.00040763 -85.283 -85.272 -0.40012 675.03 0.0014814 -85.479 -85.479 -0.40157 1.3356 1.9926 1749.7 -0.0072555 788.12 0.18253 0.0041375 241.69 395.58 422.44 3.1622 0.89586 1.0846 180.34 1.5915 3.8935 0.0048586
-129.62 0.018392 0.00046172 -83.264 -83.252 -0.38600 674.02 0.0014836 -83.486 -83.486 -0.38763 1.3358 1.9944 1743.0 -0.0072425 769.63 0.18196 0.0046867 213.37 396.47 423.53 3.1450 0.89906 1.0878 180.91 1.5641 3.9210 0.0049223
-128.62 0.020935 0.00052194 -81.241 -81.226 -0.37195 673.01 0.0014859 -81.491 -81.490 -0.37378 1.3360 1.9961 1736.3 -0.0072294 751.83 0.18140 0.0052981 188.75 397.37 424.62 3.1281 0.90226 1.0910 181.48 1.5374 3.9485 0.0049863
-127.62 0.023783 0.00058887 -79.212 -79.196 -0.35797 672.00 0.0014881 -79.494 -79.493 -0.36001 1.3363 1.9979 1729.6 -0.0072160 734.67 0.18083 0.0059776 167.29 398.27 425.71 3.1116 0.90545 1.0942 182.05 1.5114 3.9760 0.0050506
-126.62 0.026966 0.00066311 -77.179 -77.160 -0.34404 670.98 0.0014904 -77.495 -77.495 -0.34632 1.3365 1.9997 1722.9 -0.0072025 718.14 0.18025 0.0067313 148.56 399.18 426.80 3.0954 0.90863 1.0974 182.62 1.4861 4.0035 0.0051152
-125.62 0.030515 0.00074531 -75.140 -75.119 -0.33017 669.97 0.0014926 -75.494 -75.494 -0.33272 1.3368 2.0015 1716.2 -0.0071888 702.18 0.17968 0.0075660 132.17 400.09 427.89 3.0795 0.91181 1.1006 183.18 1.4615 4.0310 0.0051800
-124.62 0.034467 0.00083617 -73.095 -73.071 -0.31636 668.95 0.0014949 -73.492 -73.492 -0.31919 1.3371 2.0033 1709.5 -0.0071749 686.79 0.17910 0.0084885 117.81 401.00 428.99 3.0640 0.91499 1.1038 183.74 1.4375 4.0584 0.0052452
-123.62 0.038859 0.00093643 -71.044 -71.018 -0.30260 667.94 0.0014971 -71.488 -71.487 -0.30574 1.3374 2.0051 1702.8 -0.0071609 671.93 0.17852 0.0095065 105.19 401.91 430.10 3.0488 0.91816 1.1070 184.30 1.4141 4.0859 0.0053106
-122.62 0.043731 0.0010469 -68.987 -68.957 -0.28889 666.92 0.0014994 -69.482 -69.481 -0.29237 1.3377 2.0070 1696.2 -0.0071466 657.57 0.17794 0.010628 94.092 402.83 431.20 3.0339 0.92134 1.1102 184.86 1.3913 4.1134 0.0053764
-121.62 0.049128 0.0011683 -66.923 -66.889 -0.27522 665.91 0.0015017 -67.474 -67.473 -0.27907 1.3380 2.0089 1689.5 -0.0071322 643.70 0.17736 0.011861 84.309 403.75 432.31 3.0193 0.92451 1.1134 185.41 1.3691 4.1409 0.0054424
-120.62 0.055096 0.0013017 -64.852 -64.814 -0.26159 664.89 0.0015040 -65.464 -65.463 -0.26585 1.3384 2.0107 1682.8 -0.0071176 630.28 0.17678 0.013215 75.669 404.67 433.42 3.0050 0.92767 1.1166 185.96 1.3475 4.1683 0.0055087
-119.62 0.061684 0.0014479 -62.773 -62.731 -0.24801 663.87 0.0015063 -63.452 -63.452 -0.25271 1.3387 2.0126 1676.1 -0.0071028 617.30 0.17619 0.014700 68.027 405.60 434.53 2.9909 0.93084 1.1198 186.51 1.3264 4.1958 0.0055752
-118.62 0.068946 0.0016079 -60.686 -60.639 -0.23446 662.86 0.0015086 -61.439 -61.438 -0.23963 1.3391 2.0146 1669.4 -0.0070878 604.74 0.17560 0.016325 61.255 406.53 435.64 2.9772 0.93401 1.1231 187.06 1.3058 4.2233 0.0056421
-117.62 0.076937 0.0017828 -58.591 -58.538 -0.22094 661.84 0.0015109 -59.423 -59.422 -0.22663 1.3395 2.0165 1662.8 -0.0070726 592.58 0.17501 0.018101 55.245 407.46 436.76 2.9638 0.93718 1.1263 187.60 1.2857 4.2507 0.0057092
-116.62 0.085718 0.0019737 -56.486 -56.427 -0.20746 660.82 0.0015133 -57.406 -57.405 -0.21370 1.3400 2.0184 1656.1 -0.0070573 580.80 0.17442 0.020040 49.901 408.39 437.88 2.9506 0.94035 1.1295 188.14 1.2660 4.2782 0.0057767
-115.62 0.095353 0.0021817 -54.372 -54.307 -0.19399 659.80 0.0015156 -55.386 -55.385 -0.20084 1.3404 2.0204 1649.4 -0.0070417 569.38 0.17383 0.022152 45.142 409.33 439.01 2.9377 0.94352 1.1327 188.68 1.2468 4.3056 0.0058444
-114.62 0.10591 0.0024081 -52.248 -52.175 -0.18055 658.78 0.0015180 -53.365 -53.364 -0.18805 1.3409 2.0224 1642.7 -0.0070260 558.32 0.17323 0.024451 40.898 410.27 440.13 2.9250 0.94669 1.1360 189.22 1.2281 4.3330 0.0059123
-113.62 0.11746 0.0026541 -50.114 -50.033 -0.16713 657.76 0.0015203 -51.342 -51.340 -0.17533 1.3413 2.0244 1636.0 -0.0070100 547.59 0.17264 0.026949 37.107 411.21 441.26 2.9126 0.94987 1.1392 189.75 1.2097 4.3604 0.0059806
-112.62 0.13008 0.0029210 -47.968 -47.878 -0.15372 656.73 0.0015227 -49.316 -49.315 -0.16267 1.3418 2.0264 1629.3 -0.0069938 537.18 0.17204 0.029661 33.715 412.16 442.39 2.9005 0.95305 1.1424 190.28 1.1918 4.3879 0.0060491
-111.62 0.14384 0.0032104 -45.811 -45.712 -0.14032 655.71 0.0015251 -47.289 -47.287 -0.15008 1.3424 2.0285 1622.7 -0.0069774 527.08 0.17144 0.032600 30.675 413.10 443.53 2.8885 0.95623 1.1457 190.81 1.1742 4.4153 0.0061180
-110.62 0.15884 0.0035236 -43.641 -43.531 -0.12693 654.69 0.0015274 -45.259 -45.258 -0.13755 1.3429 2.0305 1616.0 -0.0069609 517.28 0.17084 0.035781 27.948 414.06 444.66 2.8769 0.95942 1.1490 191.34 1.1570 4.4427 0.0061871
-109.62 0.17516 0.0038622 -41.458 -41.337 -0.11354 653.66 0.0015298 -43.228 -43.226 -0.12509 1.3435 2.0326 1609.3 -0.0069441 507.76 0.17024 0.039220 25.497 415.01 445.80 2.8654 0.96261 1.1522 191.86 1.1402 4.4701 0.0062564
-108.62 0.19290 0.0042278 -39.261 -39.128 -0.10015 652.64 0.0015322 -41.194 -41.192 -0.11269 1.3441 2.0347 1602.6 -0.0069271 498.51 0.16964 0.042933 23.292 415.96 446.94 2.8542 0.96581 1.1555 192.38 1.1236 4.4974 0.0063261
-107.62 0.21215 0.0046220 -37.050 -36.904 -0.086752 651.61 0.0015347 -39.158 -39.156 -0.10036 1.3447 2.0369 1595.9 -0.0069098 489.52 0.16903 0.046937 21.305 416.92 448.09 2.8433 0.96901 1.1588 192.90 1.1075 4.5248 0.0063960
-106.62 0.23301 0.0050466 -34.824 -34.664 -0.073343 650.58 0.0015371 -37.120 -37.118 -0.088082 1.3453 2.0390 1589.2 -0.0068924 480.79 0.16843 0.051250 19.512 417.88 449.23 2.8325 0.97222 1.1621 193.41 1.0916 4.5522 0.0064662
-105.62 0.25561 0.0055035 -32.582 -32.406 -0.059920 649.55 0.0015395 -35.080 -35.078 -0.075868 1.3460 2.0412 1582.6 -0.0068747 472.30 0.16782 0.055891 17.892 418.85 450.38 2.8220 0.97544 1.1655 193.93 1.0760 4.5795 0.0065367
-104.62 0.28004 0.0059945 -30.324 -30.131 -0.046478 648.52 0.0015420 -33.038 -33.035 -0.063714 1.3467 2.0434 1575.9 -0.0068569 464.04 0.16721 0.060878 16.426 419.81 451.53 2.8116 0.97867 1.1688 194.44 1.0608 4.6069 0.0066074
-103.62 0.30643 0.0065215 -28.048 -27.836 -0.033012 647.49 0.0015444 -30.994 -30.991 -0.051619 1.3474 2.0456 1569.2 -0.0068387 456.00 0.16660 0.066231 15.099 420.78 452.68 2.8015 0.98191 1.1722 194.94 1.0458 4.6342 0.0066785
-102.62 0.33490 0.0070866 -25.753 -25.522 -0.019519 646.46 0.0015469 -28.947 -28.944 -0.039582 1.3481 2.0478 1562.5 -0.0068204 448.18 0.16600 0.071971 13.894 421.75 453.84 2.7916 0.98516 1.1755 195.44 1.0310 4.6615 0.0067498
-101.62 0.36558 0.0076919 -23.440 -23.188 -0.0059918 645.43 0.0015494 -26.898 -26.894 -0.027602 1.3489 2.0501 1555.8 -0.0068018 440.57 0.16539 0.078120 12.801 422.73 454.99 2.7818 0.98841 1.1789 195.95 1.0166 4.6888 0.0068213
-100.62 0.39862 0.0083395 -21.107 -20.832 0.0075723 644.39 0.0015519 -24.847 -24.843 -0.015678 1.3497 2.0524 1549.1 -0.0067830 433.16 0.16478 0.084699 11.807 423.70 456.15 2.7723 0.99168 1.1823 196.44 1.0024 4.7161 0.0068932
-99.625 0.43414 0.0090318 -18.752 -18.453 0.021179 643.36 0.0015544 -22.794 -22.789 -0.0038103 1.3505 2.0547 1542.4 -0.0067639 425.95 0.16416 0.091731 10.901 424.68 457.31 2.7630 0.99496 1.1858 196.94 0.98838 4.7434 0.0069653
-98.625 0.47230 0.0097710 -16.376 -16.051 0.034832 642.32 0.0015569 -20.738 -20.733 0.0080027 1.3514 2.0570 1535.7 -0.0067447 418.92 0.16355 0.099240 10.077 425.66 458.48 2.7538 0.99825 1.1892 197.43 0.97464 4.7707 0.0070377
-97.625 0.51325 0.010560 -13.977 -13.624 0.048537 641.28 0.0015594 -18.680 -18.674 0.019762 1.3522 2.0594 1529.0 -0.0067251 412.07 0.16294 0.10725 9.3239 426.65 459.64 2.7448 1.0016 1.1927 197.92 0.96112 4.7979 0.0071103
-96.625 0.55714 0.011400 -11.555 -11.171 0.062299 640.24 0.0015619 -16.620 -16.614 0.031467 1.3531 2.0618 1522.3 -0.0067053 405.39 0.16233 0.11579 8.6365 427.63 460.81 2.7360 1.0049 1.1962 198.40 0.94783 4.8251 0.0071832
-95.625 0.60416 0.012295 -9.1079 -8.6913 0.076123 639.20 0.0015645 -14.557 -14.550 0.043120 1.3540 2.0642 1515.7 -0.0066853 398.88 0.16171 0.12488 8.0078 428.62 461.98 2.7274 1.0082 1.1997 198.88 0.93475 4.8524 0.0072564
-94.625 0.65446 0.013247 -6.6350 -6.1838 0.090013 638.16 0.0015670 -12.491 -12.484 0.054721 1.3550 2.0667 1509.0 -0.0066650 392.53 0.16110 0.13455 7.4323 429.61 463.15 2.7189 1.0116 1.2032 199.36 0.92188 4.8796 0.0073299
-93.625 0.70822 0.014258 -4.1355 -3.6472 0.10398 637.12 0.0015696 -10.424 -10.416 0.066271 1.3560 2.0691 1502.3 -0.0066444 386.34 0.16048 0.14482 6.9050 430.60 464.32 2.7107 1.0149 1.2068 199.83 0.90921 4.9068 0.0074036
-92.625 0.76564 0.015332 -1.6081 -1.0802 0.11801 636.07 0.0015722 -8.3535 -8.3452 0.077771 1.3570 2.0716 1495.6 -0.0066236 380.31 0.15987 0.15573 6.4212 431.60 465.49 2.7025 1.0183 1.2104 200.30 0.89673 4.9340 0.0074776
-91.625 0.82689 0.016472 0.94824 1.5184 0.13214 635.02 0.0015747 -6.2808 -6.2719 0.089220 1.3580 2.0742 1488.9 -0.0066025 374.41 0.15925 0.16731 5.9769 432.59 466.67 2.6946 1.0217 1.2140 200.77 0.88445 4.9611 0.0075518
-90.625 0.89218 0.017680 3.5345 4.1497 0.14634 633.98 0.0015773 -4.2056 -4.1959 0.10062 1.3591 2.0767 1482.2 -0.0065811 368.66 0.15864 0.17958 5.5685 433.59 467.84 2.6868 1.0251 1.2177 201.24 0.87236 4.9883 0.0076263
-89.625 0.96172 0.018959 6.1519 6.8150 0.16064 632.93 0.0015800 -2.1279 -2.1174 0.11197 1.3602 2.0793 1475.5 -0.0065595 363.05 0.15802 0.19258 5.1928 434.59 469.02 2.6791 1.0285 1.2213 201.70 0.86045 5.0154 0.0077011
-88.625 1.0357 0.020313 8.8016 9.5157 0.17504 631.88 0.0015826 -0.047516 -0.036215 0.12328 1.3613 2.0819 1468.8 -0.0065375 357.56 0.15740 0.20633 4.8466 435.59 470.20 2.6717 1.0320 1.2250 202.15 0.84873 5.0425 0.0077761
-87.625 1.1144 0.021744 11.485 12.253 0.18954 630.83 0.0015852 2.0355 2.0476 0.13454 1.3625 2.0846 1462.1 -0.0065153 352.21 0.15679 0.22087 4.5276 436.60 471.39 2.6643 1.0354 1.2288 202.61 0.83718 5.0696 0.0078514
-86.625 1.1979 0.023257 14.203 15.028 0.20415 629.77 0.0015879 4.1211 4.1342 0.14575 1.3637 2.0873 1455.4 -0.0064928 346.98 0.15617 0.23623 4.2331 437.61 472.57 2.6571 1.0389 1.2325 203.06 0.82580 5.0967 0.0079270
-85.625 1.2866 0.024854 16.956 17.843 0.21888 628.72 0.0015905 6.2094 6.2235 0.15691 1.3649 2.0900 1448.8 -0.0064701 341.87 0.15555 0.25245 3.9612 438.61 473.75 2.6501 1.0424 1.2363 203.50 0.81460 5.1237 0.0080028
-84.625 1.3806 0.026538 19.747 20.699 0.23372 627.66 0.0015932 8.3004 8.3155 0.16803 1.3661 2.0927 1442.1 -0.0064470 336.87 0.15494 0.26956 3.7097 439.63 474.94 2.6432 1.0460 1.2402 203.95 0.80356 5.1508 0.0080789
-83.625 1.4803 0.028314 22.576 23.597 0.24869 626.60 0.0015959 10.394 10.410 0.17911 1.3674 2.0955 1435.4 -0.0064236 331.99 0.15432 0.28760 3.4771 440.64 476.13 2.6364 1.0495 1.2440 204.38 0.79269 5.1778 0.0081553
-82.625 1.5858 0.030184 25.444 26.538 0.26378 625.54 0.0015986 12.491 12.508 0.19014 1.3687 2.0983 1428.7 -0.0063999 327.22 0.15370 0.30659 3.2616 441.65 477.31 2.6298 1.0531 1.2479 204.82 0.78199 5.2048 0.0082319
-81.625 1.6975 0.032153 28.354 29.524 0.27901 624.48 0.0016013 14.590 14.609 0.20113 1.3700 2.1012 1422.0 -0.0063759 322.55 0.15309 0.32659 3.0619 442.67 478.50 2.6233 1.0567 1.2519 205.25 0.77144 5.2318 0.0083088
-80.625 1.8155 0.034224 31.306 32.557 0.29438 623.42 0.0016041 16.692 16.712 0.21208 1.3714 2.1041 1415.4 -0.0063516 317.99 0.15247 0.34763 2.8766 443.69 479.70 2.6169 1.0603 1.2558 205.67 0.76106 5.2587 0.0083860
-79.625 1.9402 0.036401 34.301 35.638 0.30990 622.36 0.0016068 18.797 18.819 0.22299 1.3728 2.1070 1408.7 -0.0063270 313.52 0.15186 0.36974 2.7046 444.71 480.89 2.6106 1.0639 1.2598 206.10 0.75083 5.2857 0.0084634
-78.625 2.0718 0.038688 37.341 38.769 0.32557 621.29 0.0016096 20.905 20.928 0.23385 1.3742 2.1099 1402.0 -0.0063021 309.15 0.15124 0.39296 2.5448 445.73 482.08 2.6045 1.0676 1.2639 206.51 0.74076 5.3126 0.0085411
-77.625 2.2107 0.041089 40.427 41.951 0.34139 620.22 0.0016123 23.016 23.040 0.24468 1.3757 2.1129 1395.3 -0.0062768 304.88 0.15062 0.41735 2.3961 446.75 483.27 2.5985 1.0712 1.2680 206.93 0.73084 5.3395 0.0086190
-76.625 2.3571 0.043608 43.561 45.186 0.35738 619.15 0.0016151 25.130 25.156 0.25546 1.3772 2.1159 1388.7 -0.0062512 300.69 0.15001 0.44292 2.2577 447.78 484.47 2.5926 1.0749 1.2721 207.34 0.72107 5.3664 0.0086972
-75.625 2.5113 0.046249 46.743 48.475 0.37353 618.08 0.0016179 27.247 27.275 0.26620 1.3787 2.1190 1382.0 -0.0062253 296.59 0.14939 0.46974 2.1288 448.81 485.67 2.5869 1.0787 1.2762 207.74 0.71146 5.3933 0.0087757
-74.625 2.6736 0.049016 49.976 51.820 0.38986 617.01 0.0016207 29.366 29.396 0.27691 1.3802 2.1221 1375.4 -0.0061990 292.58 0.14878 0.49783 2.0087 449.83 486.86 2.5812 1.0824 1.2804 208.14 0.70200 5.4201 0.0088544
-73.625 2.8444 0.051914 53.261 55.222 0.40636 615.93 0.0016236 31.489 31.521 0.28758 1.3818 2.1252 1368.7 -0.0061724 288.65 0.14816 0.52725 1.8966 450.86 488.06 2.5757 1.0862 1.2847 208.54 0.69268 5.4469 0.0089334
-72.625 3.0240 0.054946 56.598 58.683 0.42305 614.85 0.0016264 33.615 33.649 0.29821 1.3834 2.1284 1362.0 -0.0061454 284.81 0.14755 0.55804 1.7920 451.90 489.26 2.5703 1.0900 1.2889 208.93 0.68351 5.4737 0.0090126
-71.625 3.2127 0.058118 59.991 62.206 0.43992 613.78 0.0016293 35.745 35.781 0.30880 1.3851 2.1316 1355.4 -0.0061181 281.03 0.14694 0.59024 1.6942 452.93 490.46 2.5650 1.0938 1.2932 209.32 0.67448 5.5005 0.0090922
-70.625 3.4108 0.061434 63.439 65.791 0.45699 612.69 0.0016321 37.877 37.915 0.31935 1.3867 2.1349 1348.7 -0.0060904 277.34 0.14632 0.62390 1.6028 453.96 491.66 2.5598 1.0976 1.2976 209.70 0.66560 5.5273 0.0091720
-69.625 3.6187 0.064898 66.945 69.440 0.47426 611.61 0.0016350 40.013 40.053 0.32987 1.3884 2.1382 1342.1 -0.0060624 273.72 0.14571 0.65906 1.5173 455.00 492.86 2.5547 1.1015 1.3020 210.08 0.65687 5.5540 0.0092520
-68.625 3.8367 0.068516 70.509 73.155 0.49173 610.53 0.0016379 42.152 42.195 0.34036 1.3902 2.1415 1335.5 -0.0060339 270.17 0.14510 0.69577 1.4372 456.04 494.06 2.5497 1.1054 1.3064 210.45 0.64827 5.5807 0.0093324
-67.625 4.0652 0.072291 74.134 76.937 0.50941 609.44 0.0016409 44.294 44.340 0.35080 1.3919 2.1449 1328.8 -0.0060051 266.69 0.14449 0.73408 1.3622 457.08 495.26 2.5448 1.1093 1.3109 210.82 0.63981 5.6074 0.0094130
-66.625 4.3046 0.076229 77.821 80.789 0.52731 608.35 0.0016438 46.439 46.488 0.36122 1.3937 2.1483 1322.2 -0.0059760 263.28 0.14388 0.77404 1.2919 458.12 496.46 2.5400 1.1133 1.3154 211.18 0.63150 5.6341 0.0094939
-65.625 4.5551 0.080334 81.571 84.712 0.54542 607.26 0.0016467 48.588 48.640 0.37160 1.3955 2.1518 1315.6 -0.0059464 259.93 0.14327 0.81570 1.2259 459.16 497.67 2.5353 1.1172 1.3200 211.54 0.62332 5.6608 0.0095750
-64.625 4.8173 0.084612 85.386 88.708 0.56376 606.16 0.0016497 50.740 50.795 0.38195 1.3974 2.1553 1308.9 -0.0059164 256.65 0.14266 0.85910 1.1640 460.21 498.87 2.5307 1.1212 1.3246 211.89 0.61527 5.6874 0.0096564
-63.625 5.0915 0.089068 89.268 92.778 0.58233 605.07 0.0016527 52.896 52.954 0.39226 1.3993 2.1588 1302.3 -0.0058861 253.42 0.14205 0.90429 1.1058 461.25 500.07 2.5262 1.1252 1.3293 212.24 0.60736 5.7140 0.0097382
-62.625 5.3781 0.093706 93.217 96.925 0.60113 603.97 0.0016557 55.055 55.117 0.40254 1.4012 2.1624 1295.7 -0.0058553 250.26 0.14144 0.95134 1.0511 462.30 501.28 2.5218 1.1293 1.3340 212.58 0.59958 5.7406 0.0098201
-61.625 5.6774 0.098533 97.235 101.15 0.62017 602.87 0.0016587 57.218 57.283 0.41279 1.4031 2.1660 1289.1 -0.0058241 247.16 0.14084 1.0003 0.99972 463.35 502.48 2.5175 1.1333 1.3387 212.92 0.59194 5.7672 0.0099024
-60.625 5.9899 0.10355 101.32 105.45 0.63946 601.77 0.0016618 59.385 59.453 0.42301 1.4051 2.1697 1282.5 -0.0057925 244.12 0.14023 1.0512 0.95131 464.40 503.68 2.5133 1.1374 1.3435 213.26 0.58442 5.7938 0.0099850
-59.625 6.3160 0.10877 105.49 109.84 0.65900 600.66 0.0016648 61.554 61.627 0.43320 1.4071 2.1734 1275.9 -0.0057605 241.13 0.13962 1.1041 0.90573 465.45 504.89 2.5091 1.1415 1.3483 213.58 0.57704 5.8203 0.010068
-58.625 6.6561 0.11419 109.72 114.31 0.67878 599.55 0.0016679 63.728 63.805 0.44335 1.4091 2.1772 1269.3 -0.0057280 238.19 0.13902 1.1591 0.86277 466.50 506.09 2.5051 1.1457 1.3532 213.90 0.56978 5.8468 0.010151
-57.625 7.0107 0.11982 114.03 118.87 0.69883 598.44 0.0016710 65.905 65.986 0.45348 1.4111 2.1810 1262.7 -0.0056951 235.31 0.13842 1.2161 0.82228 467.55 507.30 2.5011 1.1498 1.3581 214.22 0.56265 5.8733 0.010234
-56.625 7.3801 0.12567 118.42 123.51 0.71915 597.33 0.0016741 68.086 68.172 0.46358 1.4132 2.1848 1256.1 -0.0056617 232.48 0.13781 1.2754 0.78408 468.60 508.50 2.4972 1.1540 1.3631 214.53 0.55564 5.8998 0.010318
-55.625 7.7648 0.13174 122.89 128.24 0.73972 596.22 0.0016772 70.271 70.361 0.47364 1.4153 2.1887 1249.5 -0.0056279 229.69 0.13721 1.3369 0.74802 469.66 509.71 2.4934 1.1582 1.3681 214.84 0.54875 5.9263 0.010402
-54.625 8.1652 0.13803 127.43 133.06 0.76058 595.10 0.0016804 72.460 72.554 0.48368 1.4174 2.1927 1242.9 -0.0055937 226.96 0.13661 1.4006 0.71396 470.72 510.91 2.4897 1.1624 1.3731 215.14 0.54199 5.9527 0.010486
-53.625 8.5819 0.14456 132.06 137.98 0.78171 593.98 0.0016836 74.652 74.752 0.49369 1.4196 2.1967 1236.3 -0.0055589 224.27 0.13601 1.4667 0.68178 471.77 512.11 2.4860 1.1667 1.3782 215.43 0.53535 5.9792 0.010571
-52.625 9.0151 0.15133 136.77 142.99 0.80312 592.86 0.0016867 76.849 76.954 0.50368 1.4218 2.2007 1229.8 -0.0055237 221.63 0.13541 1.5353 0.65136 472.83 513.32 2.4824 1.1710 1.3834 215.72 0.52882 6.0056 0.010656
-51.625 9.4655 0.15834 141.57 148.09 0.82481 591.73 0.0016900 79.049 79.159 0.51363 1.4240 2.2048 1223.2 -0.0054880 219.04 0.13482 1.6062 0.62258 473.89 514.52 2.4789 1.1752 1.3886 216.00 0.52241 6.0320 0.010741
-50.625 9.9335 0.16560 146.45 153.30 0.84680 590.60 0.0016932 81.253 81.369 0.52356 1.4262 2.2089 1216.6 -0.0054519 216.48 0.13422 1.6797 0.59534 474.95 515.73 2.4755 1.1796 1.3938 216.28 0.51612 6.0584 0.010827
-49.625 10.419 0.17312 151.42 158.60 0.86908 589.47 0.0016964 83.462 83.584 0.53347 1.4285 2.2131 1210.1 -0.0054152 213.98 0.13363 1.7558 0.56954 476.01 516.93 2.4722 1.1839 1.3991 216.55 0.50994 6.0848 0.010913
-48.625 10.924 0.18090 156.48 164.01 0.89166 588.34 0.0016997 85.674 85.802 0.54334 1.4308 2.2173 1203.5 -0.0053780 211.51 0.13303 1.8345 0.54510 477.07 518.13 2.4689 1.1883 1.4044 216.82 0.50387 6.1112 0.010999
-47.625 11.448 0.18895 161.63 169.52 0.91455 587.20 0.0017030 87.891 88.025 0.55319 1.4331 2.2216 1196.9 -0.0053403 209.08 0.13244 1.9159 0.52194 478.14 519.33 2.4657 1.1927 1.4098 217.08 0.49792 6.1375 0.011085
-46.625 11.991 0.19727 166.87 175.14 0.93774 586.06 0.0017063 90.111 90.252 0.56302 1.4354 2.2259 1190.4 -0.0053020 206.69 0.13185 2.0001 0.49997 479.20 520.53 2.4625 1.1971 1.4153 217.33 0.49207 6.1639 0.011172
-45.625 12.554 0.20588 172.20 180.86 0.96124 584.92 0.0017096 92.336 92.484 0.57282 1.4378 2.2303 1183.8 -0.0052633 204.34 0.13126 2.0872 0.47912 480.27 521.74 2.4594 1.2015 1.4207 217.58 0.48633 6.1902 0.011259
-44.625 13.137 0.21478 177.64 186.69 0.98506 583.77 0.0017130 94.565 94.720 0.58260 1.4402 2.2347 1177.3 -0.0052240 202.03 0.13067 2.1771 0.45933 481.33 522.94 2.4564 1.2060 1.4263 217.82 0.48069 6.2165 0.011347
-43.625 13.741 0.22397 183.16 192.64 1.0092 582.62 0.0017164 96.799 96.961 0.59235 1.4426 2.2392 1170.7 -0.0051841 199.75 0.13008 2.2700 0.44053 482.40 524.14 2.4535 1.2104 1.4319 218.05 0.47516 6.2429 0.011435
-42.625 14.367 0.23347 188.79 198.70 1.0337 581.47 0.0017198 99.036 99.207 0.60208 1.4450 2.2437 1164.2 -0.0051437 197.51 0.12949 2.3659 0.42267 483.46 525.33 2.4506 1.2149 1.4375 218.28 0.46973 6.2692 0.011523
-41.625 15.015 0.24328 194.52 204.87 1.0584 580.32 0.0017232 101.28 101.46 0.61179 1.4475 2.2483 1157.7 -0.0051027 195.30 0.12891 2.4649 0.40569 484.53 526.53 2.4478 1.2195 1.4432 218.50 0.46440 6.2955 0.011612
-40.625 15.686 0.25340 200.34 211.16 1.0836 579.16 0.0017266 103.52 103.71 0.62147 1.4500 2.2529 1151.1 -0.0050611 193.13 0.12832 2.5671 0.38954 485.60 527.73 2.4450 1.2240 1.4489 218.72 0.45917 6.3218 0.011701
-39.625 16.380 0.26385 206.27 217.57 1.1090 578.00 0.0017301 105.78 105.97 0.63113 1.4525 2.2576 1144.6 -0.0050189 190.99 0.12774 2.6725 0.37418 486.67 528.93 2.4423 1.2286 1.4547 218.93 0.45403 6.3481 0.011790
-38.625 17.097 0.27463 212.31 224.10 1.1348 576.83 0.0017336 108.03 108.24 0.64077 1.4550 2.2623 1138.0 -0.0049761 188.88 0.12716 2.7813 0.35955 487.74 530.12 2.4397 1.2332 1.4606 219.13 0.44900 6.3744 0.011880
-37.625 17.838 0.28575 218.45 230.75 1.1609 575.66 0.0017371 110.29 110.51 0.65039 1.4576 2.2671 1131.5 -0.0049327 186.81 0.12658 2.8934 0.34562 488.81 531.32 2.4371 1.2378 1.4665 219.33 0.44405 6.4007 0.011970
-36.625 18.604 0.29721 224.70 237.53 1.1874 574.49 0.0017407 112.56 112.78 0.65999 1.4602 2.2719 1125.0 -0.0048887 184.76 0.12600 3.0089 0.33235 489.88 532.51 2.4346 1.2424 1.4724 219.52 0.43920 6.4270 0.012060
-35.625 19.395 0.30903 231.06 244.43 1.2142 573.32 0.0017442 114.83 115.06 0.66956 1.4628 2.2768 1118.5 -0.0048440 182.75 0.12542 3.1280 0.31969 490.95 533.70 2.4321 1.2471 1.4784 219.70 0.43444 6.4533 0.012151
-34.625 20.212 0.32121 237.53 251.46 1.2414 572.14 0.0017478 117.10 117.34 0.67912 1.4654 2.2818 1111.9 -0.0047987 180.76 0.12485 3.2506 0.30763 492.02 534.89 2.4297 1.2517 1.4845 219.88 0.42977 6.4797 0.012243
-33.625 21.056 0.33376 244.11 258.63 1.2689 570.96 0.0017514 119.38 119.63 0.68865 1.4681 2.2868 1105.4 -0.0047527 178.80 0.12427 3.3770 0.29612 493.09 536.08 2.4273 1.2564 1.4906 220.05 0.42519 6.5060 0.012334
-32.625 21.926 0.34668 250.80 265.92 1.2968 569.77 0.0017551 121.66 121.93 0.69817 1.4708 2.2918 1098.9 -0.0047061 176.87 0.12370 3.5071 0.28514 494.17 537.27 2.4250 1.2611 1.4968 220.21 0.42070 6.5323 0.012426
-31.625 22.823 0.36000 257.61 273.35 1.3251 568.58 0.0017588 123.95 124.23 0.70767 1.4735 2.2970 1092.3 -0.0046587 174.97 0.12313 3.6410 0.27465 495.24 538.46 2.4227 1.2659 1.5031 220.36 0.41629 6.5587 0.012519
-30.625 23.749 0.37370 264.54 280.91 1.3537 567.39 0.0017625 126.24 126.53 0.71714 1.4762 2.3021 1085.8 -0.0046107 173.09 0.12256 3.7787 0.26464 496.31 539.64 2.4205 1.2706 1.5094 220.51 0.41196 6.5850 0.012612
-29.625 24.703 0.38781 271.58 288.61 1.3827 566.19 0.0017662 128.54 128.84 0.72660 1.4790 2.3074 1079.3 -0.0045619 171.24 0.12200 3.9205 0.25507 497.38 540.83 2.4184 1.2754 1.5157 220.65 0.40772 6.6114 0.012706
-28.625 25.687 0.40233 278.75 296.46 1.4120 564.99 0.0017699 130.84 131.16 0.73604 1.4818 2.3126 1072.8 -0.0045124 169.42 0.12143 4.0663 0.24592 498.46 542.01 2.4162 1.2802 1.5222 220.79 0.40356 6.6378 0.012800
-27.625 26.700 0.41727 286.03 304.44 1.4418 563.78 0.0017737 133.15 133.48 0.74547 1.4846 2.3180 1066.2 -0.0044621 167.62 0.12087 4.2163 0.23717 499.53 543.19 2.4142 1.2850 1.5286 220.91 0.39947 6.6642 0.012894
-26.625 27.743 0.43264 293.44 312.57 1.4719 562.57 0.0017775 135.47 135.81 0.75487 1.4874 2.3234 1059.7 -0.0044111 165.84 0.12031 4.3705 0.22881 500.60 544.37 2.4122 1.2899 1.5352 221.03 0.39547 6.6906 0.012989
-25.625 28.817 0.44845 300.97 320.84 1.5024 561.36 0.0017814 137.78 138.14 0.76426 1.4902 2.3289 1053.2 -0.0043593 164.09 0.11975 4.5290 0.22080 501.68 545.55 2.4102 1.2947 1.5418 221.14 0.39154 6.7171 0.013084
-24.625 29.923 0.46470 308.63 329.26 1.5332 560.14 0.0017853 140.11 140.48 0.77363 1.4931 2.3344 1046.7 -0.0043067 162.36 0.11919 4.6918 0.21314 502.75 546.72 2.4083 1.2996 1.5485 221.25 0.38768 6.7436 0.013180
-23.625 31.061 0.48141 316.41 337.83 1.5645 558.92 0.0017892 142.44 142.82 0.78298 1.4960 2.3400 1040.1 -0.0042533 160.65 0.11863 4.8592 0.20580 503.82 547.90 2.4064 1.3045 1.5552 221.35 0.38391 6.7701 0.013277
-22.625 32.232 0.49858 324.32 346.55 1.5961 557.69 0.0017931 144.77 145.17 0.79232 1.4990 2.3457 1033.6 -0.0041990 158.97 0.11807 5.0311 0.19877 504.90 549.07 2.4045 1.3095 1.5621 221.44 0.38020 6.7967 0.013374
-21.625 33.435 0.51623 332.36 355.42 1.6282 556.46 0.0017971 147.11 147.52 0.80164 1.5019 2.3514 1027.1 -0.0041439 157.30 0.11752 5.2076 0.19203 505.97 550.24 2.4027 1.3144 1.5690 221.52 0.37656 6.8232 0.013471
-20.625 34.673 0.53437 340.54 364.44 1.6606 555.23 0.0018011 149.45 149.88 0.81095 1.5049 2.3572 1020.6 -0.0040879 155.66 0.11697 5.3889 0.18557 507.04 551.40 2.4010 1.3194 1.5759 221.59 0.37300 6.8499 0.013569
-19.625 35.946 0.55300 348.84 373.63 1.6934 553.99 0.0018051 151.80 152.25 0.82024 1.5079 2.3630 1014.0 -0.0040311 154.04 0.11642 5.5750 0.17937 508.11 552.57 2.3992 1.3244 1.5829 221.66 0.36950 6.8765 0.013668
-18.625 37.253 0.57214 357.28 382.97 1.7267 552.74 0.0018092 154.16 154.62 0.82952 1.5109 2.3689 1007.5 -0.0039733 152.44 0.11587 5.7660 0.17343 509.19 553.73 2.3976 1.3294 1.5901 221.72 0.36608 6.9032 0.013767
-17.625 38.596 0.59179 365.86 392.47 1.7603 551.49 0.0018133 156.52 157.00 0.83878 1.5140 2.3749 1001.0 -0.0039145 150.86 0.11532 5.9621 0.16773 510.26 554.89 2.3959 1.3345 1.5972 221.77 0.36272 6.9300 0.013867
-16.625 39.976 0.61197 374.57 402.13 1.7943 550.24 0.0018174 158.89 159.39 0.84803 1.5171 2.3810 994.44 -0.0038549 149.29 0.11478 6.1632 0.16225 511.33 556.05 2.3943 1.3395 1.6045 221.81 0.35942 6.9568 0.013968
-15.625 41.392 0.63269 383.42 411.96 1.8288 548.98 0.0018216 161.26 161.78 0.85726 1.5202 2.3871 987.91 -0.0037942 147.75 0.11423 6.3696 0.15700 512.40 557.20 2.3927 1.3446 1.6119 221.85 0.35619 6.9836 0.014069
-14.625 42.846 0.65396 392.41 421.96 1.8636 547.71 0.0018258 163.64 164.18 0.86649 1.5233 2.3933 981.37 -0.0037325 146.22 0.11369 6.5812 0.15195 513.47 558.36 2.3912 1.3497 1.6193 221.87 0.35302 7.0105 0.014170
-13.625 44.338 0.67579 401.55 432.12 1.8989 546.44 0.0018300 166.02 166.58 0.87569 1.5264 2.3996 974.83 -0.0036698 144.72 0.11315 6.7983 0.14710 514.54 559.51 2.3897 1.3549 1.6268 221.89 0.34992 7.0375 0.014273
-12.625 45.870 0.69820 410.82 442.45 1.9345 545.17 0.0018343 168.41 168.99 0.88489 1.5296 2.4059 968.29 -0.0036061 143.23 0.11261 7.0208 0.14243 515.61 560.65 2.3883 1.3600 1.6344 221.90 0.34688 7.0646 0.014376
-11.625 47.440 0.72119 420.24 452.95 1.9706 543.89 0.0018386 170.81 171.41 0.89407 1.5328 2.4124 961.75 -0.0035413 141.76 0.11208 7.2490 0.13795 516.68 561.80 2.3868 1.3652 1.6421 221.91 0.34389 7.0917 0.014479
-10.625 49.051 0.74477 429.81 463.63 2.0071 542.60 0.0018430 173.21 173.83 0.90324 1.5360 2.4189 955.20 -0.0034753 140.30 0.11154 7.4829 0.13364 517.75 562.94 2.3854 1.3704 1.6498 221.90 0.34097 7.1188 0.014584
-9.6250 50.703 0.76897 439.52 474.48 2.0441 541.31 0.0018474 175.61 176.26 0.91240 1.5393 2.4255 948.65 -0.0034082 138.86 0.11101 7.7226 0.12949 518.81 564.08 2.3841 1.3757 1.6577 221.88 0.33810 7.1461 0.014689
-8.6250 52.396 0.79379 449.38 485.51 2.0814 540.02 0.0018518 178.03 178.70 0.92154 1.5426 2.4321 942.10 -0.0033400 137.44 0.11048 7.9683 0.12550 519.88 565.21 2.3827 1.3809 1.6657 221.86 0.33529 7.1734 0.014795
-7.6250 54.131 0.81924 459.40 496.72 2.1192 538.72 0.0018563 180.45 181.14 0.93068 1.5459 2.4389 935.55 -0.0032705 136.03 0.10995 8.2200 0.12165 520.94 566.35 2.3814 1.3862 1.6737 221.83 0.33254 7.2008 0.014902
-6.6250 55.909 0.84535 469.56 508.11 2.1574 537.41 0.0018608 182.87 183.59 0.93980 1.5492 2.4457 928.99 -0.0031998 134.64 0.10942 8.4779 0.11795 522.01 567.48 2.3801 1.3915 1.6819 221.79 0.32984 7.2284 0.015009
-5.6250 57.730 0.87212 479.88 519.68 2.1960 536.10 0.0018653 185.30 186.05 0.94892 1.5525 2.4526 922.43 -0.0031279 133.27 0.10889 8.7420 0.11439 523.07 568.60 2.3789 1.3969 1.6902 221.74 0.32720 7.2560 0.015117
-4.6250 59.595 0.89956 490.35 531.44 2.2351 534.78 0.0018699 187.74 188.51 0.95802 1.5559 2.4596 915.87 -0.0030546 131.91 0.10837 9.0126 0.11096 524.13 569.72 2.3777 1.4022 1.6985 221.68 0.32461 7.2837 0.015226
-3.6250 61.505 0.92770 500.97 543.38 2.2746 533.45 0.0018746 190.19 190.98 0.96711 1.5593 2.4667 909.30 -0.0029800 130.56 0.10785 9.2896 0.10765 525.19 570.84 2.3765 1.4076 1.7070 221.62 0.32207 7.3115 0.015336
-2.6250 63.461 0.95655 511.76 555.51 2.3145 532.12 0.0018793 192.64 193.46 0.97620 1.5627 2.4739 902.73 -0.0029041 129.23 0.10733 9.5733 0.10446 526.25 571.96 2.3753 1.4131 1.7156 221.54 0.31958 7.3394 0.015447
-1.6250 65.462 0.98612 522.70 567.83 2.3549 530.78 0.0018840 195.10 195.95 0.98527 1.5662 2.4811 896.16 -0.0028267 127.91 0.10681 9.8638 0.10138 527.31 573.07 2.3742 1.4185 1.7243 221.45 0.31715 7.3674 0.015559
-0.62500 66.567 undefined 528.56 574.46 2.3765 10.000 0.10000 528.56 574.46 2.3765 1.4229 1.7295 221.69 0.31395 7.3958 0.015668 10.000 0.10000 528.56 574.46 2.3765 1.4229 1.7295 221.69 0.31395 7.3958 0.015668
0.37500 66.876 undefined 529.99 576.10 2.3817 10.000 0.10000 529.99 576.10 2.3817 1.4265 1.7318 222.21 0.31012 7.4244 0.015774 10.000 0.10000 529.99 576.10 2.3817 1.4265 1.7318 222.21 0.31012 7.4244 0.015774
1.3750 67.185 undefined 531.42 577.74 2.3869 10.000 0.10000 531.42 577.74 2.3869 1.4301 1.7340 222.73 0.30635 7.4530 0.015880 10.000 0.10000 531.42 577.74 2.3869 1.4301 1.7340 222.73 0.30635 7.4530 0.015880
2.3750 67.494 undefined 532.85 579.38 2.3921 10.000 0.10000 532.85 579.38 2.3921 1.4337 1.7363 223.24 0.30264 7.4816 0.015987 10.000 0.10000 532.85 579.38 2.3921 1.4337 1.7363 223.24 0.30264 7.4816 0.015987
3.3750 67.802 undefined 534.28 581.03 2.3973 10.000 0.10000 534.28 581.03 2.3973 1.4374 1.7387 223.75 0.29900 7.5101 0.016094 10.000 0.10000 534.28 581.03 2.3973 1.4374 1.7387 223.75 0.29900 7.5101 0.016094
4.3750 68.110 undefined 535.72 582.68 2.4025 10.000 0.10000 535.72 582.68 2.4025 1.4410 1.7411 224.26 0.29541 7.5386 0.016202 10.000 0.10000 535.72 582.68 2.4025 1.4410 1.7411 224.26 0.29541 7.5386 0.016202
5.3750 68.417 undefined 537.17 584.34 2.4077 10.000 0.10000 537.17 584.34 2.4077 1.4447 1.7435 224.77 0.29189 7.5671 0.016310 10.000 0.10000 537.17 584.34 2.4077 1.4447 1.7435 224.77 0.29189 7.5671 0.016310
6.3750 68.725 undefined 538.61 586.00 2.4129 10.000 0.10000 538.61 586.00 2.4129 1.4484 1.7460 225.28 0.28842 7.5956 0.016418 10.000 0.10000 538.61 586.00 2.4129 1.4484 1.7460 225.28 0.28842 7.5956 0.016418
7.3750 69.031 undefined 540.06 587.66 2.4181 10.000 0.10000 540.06 587.66 2.4181 1.4521 1.7485 225.78 0.28500 7.6241 0.016526 10.000 0.10000 540.06 587.66 2.4181 1.4521 1.7485 225.78 0.28500 7.6241 0.016526
8.3750 69.338 undefined 541.52 589.32 2.4232 10.000 0.10000 541.52 589.32 2.4232 1.4558 1.7510 226.29 0.28165 7.6526 0.016635 10.000 0.10000 541.52 589.32 2.4232 1.4558 1.7510 226.29 0.28165 7.6526 0.016635
9.3750 69.644 undefined 542.97 590.99 2.4284 10.000 0.10000 542.97 590.99 2.4284 1.4595 1.7536 226.79 0.27834 7.6810 0.016744 10.000 0.10000 542.97 590.99 2.4284 1.4595 1.7536 226.79 0.27834 7.6810 0.016744
10.375 69.950 undefined 544.44 592.67 2.4336 10.000 0.10000 544.44 592.67 2.4336 1.4633 1.7563 227.28 0.27509 7.7094 0.016853 10.000 0.10000 544.44 592.67 2.4336 1.4633 1.7563 227.28 0.27509 7.7094 0.016853
11.375 70.256 undefined 545.90 594.34 2.4387 10.000 0.10000 545.90 594.34 2.4387 1.4670 1.7589 227.78 0.27189 7.7379 0.016963 10.000 0.10000 545.90 594.34 2.4387 1.4670 1.7589 227.78 0.27189 7.7379 0.016963
12.375 70.562 undefined 547.37 596.02 2.4439 10.000 0.10000 547.37 596.02 2.4439 1.4708 1.7616 228.28 0.26874 7.7662 0.017072 10.000 0.10000 547.37 596.02 2.4439 1.4708 1.7616 228.28 0.26874 7.7662 0.017072
13.375 70.867 undefined 548.84 597.70 2.4490 10.000 0.10000 548.84 597.70 2.4490 1.4746 1.7643 228.77 0.26565 7.7946 0.017183 10.000 0.10000 548.84 597.70 2.4490 1.4746 1.7643 228.77 0.26565 7.7946 0.017183
14.375 71.172 undefined 550.32 599.39 2.4542 10.000 0.10000 550.32 599.39 2.4542 1.4784 1.7671 229.26 0.26260 7.8230 0.017293 10.000 0.10000 550.32 599.39 2.4542 1.4784 1.7671 229.26 0.26260 7.8230 0.017293
15.375 71.476 undefined 551.80 601.08 2.4593 10.000 0.10000 551.80 601.08 2.4593 1.4822 1.7699 229.75 0.25959 7.8513 0.017404 10.000 0.10000 551.80 601.08 2.4593 1.4822 1.7699 229.75 0.25959 7.8513 0.017404
16.375 71.781 undefined 553.28 602.78 2.4644 10.000 0.10000 553.28 602.78 2.4644 1.4861 1.7727 230.24 0.25664 7.8796 0.017515 10.000 0.10000 553.28 602.78 2.4644 1.4861 1.7727 230.24 0.25664 7.8796 0.017515
17.375 72.085 undefined 554.77 604.47 2.4696 10.000 0.10000 554.77 604.47 2.4696 1.4899 1.7756 230.73 0.25373 7.9079 0.017626 10.000 0.10000 554.77 604.47 2.4696 1.4899 1.7756 230.73 0.25373 7.9079 0.017626
18.375 72.389 undefined 556.26 606.17 2.4747 10.000 0.10000 556.26 606.17 2.4747 1.4938 1.7785 231.21 0.25087 7.9362 0.017738 10.000 0.10000 556.26 606.17 2.4747 1.4938 1.7785 231.21 0.25087 7.9362 0.017738
19.375 72.692 undefined 557.76 607.88 2.4798 10.000 0.10000 557.76 607.88 2.4798 1.4977 1.7814 231.69 0.24805 7.9645 0.017850 10.000 0.10000 557.76 607.88 2.4798 1.4977 1.7814 231.69 0.24805 7.9645 0.017850
20.375 72.996 undefined 559.26 609.59 2.4849 10.000 0.10000 559.26 609.59 2.4849 1.5016 1.7843 232.17 0.24528 7.9927 0.017962 10.000 0.10000 559.26 609.59 2.4849 1.5016 1.7843 232.17 0.24528 7.9927 0.017962
21.375 73.299 undefined 560.76 611.30 2.4901 10.000 0.10000 560.76 611.30 2.4901 1.5055 1.7873 232.65 0.24255 8.0210 0.018075 10.000 0.10000 560.76 611.30 2.4901 1.5055 1.7873 232.65 0.24255 8.0210 0.018075
22.375 73.601 undefined 562.27 613.02 2.4952 10.000 0.10000 562.27 613.02 2.4952 1.5094 1.7903 233.13 0.23986 8.0492 0.018188 10.000 0.10000 562.27 613.02 2.4952 1.5094 1.7903 233.13 0.23986 8.0492 0.018188
23.375 73.904 undefined 563.78 614.74 2.5003 10.000 0.10000 563.78 614.74 2.5003 1.5133 1.7934 233.61 0.23721 8.0774 0.018301 10.000 0.10000 563.78 614.74 2.5003 1.5133 1.7934 233.61 0.23721 8.0774 0.018301
24.375 74.206 undefined 565.30 616.46 2.5054 10.000 0.10000 565.30 616.46 2.5054 1.5173 1.7964 234.08 0.23460 8.1056 0.018414 10.000 0.10000 565.30 616.46 2.5054 1.5173 1.7964 234.08 0.23460 8.1056 0.018414
25.375 74.508 undefined 566.82 618.19 2.5105 10.000 0.10000 566.82 618.19 2.5105 1.5212 1.7995 234.56 0.23203 8.1337 0.018528 10.000 0.10000 566.82 618.19 2.5105 1.5212 1.7995 234.56 0.23203 8.1337 0.018528
26.375 74.810 undefined 568.34 619.92 2.5156 10.000 0.10000 568.34 619.92 2.5156 1.5252 1.8026 235.03 0.22950 8.1619 0.018642 10.000 0.10000 568.34 619.92 2.5156 1.5252 1.8026 235.03 0.22950 8.1619 0.018642
27.375 75.112 undefined 569.87 621.65 2.5207 10.000 0.10000 569.87 621.65 2.5207 1.5292 1.8058 235.50 0.22701 8.1900 0.018757 10.000 0.10000 569.87 621.65 2.5207 1.5292 1.8058 235.50 0.22701 8.1900 0.018757
28.375 75.413 undefined 571.40 623.39 2.5257 10.000 0.10000 571.40 623.39 2.5257 1.5332 1.8089 235.97 0.22456 8.2181 0.018871 10.000 0.10000 571.40 623.39 2.5257 1.5332 1.8089 235.97 0.22456 8.2181 0.018871
29.375 75.715 undefined 572.93 625.14 2.5308 10.000 0.10000 572.93 625.14 2.5308 1.5372 1.8121 236.44 0.22214 8.2462 0.018986 10.000 0.10000 572.93 625.14 2.5308 1.5372 1.8121 236.44 0.22214 8.2462 0.018986
30.375 76.016 undefined 574.47 626.88 2.5359 10.000 0.10000 574.47 626.88 2.5359 1.5412 1.8153 236.90 0.21976 8.2743 0.019102 10.000 0.10000 574.47 626.88 2.5359 1.5412 1.8153 236.90 0.21976 8.2743 0.019102
31.375 76.316 undefined 576.02 628.63 2.5410 10.000 0.10000 576.02 628.63 2.5410 1.5452 1.8186 237.37 0.21741 8.3024 0.019217 10.000 0.10000 576.02 628.63 2.5410 1.5452 1.8186 237.37 0.21741 8.3024 0.019217
32.375 76.617 undefined 577.56 630.39 2.5461 10.000 0.10000 577.56 630.39 2.5461 1.5493 1.8218 237.83 0.21510 8.3304 0.019333 10.000 0.10000 577.56 630.39 2.5461 1.5493 1.8218 237.83 0.21510 8.3304 0.019333
33.375 76.917 undefined 579.11 632.15 2.5511 10.000 0.10000 579.11 632.15 2.5511 1.5533 1.8251 238.29 0.21282 8.3585 0.019449 10.000 0.10000 579.11 632.15 2.5511 1.5533 1.8251 238.29 0.21282 8.3585 0.019449
34.375 77.217 undefined 580.67 633.91 2.5562 10.000 0.10000 580.67 633.91 2.5562 1.5574 1.8284 238.75 0.21058 8.3865 0.019566 10.000 0.10000 580.67 633.91 2.5562 1.5574 1.8284 238.75 0.21058 8.3865 0.019566
35.375 77.517 undefined 582.23 635.67 2.5613 10.000 0.10000 582.23 635.67 2.5613 1.5614 1.8317 239.21 0.20837 8.4145 0.019683 10.000 0.10000 582.23 635.67 2.5613 1.5614 1.8317 239.21 0.20837 8.4145 0.019683
36.375 77.817 undefined 583.79 637.44 2.5663 10.000 0.10000 583.79 637.44 2.5663 1.5655 1.8351 239.67 0.20619 8.4424 0.019800 10.000 0.10000 583.79 637.44 2.5663 1.5655 1.8351 239.67 0.20619 8.4424 0.019800
37.375 78.117 undefined 585.36 639.22 2.5714 10.000 0.10000 585.36 639.22 2.5714 1.5696 1.8384 240.13 0.20404 8.4704 0.019917 10.000 0.10000 585.36 639.22 2.5714 1.5696 1.8384 240.13 0.20404 8.4704 0.019917
38.375 78.416 undefined 586.93 641.00 2.5764 10.000 0.10000 586.93 641.00 2.5764 1.5737 1.8418 240.58 0.20193 8.4983 0.020035 10.000 0.10000 586.93 641.00 2.5764 1.5737 1.8418 240.58 0.20193 8.4983 0.020035
39.375 78.715 undefined 588.51 642.78 2.5815 10.000 0.10000 588.51 642.78 2.5815 1.5778 1.8452 241.04 0.19984 8.5262 0.020153 10.000 0.10000 588.51 642.78 2.5815 1.5778 1.8452 241.04 0.19984 8.5262 0.020153
40.375 79.014 undefined 590.09 644.56 2.5865 10.000 0.10000 590.09 644.56 2.5865 1.5819 1.8486 241.49 0.19779 8.5542 0.020271 10.000 0.10000 590.09 644.56 2.5865 1.5819 1.8486 241.49 0.19779 8.5542 0.020271
41.375 79.313 undefined 591.67 646.35 2.5916 10.000 0.10000 591.67 646.35 2.5916 1.5860 1.8521 241.94 0.19576 8.5820 0.020389 10.000 0.10000 591.67 646.35 2.5916 1.5860 1.8521 241.94 0.19576 8.5820 0.020389
42.375 79.611 undefined 593.26 648.15 2.5966 10.000 0.10000 593.26 648.15 2.5966 1.5901 1.8555 242.39 0.19376 8.6099 0.020508 10.000 0.10000 593.26 648.15 2.5966 1.5901 1.8555 242.39 0.19376 8.6099 0.020508
43.375 79.910 undefined 594.85 649.95 2.6016 10.000 0.10000 594.85 649.95 2.6016 1.5942 1.8590 242.84 0.19179 8.6378 0.020627 10.000 0.10000 594.85 649.95 2.6016 1.5942 1.8590 242.84 0.19179 8.6378 0.020627
44.375 80.208 undefined 596.45 651.75 2.6067 10.000 0.10000 596.45 651.75 2.6067 1.5984 1.8625 243.29 0.18985 8.6656 0.020747 10.000 0.10000 596.45 651.75 2.6067 1.5984 1.8625 243.29 0.18985 8.6656 0.020747
45.375 80.506 undefined 598.05 653.55 2.6117 10.000 0.10000 598.05 653.55 2.6117 1.6025 1.8660 243.74 0.18794 8.6934 0.020866 10.000 0.10000 598.05 653.55 2.6117 1.6025 1.8660 243.74 0.18794 8.6934 0.020866
46.375 80.804 undefined 599.65 655.36 2.6167 10.000 0.10000 599.65 655.36 2.6167 1.6067 1.8695 244.18 0.18605 8.7212 0.020987 10.000 0.10000 599.65 655.36 2.6167 1.6067 1.8695 244.18 0.18605 8.7212 0.020987
47.375 81.102 undefined 601.26 657.18 2.6218 10.000 0.10000 601.26 657.18 2.6218 1.6108 1.8731 244.63 0.18419 8.7490 0.021107 10.000 0.10000 601.26 657.18 2.6218 1.6108 1.8731 244.63 0.18419 8.7490 0.021107
48.375 81.399 undefined 602.87 659.00 2.6268 10.000 0.10000 602.87 659.00 2.6268 1.6150 1.8766 245.07 0.18236 8.7768 0.021227 10.000 0.10000 602.87 659.00 2.6268 1.6150 1.8766 245.07 0.18236 8.7768 0.021227
49.375 81.697 undefined 604.49 660.82 2.6318 10.000 0.10000 604.49 660.82 2.6318 1.6192 1.8802 245.51 0.18055 8.8045 0.021348 10.000 0.10000 604.49 660.82 2.6318 1.6192 1.8802 245.51 0.18055 8.8045 0.021348
50.375 81.994 undefined 606.11 662.65 2.6368 10.000 0.10000 606.11 662.65 2.6368 1.6234 1.8838 245.95 0.17877 8.8323 0.021470 10.000 0.10000 606.11 662.65 2.6368 1.6234 1.8838 245.95 0.17877 8.8323 0.021470
51.375 82.291 undefined 607.74 664.48 2.6418 10.000 0.10000 607.74 664.48 2.6418 1.6276 1.8874 246.39 0.17701 8.8600 0.021591 10.000 0.10000 607.74 664.48 2.6418 1.6276 1.8874 246.39 0.17701 8.8600 0.021591
52.375 82.588 undefined 609.37 666.31 2.6469 10.000 0.10000 609.37 666.31 2.6469 1.6317 1.8910 246.83 0.17528 8.8877 0.021713 10.000 0.10000 609.37 666.31 2.6469 1.6317 1.8910 246.83 0.17528 8.8877 0.021713
53.375 82.884 undefined 611.00 668.15 2.6519 10.000 0.10000 611.00 668.15 2.6519 1.6359 1.8947 247.27 0.17357 8.9153 0.021835 10.000 0.10000 611.00 668.15 2.6519 1.6359 1.8947 247.27 0.17357 8.9153 0.021835
54.375 83.181 undefined 612.64 669.99 2.6569 10.000 0.10000 612.64 669.99 2.6569 1.6401 1.8983 247.70 0.17188 8.9430 0.021957 10.000 0.10000 612.64 669.99 2.6569 1.6401 1.8983 247.70 0.17188 8.9430 0.021957
55.375 83.477 undefined 614.28 671.84 2.6619 10.000 0.10000 614.28 671.84 2.6619 1.6444 1.9020 248.14 0.17021 8.9706 0.022080 10.000 0.10000 614.28 671.84 2.6619 1.6444 1.9020 248.14 0.17021 8.9706 0.022080
56.375 83.774 undefined 615.93 673.69 2.6669 10.000 0.10000 615.93 673.69 2.6669 1.6486 1.9056 248.57 0.16857 8.9983 0.022203 10.000 0.10000 615.93 673.69 2.6669 1.6486 1.9056 248.57 0.16857 8.9983 0.022203
57.375 84.070 undefined 617.58 675.54 2.6719 10.000 0.10000 617.58 675.54 2.6719 1.6528 1.9093 249.01 0.16695 9.0259 0.022326 10.000 0.10000 617.58 675.54 2.6719 1.6528 1.9093 249.01 0.16695 9.0259 0.022326
58.375 84.366 undefined 619.23 677.40 2.6769 10.000 0.10000 619.23 677.40 2.6769 1.6570 1.9130 249.44 0.16536 9.0535 0.022450 10.000 0.10000 619.23 677.40 2.6769 1.6570 1.9130 249.44 0.16536 9.0535 0.022450
59.375 84.661 undefined 620.89 679.26 2.6819 10.000 0.10000 620.89 679.26 2.6819 1.6612 1.9167 249.87 0.16378 9.0810 0.022574 10.000 0.10000 620.89 679.26 2.6819 1.6612 1.9167 249.87 0.16378 9.0810 0.022574
60.375 84.957 undefined 622.56 681.13 2.6869 10.000 0.10000 622.56 681.13 2.6869 1.6655 1.9204 250.30 0.16223 9.1086 0.022698 10.000 0.10000 622.56 681.13 2.6869 1.6655 1.9204 250.30 0.16223 9.1086 0.022698
61.375 85.253 undefined 624.22 683.00 2.6919 10.000 0.10000 624.22 683.00 2.6919 1.6697 1.9242 250.73 0.16069 9.1361 0.022822 10.000 0.10000 624.22 683.00 2.6919 1.6697 1.9242 250.73 0.16069 9.1361 0.022822
62.375 85.548 undefined 625.90 684.88 2.6969 10.000 0.10000 625.90 684.88 2.6969 1.6740 1.9279 251.16 0.15918 9.1637 0.022947 10.000 0.10000 625.90 684.88 2.6969 1.6740 1.9279 251.16 0.15918 9.1637 0.022947
63.375 85.843 undefined 627.57 686.76 2.7019 10.000 0.10000 627.57 686.76 2.7019 1.6782 1.9317 251.58 0.15768 9.1912 0.023072 10.000 0.10000 627.57 686.76 2.7019 1.6782 1.9317 251.58 0.15768 9.1912 0.023072
64.375 86.138 undefined 629.25 688.64 2.7068 10.000 0.10000 629.25 688.64 2.7068 1.6825 1.9354 252.01 0.15621 9.2187 0.023197 10.000 0.10000 629.25 688.64 2.7068 1.6825 1.9354 252.01 0.15621 9.2187 0.023197
65.375 86.433 undefined 630.94 690.53 2.7118 10.000 0.10000 630.94 690.53 2.7118 1.6867 1.9392 252.43 0.15476 9.2461 0.023323 10.000 0.10000 630.94 690.53 2.7118 1.6867 1.9392 252.43 0.15476 9.2461 0.023323
66.375 86.728 undefined 632.63 692.42 2.7168 10.000 0.10000 632.63 692.42 2.7168 1.6910 1.9430 252.86 0.15332 9.2736 0.023449 10.000 0.10000 632.63 692.42 2.7168 1.6910 1.9430 252.86 0.15332 9.2736 0.023449
67.375 87.023 undefined 634.32 694.32 2.7218 10.000 0.10000 634.32 694.32 2.7218 1.6952 1.9468 253.28 0.15191 9.3010 0.023575 10.000 0.10000 634.32 694.32 2.7218 1.6952 1.9468 253.28 0.15191 9.3010 0.023575
68.375 87.317 undefined 636.02 696.22 2.7268 10.000 0.10000 636.02 696.22 2.7268 1.6995 1.9506 253.70 0.15051 9.3284 0.023702 10.000 0.10000 636.02 696.22 2.7268 1.6995 1.9506 253.70 0.15051 9.3284 0.023702
69.375 87.612 undefined 637.72 698.12 2.7317 10.000 0.10000 637.72 698.12 2.7317 1.7038 1.9544 254.12 0.14913 9.3558 0.023829 10.000 0.10000 637.72 698.12 2.7317 1.7038 1.9544 254.12 0.14913 9.3558 0.023829
70.375 87.906 undefined 639.42 700.03 2.7367 10.000 0.10000 639.42 700.03 2.7367 1.7080 1.9582 254.54 0.14777 9.3832 0.023956 10.000 0.10000 639.42 700.03 2.7367 1.7080 1.9582 254.54 0.14777 9.3832 0.023956
71.375 88.200 undefined 641.13 701.95 2.7417 10.000 0.10000 641.13 701.95 2.7417 1.7123 1.9620 254.96 0.14642 9.4106 0.024083 10.000 0.10000 641.13 701.95 2.7417 1.7123 1.9620 254.96 0.14642 9.4106 0.024083
72.375 88.494 undefined 642.85 703.86 2.7466 10.000 0.10000 642.85 703.86 2.7466 1.7166 1.9659 255.38 0.14510 9.4379 0.024211 10.000 0.10000 642.85 703.86 2.7466 1.7166 1.9659 255.38 0.14510 9.4379 0.024211
73.375 88.788 undefined 644.57 705.78 2.7516 10.000 0.10000 644.57 705.78 2.7516 1.7209 1.9697 255.80 0.14379 9.4652 0.024339 10.000 0.10000 644.57 705.78 2.7516 1.7209 1.9697 255.80 0.14379 9.4652 0.024339
74.375 89.082 undefined 646.29 707.71 2.7566 10.000 0.10000 646.29 707.71 2.7566 1.7252 1.9736 256.22 0.14250 9.4925 0.024467 10.000 0.10000 646.29 707.71 2.7566 1.7252 1.9736 256.22 0.14250 9.4925 0.024467
75.375 89.376 undefined 648.02 709.64 2.7615 10.000 0.10000 648.02 709.64 2.7615 1.7294 1.9774 256.63 0.14122 9.5198 0.024596 10.000 0.10000 648.02 709.64 2.7615 1.7294 1.9774 256.63 0.14122 9.5198 0.024596
76.375 89.669 undefined 649.75 711.57 2.7665 10.000 0.10000 649.75 711.57 2.7665 1.7337 1.9813 257.05 0.13996 9.5471 0.024724 10.000 0.10000 649.75 711.57 2.7665 1.7337 1.9813 257.05 0.13996 9.5471 0.024724
77.375 89.963 undefined 651.48 713.51 2.7715 10.000 0.10000 651.48 713.51 2.7715 1.7380 1.9852 257.46 0.13872 9.5744 0.024854 10.000 0.10000 651.48 713.51 2.7715 1.7380 1.9852 257.46 0.13872 9.5744 0.024854
78.375 90.256 undefined 653.22 715.45 2.7764 10.000 0.10000 653.22 715.45 2.7764 1.7423 1.9891 257.87 0.13749 9.6016 0.024983 10.000 0.10000 653.22 715.45 2.7764 1.7423 1.9891 257.87 0.13749 9.6016 0.024983
79.375 90.549 undefined 654.97 717.40 2.7814 10.000 0.10000 654.97 717.40 2.7814 1.7466 1.9930 258.28 0.13628 9.6288 0.025113 10.000 0.10000 654.97 717.40 2.7814 1.7466 1.9930 258.28 0.13628 9.6288 0.025113
80.375 90.842 undefined 656.72 719.35 2.7863 10.000 0.10000 656.72 719.35 2.7863 1.7509 1.9969 258.70 0.13508 9.6560 0.025243 10.000 0.10000 656.72 719.35 2.7863 1.7509 1.9969 258.70 0.13508 9.6560 0.025243
81.375 91.135 undefined 658.47 721.31 2.7913 10.000 0.10000 658.47 721.31 2.7913 1.7552 2.0008 259.11 0.13390 9.6832 0.025373 10.000 0.10000 658.47 721.31 2.7913 1.7552 2.0008 259.11 0.13390 9.6832 0.025373
82.375 91.428 undefined 660.23 723.27 2.7962 10.000 0.10000 660.23 723.27 2.7962 1.7595 2.0047 259.52 0.13273 9.7104 0.025504 10.000 0.10000 660.23 723.27 2.7962 1.7595 2.0047 259.52 0.13273 9.7104 0.025504
83.375 91.721 undefined 661.99 725.23 2.8012 10.000 0.10000 661.99 725.23 2.8012 1.7638 2.0086 259.92 0.13158 9.7375 0.025635 10.000 0.10000 661.99 725.23 2.8012 1.7638 2.0086 259.92 0.13158 9.7375 0.025635
84.375 92.014 undefined 663.76 727.20 2.8061 10.000 0.10000 663.76 727.20 2.8061 1.7681 2.0125 260.33 0.13044 9.7647 0.025766 10.000 0.10000 663.76 727.20 2.8061 1.7681 2.0125 260.33 0.13044 9.7647 0.025766
85.375 92.306 undefined 665.53 729.17 2.8111 10.000 0.10000 665.53 729.17 2.8111 1.7724 2.0165 260.74 0.12931 9.7918 0.025897 10.000 0.10000 665.53 729.17 2.8111 1.7724 2.0165 260.74 0.12931 9.7918 0.025897
86.375 92.599 undefined 667.30 731.15 2.8160 10.000 0.10000 667.30 731.15 2.8160 1.7767 2.0204 261.14 0.12820 9.8189 0.026029 10.000 0.10000 667.30 731.15 2.8160 1.7767 2.0204 261.14 0.12820 9.8189 0.026029
87.375 92.891 undefined 669.08 733.13 2.8210 10.000 0.10000 669.08 733.13 2.8210 1.7810 2.0244 261.55 0.12711 9.8460 0.026161 10.000 0.10000 669.08 733.13 2.8210 1.7810 2.0244 261.55 0.12711 9.8460 0.026161
88.375 93.183 undefined 670.86 735.11 2.8259 10.000 0.10000 670.86 735.11 2.8259 1.7853 2.0283 261.95 0.12602 9.8730 0.026294 10.000 0.10000 670.86 735.11 2.8259 1.7853 2.0283 261.95 0.12602 9.8730 0.026294
89.375 93.476 undefined 672.65 737.10 2.8308 10.000 0.10000 672.65 737.10 2.8308 1.7896 2.0323 262.36 0.12496 9.9001 0.026426 10.000 0.10000 672.65 737.10 2.8308 1.7896 2.0323 262.36 0.12496 9.9001 0.026426
90.375 93.768 undefined 674.44 739.09 2.8358 10.000 0.10000 674.44 739.09 2.8358 1.7940 2.0362 262.76 0.12390 9.9271 0.026559 10.000 0.10000 674.44 739.09 2.8358 1.7940 2.0362 262.76 0.12390 9.9271 0.026559
91.375 94.060 undefined 676.24 741.09 2.8407 10.000 0.10000 676.24 741.09 2.8407 1.7983 2.0402 263.16 0.12285 9.9541 0.026693 10.000 0.10000 676.24 741.09 2.8407 1.7983 2.0402 263.16 0.12285 9.9541 0.026693
92.375 94.352 undefined 678.04 743.09 2.8456 10.000 0.10000 678.04 743.09 2.8456 1.8026 2.0442 263.57 0.12182 9.9811 0.026826 10.000 0.10000 678.04 743.09 2.8456 1.8026 2.0442 263.57 0.12182 9.9811 0.026826
93.375 94.643 undefined 679.84 745.10 2.8506 10.000 0.10000 679.84 745.10 2.8506 1.8069 2.0481 263.97 0.12081 10.008 0.026960 10.000 0.10000 679.84 745.10 2.8506 1.8069 2.0481 263.97 0.12081 10.008 0.026960
94.375 94.935 undefined 681.65 747.11 2.8555 10.000 0.10000 681.65 747.11 2.8555 1.8112 2.0521 264.37 0.11980 10.035 0.027094 10.000 0.10000 681.65 747.11 2.8555 1.8112 2.0521 264.37 0.11980 10.035 0.027094
95.375 95.227 undefined 683.47 749.12 2.8604 10.000 0.10000 683.47 749.12 2.8604 1.8155 2.0561 264.77 0.11880 10.062 0.027229 10.000 0.10000 683.47 749.12 2.8604 1.8155 2.0561 264.77 0.11880 10.062 0.027229
96.375 95.518 undefined 685.28 751.14 2.8653 10.000 0.10000 685.28 751.14 2.8653 1.8198 2.0601 265.16 0.11782 10.089 0.027363 10.000 0.10000 685.28 751.14 2.8653 1.8198 2.0601 265.16 0.11782 10.089 0.027363
97.375 95.810 undefined 687.11 753.16 2.8703 10.000 0.10000 687.11 753.16 2.8703 1.8241 2.0641 265.56 0.11685 10.116 0.027498 10.000 0.10000 687.11 753.16 2.8703 1.8241 2.0641 265.56 0.11685 10.116 0.027498
98.375 96.101 undefined 688.93 755.19 2.8752 10.000 0.10000 688.93 755.19 2.8752 1.8285 2.0681 265.96 0.11589 10.143 0.027634 10.000 0.10000 688.93 755.19 2.8752 1.8285 2.0681 265.96 0.11589 10.143 0.027634
99.375 96.392 undefined 690.76 757.22 2.8801 10.000 0.10000 690.76 757.22 2.8801 1.8328 2.0721 266.35 0.11495 10.170 0.027769 10.000 0.10000 690.76 757.22 2.8801 1.8328 2.0721 266.35 0.11495 10.170 0.027769
100.38 96.683 undefined 692.60 759.26 2.8850 10.000 0.10000 692.60 759.26 2.8850 1.8371 2.0761 266.75 0.11401 10.196 0.027905 10.000 0.10000 692.60 759.26 2.8850 1.8371 2.0761 266.75 0.11401 10.196 0.027905
101.38 96.974 undefined 694.44 761.30 2.8900 10.000 0.10000 694.44 761.30 2.8900 1.8414 2.0801 267.14 0.11308 10.223 0.028041 10.000 0.10000 694.44 761.30 2.8900 1.8414 2.0801 267.14 0.11308 10.223 0.028041
102.38 97.265 undefined 696.28 763.34 2.8949 10.000 0.10000 696.28 763.34 2.8949 1.8457 2.0841 267.54 0.11217 10.250 0.028178 10.000 0.10000 696.28 763.34 2.8949 1.8457 2.0841 267.54 0.11217 10.250 0.028178
103.38 97.556 undefined 698.13 765.39 2.8998 10.000 0.10000 698.13 765.39 2.8998 1.8500 2.0881 267.93 0.11127 10.277 0.028315 10.000 0.10000 698.13 765.39 2.8998 1.8500 2.0881 267.93 0.11127 10.277 0.028315
104.38 97.847 undefined 699.98 767.44 2.9047 10.000 0.10000 699.98 767.44 2.9047 1.8544 2.0921 268.32 0.11037 10.304 0.028452 10.000 0.10000 699.98 767.44 2.9047 1.8544 2.0921 268.32 0.11037 10.304 0.028452
105.38 98.138 undefined 701.84 769.50 2.9096 10.000 0.10000 701.84 769.50 2.9096 1.8587 2.0962 268.72 0.10949 10.330 0.028589 10.000 0.10000 701.84 769.50 2.9096 1.8587 2.0962 268.72 0.10949 10.330 0.028589
106.38 98.429 undefined 703.70 771.56 2.9145 10.000 0.10000 703.70 771.56 2.9145 1.8630 2.1002 269.11 0.10862 10.357 0.028727 10.000 0.10000 703.70 771.56 2.9145 1.8630 2.1002 269.11 0.10862 10.357 0.028727
107.38 98.719 undefined 705.56 773.63 2.9194 10.000 0.10000 705.56 773.63 2.9194 1.8673 2.1042 269.50 0.10776 10.384 0.028865 10.000 0.10000 705.56 773.63 2.9194 1.8673 2.1042 269.50 0.10776 10.384 0.028865
108.38 99.010 undefined 707.43 775.70 2.9243 10.000 0.10000 707.43 775.70 2.9243 1.8716 2.1082 269.89 0.10691 10.410 0.029003 10.000 0.10000 707.43 775.70 2.9243 1.8716 2.1082 269.89 0.10691 10.410 0.029003
109.38 99.300 undefined 709.31 777.77 2.9292 10.000 0.10000 709.31 777.77 2.9292 1.8759 2.1123 270.28 0.10606 10.437 0.029141 10.000 0.10000 709.31 777.77 2.9292 1.8759 2.1123 270.28 0.10606 10.437 0.029141
110.38 99.590 undefined 711.18 779.85 2.9341 10.000 0.10000 711.18 779.85 2.9341 1.8802 2.1163 270.66 0.10523 10.464 0.029280 10.000 0.10000 711.18 779.85 2.9341 1.8802 2.1163 270.66 0.10523 10.464 0.029280
111.38 99.881 undefined 713.07 781.93 2.9390 10.000 0.10000 713.07 781.93 2.9390 1.8845 2.1203 271.05 0.10441 10.490 0.029419 10.000 0.10000 713.07 781.93 2.9390 1.8845 2.1203 271.05 0.10441 10.490 0.029419
112.38 100.17 undefined 714.95 784.02 2.9439 10.000 0.10000 714.95 784.02 2.9439 1.8888 2.1244 271.44 0.10360 10.517 0.029559 10.000 0.10000 714.95 784.02 2.9439 1.8888 2.1244 271.44 0.10360 10.517 0.029559
113.38 100.46 undefined 716.84 786.11 2.9488 10.000 0.10000 716.84 786.11 2.9488 1.8932 2.1284 271.83 0.10279 10.544 0.029698 10.000 0.10000 716.84 786.11 2.9488 1.8932 2.1284 271.83 0.10279 10.544 0.029698
114.38 100.75 undefined 718.74 788.20 2.9537 10.000 0.10000 718.74 788.20 2.9537 1.8975 2.1325 272.21 0.10200 10.570 0.029838 10.000 0.10000 718.74 788.20 2.9537 1.8975 2.1325 272.21 0.10200 10.570 0.029838
115.38 101.04 undefined 720.64 790.30 2.9586 10.000 0.10000 720.64 790.30 2.9586 1.9018 2.1365 272.60 0.10121 10.597 0.029979 10.000 0.10000 720.64 790.30 2.9586 1.9018 2.1365 272.60 0.10121 10.597 0.029979
116.38 101.33 undefined 722.54 792.41 2.9635 10.000 0.10000 722.54 792.41 2.9635 1.9061 2.1406 272.98 0.10043 10.623 0.030119 10.000 0.10000 722.54 792.41 2.9635 1.9061 2.1406 272.98 0.10043 10.623 0.030119
117.38 101.62 undefined 724.45 794.52 2.9684 10.000 0.10000 724.45 794.52 2.9684 1.9104 2.1446 273.37 0.099665 10.650 0.030260 10.000 0.10000 724.45 794.52 2.9684 1.9104 2.1446 273.37 0.099665 10.650 0.030260
118.38 101.91 undefined 726.36 796.63 2.9733 10.000 0.10000 726.36 796.63 2.9733 1.9147 2.1487 273.75 0.098905 10.677 0.030401 10.000 0.10000 726.36 796.63 2.9733 1.9147 2.1487 273.75 0.098905 10.677 0.030401
119.38 102.20 undefined 728.28 798.74 2.9782 10.000 0.10000 728.28 798.74 2.9782 1.9190 2.1527 274.13 0.098154 10.703 0.030543 10.000 0.10000 728.28 798.74 2.9782 1.9190 2.1527 274.13 0.098154 10.703 0.030543
120.38 102.49 undefined 730.20 800.87 2.9831 10.000 0.10000 730.20 800.87 2.9831 1.9233 2.1568 274.51 0.097411 10.730 0.030685 10.000 0.10000 730.20 800.87 2.9831 1.9233 2.1568 274.51 0.097411 10.730 0.030685
121.38 102.78 undefined 732.13 802.99 2.9880 10.000 0.10000 732.13 802.99 2.9880 1.9276 2.1608 274.89 0.096677 10.756 0.030827 10.000 0.10000 732.13 802.99 2.9880 1.9276 2.1608 274.89 0.096677 10.756 0.030827
122.38 103.07 undefined 734.06 805.12 2.9929 10.000 0.10000 734.06 805.12 2.9929 1.9319 2.1649 275.27 0.095951 10.782 0.030969 10.000 0.10000 734.06 805.12 2.9929 1.9319 2.1649 275.27 0.095951 10.782 0.030969
123.38 103.36 undefined 735.99 807.25 2.9977 10.000 0.10000 735.99 807.25 2.9977 1.9362 2.1689 275.65 0.095232 10.809 0.031112 10.000 0.10000 735.99 807.25 2.9977 1.9362 2.1689 275.65 0.095232 10.809 0.031112
124.38 103.65 undefined 737.93 809.39 3.0026 10.000 0.10000 737.93 809.39 3.0026 1.9405 2.1730 276.03 0.094522 10.835 0.031255 10.000 0.10000 737.93 809.39 3.0026 1.9405 2.1730 276.03 0.094522 10.835 0.031255
125.38 103.94 undefined 739.87 811.53 3.0075 10.000 0.10000 739.87 811.53 3.0075 1.9448 2.1770 276.41 0.093819 10.862 0.031398 10.000 0.10000 739.87 811.53 3.0075 1.9448 2.1770 276.41 0.093819 10.862 0.031398
126.38 104.23 undefined 741.82 813.68 3.0124 10.000 0.10000 741.82 813.68 3.0124 1.9490 2.1811 276.79 0.093125 10.888 0.031541 10.000 0.10000 741.82 813.68 3.0124 1.9490 2.1811 276.79 0.093125 10.888 0.031541
127.38 104.52 undefined 743.77 815.83 3.0173 10.000 0.10000 743.77 815.83 3.0173 1.9533 2.1851 277.17 0.092437 10.914 0.031685 10.000 0.10000 743.77 815.83 3.0173 1.9533 2.1851 277.17 0.092437 10.914 0.031685
128.38 104.80 undefined 745.73 817.99 3.0221 10.000 0.10000 745.73 817.99 3.0221 1.9576 2.1892 277.55 0.091758 10.941 0.031829 10.000 0.10000 745.73 817.99 3.0221 1.9576 2.1892 277.55 0.091758 10.941 0.031829
129.38 105.09 undefined 747.68 820.14 3.0270 10.000 0.10000 747.68 820.14 3.0270 1.9619 2.1933 277.92 0.091085 10.967 0.031974 10.000 0.10000 747.68 820.14 3.0270 1.9619 2.1933 277.92 0.091085 10.967 0.031974
130.38 105.38 undefined 749.65 822.31 3.0319 10.000 0.10000 749.65 822.31 3.0319 1.9662 2.1973 278.30 0.090420 10.993 0.032118 10.000 0.10000 749.65 822.31 3.0319 1.9662 2.1973 278.30 0.090420 10.993 0.032118
131.38 105.67 undefined 751.62 824.48 3.0368 10.000 0.10000 751.62 824.48 3.0368 1.9705 2.2014 278.67 0.089762 11.020 0.032263 10.000 0.10000 751.62 824.48 3.0368 1.9705 2.2014 278.67 0.089762 11.020 0.032263
132.38 105.96 undefined 753.59 826.65 3.0416 10.000 0.10000 753.59 826.65 3.0416 1.9747 2.2054 279.05 0.089112 11.046 0.032408 10.000 0.10000 753.59 826.65 3.0416 1.9747 2.2054 279.05 0.089112 11.046 0.032408
133.38 106.25 undefined 755.57 828.82 3.0465 10.000 0.10000 755.57 828.82 3.0465 1.9790 2.2095 279.42 0.088468 11.072 0.032554 10.000 0.10000 755.57 828.82 3.0465 1.9790 2.2095 279.42 0.088468 11.072 0.032554
134.38 106.54 undefined 757.55 831.00 3.0514 10.000 0.10000 757.55 831.00 3.0514 1.9833 2.2135 279.80 0.087831 11.098 0.032700 10.000 0.10000 757.55 831.00 3.0514 1.9833 2.2135 279.80 0.087831 11.098 0.032700
135.38 106.83 undefined 759.53 833.19 3.0562 10.000 0.10000 759.53 833.19 3.0562 1.9875 2.2176 280.17 0.087201 11.125 0.032846 10.000 0.10000 759.53 833.19 3.0562 1.9875 2.2176 280.17 0.087201 11.125 0.032846
136.38 107.12 undefined 761.52 835.38 3.0611 10.000 0.10000 761.52 835.38 3.0611 1.9918 2.2217 280.54 0.086577 11.151 0.032992 10.000 0.10000 761.52 835.38 3.0611 1.9918 2.2217 280.54 0.086577 11.151 0.032992
137.38 107.40 undefined 763.52 837.57 3.0660 10.000 0.10000 763.52 837.57 3.0660 1.9961 2.2257 280.91 0.085960 11.177 0.033139 10.000 0.10000 763.52 837.57 3.0660 1.9961 2.2257 280.91 0.085960 11.177 0.033139
138.38 107.69 undefined 765.52 839.77 3.0708 10.000 0.10000 765.52 839.77 3.0708 2.0003 2.2298 281.28 0.085350 11.203 0.033286 10.000 0.10000 765.52 839.77 3.0708 2.0003 2.2298 281.28 0.085350 11.203 0.033286
139.38 107.98 undefined 767.52 841.97 3.0757 10.000 0.10000 767.52 841.97 3.0757 2.0046 2.2338 281.65 0.084746 11.229 0.033433 10.000 0.10000 767.52 841.97 3.0757 2.0046 2.2338 281.65 0.084746 11.229 0.033433
140.38 108.27 undefined 769.52 844.17 3.0805 10.000 0.10000 769.52 844.17 3.0805 2.0089 2.2379 282.02 0.084149 11.255 0.033581 10.000 0.10000 769.52 844.17 3.0805 2.0089 2.2379 282.02 0.084149 11.255 0.033581
141.38 108.56 undefined 771.54 846.38 3.0854 10.000 0.10000 771.54 846.38 3.0854 2.0131 2.2419 282.39 0.083557 11.281 0.033729 10.000 0.10000 771.54 846.38 3.0854 2.0131 2.2419 282.39 0.083557 11.281 0.033729
142.38 108.85 undefined 773.55 848.60 3.0902 10.000 0.10000 773.55 848.60 3.0902 2.0174 2.2460 282.76 0.082972 11.308 0.033877 10.000 0.10000 773.55 848.60 3.0902 2.0174 2.2460 282.76 0.082972 11.308 0.033877
143.38 109.13 undefined 775.57 850.82 3.0951 10.000 0.10000 775.57 850.82 3.0951 2.0216 2.2500 283.13 0.082393 11.334 0.034026 10.000 0.10000 775.57 850.82 3.0951 2.0216 2.2500 283.13 0.082393 11.334 0.034026
144.38 109.42 undefined 777.59 853.04 3.1000 10.000 0.10000 777.59 853.04 3.1000 2.0259 2.2541 283.50 0.081820 11.360 0.034174 10.000 0.10000 777.59 853.04 3.1000 2.0259 2.2541 283.50 0.081820 11.360 0.034174
145.38 109.71 undefined 779.62 855.26 3.1048 10.000 0.10000 779.62 855.26 3.1048 2.0301 2.2581 283.87 0.081253 11.386 0.034323 10.000 0.10000 779.62 855.26 3.1048 2.0301 2.2581 283.87 0.081253 11.386 0.034323
146.38 110.00 undefined 781.65 857.50 3.1097 10.000 0.10000 781.65 857.50 3.1097 2.0343 2.2622 284.23 0.080692 11.412 0.034473 10.000 0.10000 781.65 857.50 3.1097 2.0343 2.2622 284.23 0.080692 11.412 0.034473
147.38 110.29 undefined 783.69 859.73 3.1145 10.000 0.10000 783.69 859.73 3.1145 2.0386 2.2662 284.60 0.080136 11.438 0.034622 10.000 0.10000 783.69 859.73 3.1145 2.0386 2.2662 284.60 0.080136 11.438 0.034622
148.38 110.58 undefined 785.73 861.97 3.1194 10.000 0.10000 785.73 861.97 3.1194 2.0428 2.2703 284.97 0.079586 11.464 0.034772 10.000 0.10000 785.73 861.97 3.1194 2.0428 2.2703 284.97 0.079586 11.464 0.034772
149.38 110.86 undefined 787.78 864.21 3.1242 10.000 0.10000 787.78 864.21 3.1242 2.0470 2.2743 285.33 0.079042 11.490 0.034923 10.000 0.10000 787.78 864.21 3.1242 2.0470 2.2743 285.33 0.079042 11.490 0.034923
150.38 111.15 undefined 789.83 866.46 3.1290 10.000 0.10000 789.83 866.46 3.1290 2.0513 2.2784 285.70 0.078503 11.516 0.035073 10.000 0.10000 789.83 866.46 3.1290 2.0513 2.2784 285.70 0.078503 11.516 0.035073
151.38 111.44 undefined 791.88 868.71 3.1339 10.000 0.10000 791.88 868.71 3.1339 2.0555 2.2824 286.06 0.077970 11.541 0.035224 10.000 0.10000 791.88 868.71 3.1339 2.0555 2.2824 286.06 0.077970 11.541 0.035224
152.38 111.73 undefined 793.94 870.97 3.1387 10.000 0.10000 793.94 870.97 3.1387 2.0597 2.2865 286.42 0.077442 11.567 0.035375 10.000 0.10000 793.94 870.97 3.1387 2.0597 2.2865 286.42 0.077442 11.567 0.035375
153.38 112.01 undefined 796.00 873.23 3.1436 10.000 0.10000 796.00 873.23 3.1436 2.0639 2.2905 286.79 0.076920 11.593 0.035526 10.000 0.10000 796.00 873.23 3.1436 2.0639 2.2905 286.79 0.076920 11.593 0.035526
154.38 112.30 undefined 798.06 875.49 3.1484 10.000 0.10000 798.06 875.49 3.1484 2.0681 2.2945 287.15 0.076402 11.619 0.035678 10.000 0.10000 798.06 875.49 3.1484 2.0681 2.2945 287.15 0.076402 11.619 0.035678
155.38 112.59 undefined 800.13 877.76 3.1532 10.000 0.10000 800.13 877.76 3.1532 2.0723 2.2986 287.51 0.075890 11.645 0.035830 10.000 0.10000 800.13 877.76 3.1532 2.0723 2.2986 287.51 0.075890 11.645 0.035830
156.38 112.88 undefined 802.21 880.04 3.1581 10.000 0.10000 802.21 880.04 3.1581 2.0766 2.3026 287.87 0.075383 11.671 0.035982 10.000 0.10000 802.21 880.04 3.1581 2.0766 2.3026 287.87 0.075383 11.671 0.035982
157.38 113.17 undefined 804.29 882.31 3.1629 10.000 0.10000 804.29 882.31 3.1629 2.0808 2.3067 288.23 0.074881 11.697 0.036135 10.000 0.10000 804.29 882.31 3.1629 2.0808 2.3067 288.23 0.074881 11.697 0.036135
158.38 113.45 undefined 806.37 884.59 3.1677 10.000 0.10000 806.37 884.59 3.1677 2.0850 2.3107 288.60 0.074384 11.722 0.036288 10.000 0.10000 806.37 884.59 3.1677 2.0850 2.3107 288.60 0.074384 11.722 0.036288
159.38 113.74 undefined 808.46 886.88 3.1726 10.000 0.10000 808.46 886.88 3.1726 2.0892 2.3147 288.96 0.073892 11.748 0.036441 10.000 0.10000 808.46 886.88 3.1726 2.0892 2.3147 288.96 0.073892 11.748 0.036441
160.38 114.03 undefined 810.55 889.17 3.1774 10.000 0.10000 810.55 889.17 3.1774 2.0933 2.3187 289.31 0.073405 11.774 0.036594 10.000 0.10000 810.55 889.17 3.1774 2.0933 2.3187 289.31 0.073405 11.774 0.036594
161.38 114.32 undefined 812.64 891.46 3.1822 10.000 0.10000 812.64 891.46 3.1822 2.0975 2.3228 289.67 0.072923 11.800 0.036748 10.000 0.10000 812.64 891.46 3.1822 2.0975 2.3228 289.67 0.072923 11.800 0.036748
162.38 114.60 undefined 814.74 893.76 3.1871 10.000 0.10000 814.74 893.76 3.1871 2.1017 2.3268 290.03 0.072445 11.825 0.036902 10.000 0.10000 814.74 893.76 3.1871 2.1017 2.3268 290.03 0.072445 11.825 0.036902
163.38 114.89 undefined 816.85 896.06 3.1919 10.000 0.10000 816.85 896.06 3.1919 2.1059 2.3308 290.39 0.071972 11.851 0.037056 10.000 0.10000 816.85 896.06 3.1919 2.1059 2.3308 290.39 0.071972 11.851 0.037056
164.38 115.18 undefined 818.96 898.37 3.1967 10.000 0.10000 818.96 898.37 3.1967 2.1101 2.3348 290.75 0.071503 11.877 0.037211 10.000 0.10000 818.96 898.37 3.1967 2.1101 2.3348 290.75 0.071503 11.877 0.037211
165.38 115.47 undefined 821.07 900.68 3.2015 10.000 0.10000 821.07 900.68 3.2015 2.1143 2.3388 291.11 0.071039 11.902 0.037366 10.000 0.10000 821.07 900.68 3.2015 2.1143 2.3388 291.11 0.071039 11.902 0.037366
166.38 115.75 undefined 823.18 902.99 3.2063 10.000 0.10000 823.18 902.99 3.2063 2.1184 2.3429 291.46 0.070580 11.928 0.037521 10.000 0.10000 823.18 902.99 3.2063 2.1184 2.3429 291.46 0.070580 11.928 0.037521
167.38 116.04 undefined 825.30 905.31 3.2112 10.000 0.10000 825.30 905.31 3.2112 2.1226 2.3469 291.82 0.070125 11.954 0.037676 10.000 0.10000 825.30 905.31 3.2112 2.1226 2.3469 291.82 0.070125 11.954 0.037676
168.38 116.33 undefined 827.43 907.63 3.2160 10.000 0.10000 827.43 907.63 3.2160 2.1268 2.3509 292.17 0.069674 11.979 0.037832 10.000 0.10000 827.43 907.63 3.2160 2.1268 2.3509 292.17 0.069674 11.979 0.037832
169.38 116.61 undefined 829.56 909.96 3.2208 10.000 0.10000 829.56 909.96 3.2208 2.1309 2.3549 292.53 0.069228 12.005 0.037988 10.000 0.10000 829.56 909.96 3.2208 2.1309 2.3549 292.53 0.069228 12.005 0.037988
170.38 116.90 undefined 831.69 912.29 3.2256 10.000 0.10000 831.69 912.29 3.2256 2.1351 2.3589 292.88 0.068786 12.030 0.038145 10.000 0.10000 831.69 912.29 3.2256 2.1351 2.3589 292.88 0.068786 12.030 0.038145
171.38 117.19 undefined 833.83 914.63 3.2304 10.000 0.10000 833.83 914.63 3.2304 2.1392 2.3629 293.24 0.068348 12.056 0.038301 10.000 0.10000 833.83 914.63 3.2304 2.1392 2.3629 293.24 0.068348 12.056 0.038301
172.38 117.48 undefined 835.97 916.97 3.2352 10.000 0.10000 835.97 916.97 3.2352 2.1434 2.3669 293.59 0.067914 12.081 0.038458 10.000 0.10000 835.97 916.97 3.2352 2.1434 2.3669 293.59 0.067914 12.081 0.038458
173.38 117.76 undefined 838.11 919.31 3.2400 10.000 0.10000 838.11 919.31 3.2400 2.1475 2.3709 293.95 0.067485 12.107 0.038615 10.000 0.10000 838.11 919.31 3.2400 2.1475 2.3709 293.95 0.067485 12.107 0.038615
174.38 118.05 undefined 840.26 921.66 3.2449 10.000 0.10000 840.26 921.66 3.2449 2.1516 2.3749 294.30 0.067059 12.132 0.038773 10.000 0.10000 840.26 921.66 3.2449 2.1516 2.3749 294.30 0.067059 12.132 0.038773
175.38 118.34 undefined 842.42 924.01 3.2497 10.000 0.10000 842.42 924.01 3.2497 2.1558 2.3789 294.65 0.066637 12.158 0.038931 10.000 0.10000 842.42 924.01 3.2497 2.1558 2.3789 294.65 0.066637 12.158 0.038931
176.38 118.62 undefined 844.58 926.36 3.2545 10.000 0.10000 844.58 926.36 3.2545 2.1599 2.3829 295.00 0.066220 12.183 0.039089 10.000 0.10000 844.58 926.36 3.2545 2.1599 2.3829 295.00 0.066220 12.183 0.039089
177.38 118.91 undefined 846.74 928.72 3.2593 10.000 0.10000 846.74 928.72 3.2593 2.1640 2.3868 295.35 0.065806 12.209 0.039247 10.000 0.10000 846.74 928.72 3.2593 2.1640 2.3868 295.35 0.065806 12.209 0.039247
178.38 119.20 undefined 848.90 931.09 3.2641 10.000 0.10000 848.90 931.09 3.2641 2.1682 2.3908 295.71 0.065396 12.234 0.039406 10.000 0.10000 848.90 931.09 3.2641 2.1682 2.3908 295.71 0.065396 12.234 0.039406
179.38 119.48 undefined 851.07 933.45 3.2689 10.000 0.10000 851.07 933.45 3.2689 2.1723 2.3948 296.06 0.064990 12.259 0.039565 10.000 0.10000 851.07 933.45 3.2689 2.1723 2.3948 296.06 0.064990 12.259 0.039565
180.38 119.77 undefined 853.25 935.83 3.2737 10.000 0.10000 853.25 935.83 3.2737 2.1764 2.3988 296.41 0.064588 12.285 0.039724 10.000 0.10000 853.25 935.83 3.2737 2.1764 2.3988 296.41 0.064588 12.285 0.039724
181.38 120.06 undefined 855.43 938.20 3.2785 10.000 0.10000 855.43 938.20 3.2785 2.1805 2.4027 296.76 0.064189 12.310 0.039884 10.000 0.10000 855.43 938.20 3.2785 2.1805 2.4027 296.76 0.064189 12.310 0.039884
182.38 120.34 undefined 857.61 940.58 3.2833 10.000 0.10000 857.61 940.58 3.2833 2.1846 2.4067 297.11 0.063794 12.335 0.040044 10.000 0.10000 857.61 940.58 3.2833 2.1846 2.4067 297.11 0.063794 12.335 0.040044
183.38 120.63 undefined 859.80 942.97 3.2881 10.000 0.10000 859.80 942.97 3.2881 2.1887 2.4107 297.45 0.063402 12.361 0.040204 10.000 0.10000 859.80 942.97 3.2881 2.1887 2.4107 297.45 0.063402 12.361 0.040204
184.38 120.92 undefined 861.99 945.36 3.2929 10.000 0.10000 861.99 945.36 3.2929 2.1928 2.4146 297.80 0.063015 12.386 0.040364 10.000 0.10000 861.99 945.36 3.2929 2.1928 2.4146 297.80 0.063015 12.386 0.040364
185.38 121.20 undefined 864.18 947.75 3.2977 10.000 0.10000 864.18 947.75 3.2977 2.1969 2.4186 298.15 0.062630 12.411 0.040525 10.000 0.10000 864.18 947.75 3.2977 2.1969 2.4186 298.15 0.062630 12.411 0.040525
186.38 121.49 undefined 866.38 950.14 3.3024 10.000 0.10000 866.38 950.14 3.3024 2.2010 2.4226 298.50 0.062249 12.437 0.040686 10.000 0.10000 866.38 950.14 3.3024 2.2010 2.4226 298.50 0.062249 12.437 0.040686
187.38 121.78 undefined 868.58 952.55 3.3072 10.000 0.10000 868.58 952.55 3.3072 2.2051 2.4265 298.85 0.061872 12.462 0.040847 10.000 0.10000 868.58 952.55 3.3072 2.2051 2.4265 298.85 0.061872 12.462 0.040847
188.38 122.06 undefined 870.79 954.95 3.3120 10.000 0.10000 870.79 954.95 3.3120 2.2091 2.4305 299.19 0.061498 12.487 0.041009 10.000 0.10000 870.79 954.95 3.3120 2.2091 2.4305 299.19 0.061498 12.487 0.041009
189.38 122.35 undefined 873.00 957.36 3.3168 10.000 0.10000 873.00 957.36 3.3168 2.2132 2.4344 299.54 0.061127 12.512 0.041171 10.000 0.10000 873.00 957.36 3.3168 2.2132 2.4344 299.54 0.061127 12.512 0.041171
190.38 122.64 undefined 875.22 959.77 3.3216 10.000 0.10000 875.22 959.77 3.3216 2.2173 2.4383 299.88 0.060760 12.537 0.041333 10.000 0.10000 875.22 959.77 3.3216 2.2173 2.4383 299.88 0.060760 12.537 0.041333
191.38 122.92 undefined 877.44 962.19 3.3264 10.000 0.10000 877.44 962.19 3.3264 2.2213 2.4423 300.23 0.060396 12.563 0.041496 10.000 0.10000 877.44 962.19 3.3264 2.2213 2.4423 300.23 0.060396 12.563 0.041496
192.38 123.21 undefined 879.66 964.61 3.3312 10.000 0.10000 879.66 964.61 3.3312 2.2254 2.4462 300.58 0.060035 12.588 0.041658 10.000 0.10000 879.66 964.61 3.3312 2.2254 2.4462 300.58 0.060035 12.588 0.041658
193.38 123.50 undefined 881.89 967.03 3.3359 10.000 0.10000 881.89 967.03 3.3359 2.2295 2.4501 300.92 0.059678 12.613 0.041821 10.000 0.10000 881.89 967.03 3.3359 2.2295 2.4501 300.92 0.059678 12.613 0.041821
194.38 123.78 undefined 884.12 969.46 3.3407 10.000 0.10000 884.12 969.46 3.3407 2.2335 2.4541 301.26 0.059323 12.638 0.041985 10.000 0.10000 884.12 969.46 3.3407 2.2335 2.4541 301.26 0.059323 12.638 0.041985
195.38 124.07 undefined 886.35 971.90 3.3455 10.000 0.10000 886.35 971.90 3.3455 2.2376 2.4580 301.61 0.058972 12.663 0.042148 10.000 0.10000 886.35 971.90 3.3455 2.2376 2.4580 301.61 0.058972 12.663 0.042148
196.38 124.35 undefined 888.59 974.33 3.3503 10.000 0.10000 888.59 974.33 3.3503 2.2416 2.4619 301.95 0.058623 12.688 0.042312 10.000 0.10000 888.59 974.33 3.3503 2.2416 2.4619 301.95 0.058623 12.688 0.042312
197.38 124.64 undefined 890.84 976.77 3.3550 10.000 0.10000 890.84 976.77 3.3550 2.2456 2.4658 302.29 0.058278 12.713 0.042477 10.000 0.10000 890.84 976.77 3.3550 2.2456 2.4658 302.29 0.058278 12.713 0.042477
198.38 124.93 undefined 893.09 979.22 3.3598 10.000 0.10000 893.09 979.22 3.3598 2.2497 2.4697 302.64 0.057936 12.738 0.042641 10.000 0.10000 893.09 979.22 3.3598 2.2497 2.4697 302.64 0.057936 12.738 0.042641
199.38 125.21 undefined 895.34 981.67 3.3646 10.000 0.10000 895.34 981.67 3.3646 2.2537 2.4737 302.98 0.057597 12.763 0.042806 10.000 0.10000 895.34 981.67 3.3646 2.2537 2.4737 302.98 0.057597 12.763 0.042806
200.38 125.50 undefined 897.59 984.12 3.3693 10.000 0.10000 897.59 984.12 3.3693 2.2577 2.4776 303.32 0.057260 12.788 0.042971 10.000 0.10000 897.59 984.12 3.3693 2.2577 2.4776 303.32 0.057260 12.788 0.042971
201.38 125.78 undefined 899.85 986.58 3.3741 10.000 0.10000 899.85 986.58 3.3741 2.2617 2.4815 303.66 0.056927 12.813 0.043136 10.000 0.10000 899.85 986.58 3.3741 2.2617 2.4815 303.66 0.056927 12.813 0.043136
202.38 126.07 undefined 902.12 989.04 3.3789 10.000 0.10000 902.12 989.04 3.3789 2.2657 2.4854 304.00 0.056597 12.838 0.043302 10.000 0.10000 902.12 989.04 3.3789 2.2657 2.4854 304.00 0.056597 12.838 0.043302
203.38 126.36 undefined 904.38 991.50 3.3836 10.000 0.10000 904.38 991.50 3.3836 2.2698 2.4893 304.34 0.056269 12.863 0.043468 10.000 0.10000 904.38 991.50 3.3836 2.2698 2.4893 304.34 0.056269 12.863 0.043468
204.38 126.64 undefined 906.66 993.97 3.3884 10.000 0.10000 906.66 993.97 3.3884 2.2738 2.4931 304.68 0.055944 12.888 0.043634 10.000 0.10000 906.66 993.97 3.3884 2.2738 2.4931 304.68 0.055944 12.888 0.043634
205.38 126.93 undefined 908.93 996.45 3.3932 10.000 0.10000 908.93 996.45 3.3932 2.2778 2.4970 305.02 0.055622 12.913 0.043801 10.000 0.10000 908.93 996.45 3.3932 2.2778 2.4970 305.02 0.055622 12.913 0.043801
206.38 127.22 undefined 911.21 998.92 3.3979 10.000 0.10000 911.21 998.92 3.3979 2.2817 2.5009 305.36 0.055302 12.938 0.043968 10.000 0.10000 911.21 998.92 3.3979 2.2817 2.5009 305.36 0.055302 12.938 0.043968
207.38 127.50 undefined 913.49 1001.4 3.4027 10.000 0.10000 913.49 1001.4 3.4027 2.2857 2.5048 305.70 0.054986 12.962 0.044135 10.000 0.10000 913.49 1001.4 3.4027 2.2857 2.5048 305.70 0.054986 12.962 0.044135
208.38 127.79 undefined 915.78 1003.9 3.4074 10.000 0.10000 915.78 1003.9 3.4074 2.2897 2.5087 306.04 0.054672 12.987 0.044302 10.000 0.10000 915.78 1003.9 3.4074 2.2897 2.5087 306.04 0.054672 12.987 0.044302
209.38 128.07 undefined 918.07 1006.4 3.4122 10.000 0.10000 918.07 1006.4 3.4122 2.2937 2.5125 306.38 0.054360 13.012 0.044470 10.000 0.10000 918.07 1006.4 3.4122 2.2937 2.5125 306.38 0.054360 13.012 0.044470
210.38 128.36 undefined 920.37 1008.9 3.4169 10.000 0.10000 920.37 1008.9 3.4169 2.2977 2.5164 306.71 0.054052 13.037 0.044638 10.000 0.10000 920.37 1008.9 3.4169 2.2977 2.5164 306.71 0.054052 13.037 0.044638
211.38 128.64 undefined 922.67 1011.4 3.4217 10.000 0.10000 922.67 1011.4 3.4217 2.3016 2.5203 307.05 0.053745 13.062 0.044806 10.000 0.10000 922.67 1011.4 3.4217 2.3016 2.5203 307.05 0.053745 13.062 0.044806
212.38 128.93 undefined 924.97 1013.9 3.4264 10.000 0.10000 924.97 1013.9 3.4264 2.3056 2.5241 307.39 0.053442 13.086 0.044975 10.000 0.10000 924.97 1013.9 3.4264 2.3056 2.5241 307.39 0.053442 13.086 0.044975
213.38 129.22 undefined 927.28 1016.4 3.4312 10.000 0.10000 927.28 1016.4 3.4312 2.3096 2.5280 307.72 0.053141 13.111 0.045144 10.000 0.10000 927.28 1016.4 3.4312 2.3096 2.5280 307.72 0.053141 13.111 0.045144
214.38 129.50 undefined 929.59 1018.9 3.4359 10.000 0.10000 929.59 1018.9 3.4359 2.3135 2.5318 308.06 0.052842 13.136 0.045313 10.000 0.10000 929.59 1018.9 3.4359 2.3135 2.5318 308.06 0.052842 13.136 0.045313
215.38 129.79 undefined 931.91 1021.4 3.4407 10.000 0.10000 931.91 1021.4 3.4407 2.3175 2.5357 308.40 0.052546 13.161 0.045483 10.000 0.10000 931.91 1021.4 3.4407 2.3175 2.5357 308.40 0.052546 13.161 0.045483
216.38 130.07 undefined 934.23 1023.9 3.4454 10.000 0.10000 934.23 1023.9 3.4454 2.3214 2.5395 308.73 0.052252 13.185 0.045652 10.000 0.10000 934.23 1023.9 3.4454 2.3214 2.5395 308.73 0.052252 13.185 0.045652
217.38 130.36 undefined 936.55 1026.4 3.4502 10.000 0.10000 936.55 1026.4 3.4502 2.3254 2.5433 309.07 0.051961 13.210 0.045822 10.000 0.10000 936.55 1026.4 3.4502 2.3254 2.5433 309.07 0.051961 13.210 0.045822
218.38 130.65 undefined 938.88 1029.0 3.4549 10.000 0.10000 938.88 1029.0 3.4549 2.3293 2.5472 309.40 0.051672 13.234 0.045993 10.000 0.10000 938.88 1029.0 3.4549 2.3293 2.5472 309.40 0.051672 13.234 0.045993
219.38 130.93 undefined 941.21 1031.5 3.4596 10.000 0.10000 941.21 1031.5 3.4596 2.3332 2.5510 309.74 0.051385 13.259 0.046163 10.000 0.10000 941.21 1031.5 3.4596 2.3332 2.5510 309.74 0.051385 13.259 0.046163
220.38 131.22 undefined 943.54 1034.0 3.4644 10.000 0.10000 943.54 1034.0 3.4644 2.3371 2.5548 310.07 0.051101 13.284 0.046334 10.000 0.10000 943.54 1034.0 3.4644 2.3371 2.5548 310.07 0.051101 13.284 0.046334
221.38 131.50 undefined 945.88 1036.6 3.4691 10.000 0.10000 945.88 1036.6 3.4691 2.3411 2.5586 310.40 0.050819 13.308 0.046506 10.000 0.10000 945.88 1036.6 3.4691 2.3411 2.5586 310.40 0.050819 13.308 0.046506
222.38 131.79 undefined 948.23 1039.1 3.4739 10.000 0.10000 948.23 1039.1 3.4739 2.3450 2.5625 310.74 0.050540 13.333 0.046677 10.000 0.10000 948.23 1039.1 3.4739 2.3450 2.5625 310.74 0.050540 13.333 0.046677
223.38 132.07 undefined 950.57 1041.6 3.4786 10.000 0.10000 950.57 1041.6 3.4786 2.3489 2.5663 311.07 0.050262 13.357 0.046849 10.000 0.10000 950.57 1041.6 3.4786 2.3489 2.5663 311.07 0.050262 13.357 0.046849
224.38 132.36 undefined 952.92 1044.2 3.4833 10.000 0.10000 952.92 1044.2 3.4833 2.3528 2.5701 311.40 0.049987 13.382 0.047021 10.000 0.10000 952.92 1044.2 3.4833 2.3528 2.5701 311.40 0.049987 13.382 0.047021
225.38 132.64 undefined 955.28 1046.7 3.4880 10.000 0.10000 955.28 1046.7 3.4880 2.3567 2.5739 311.73 0.049714 13.406 0.047193 10.000 0.10000 955.28 1046.7 3.4880 2.3567 2.5739 311.73 0.049714 13.406 0.047193
226.38 132.93 undefined 957.64 1049.3 3.4928 10.000 0.10000 957.64 1049.3 3.4928 2.3606 2.5777 312.06 0.049443 13.431 0.047366 10.000 0.10000 957.64 1049.3 3.4928 2.3606 2.5777 312.06 0.049443 13.431 0.047366
227.38 133.22 undefined 960.00 1051.8 3.4975 10.000 0.10000 960.00 1051.8 3.4975 2.3645 2.5815 312.40 0.049175 13.455 0.047539 10.000 0.10000 960.00 1051.8 3.4975 2.3645 2.5815 312.40 0.049175 13.455 0.047539
228.38 133.50 undefined 962.37 1054.4 3.5022 10.000 0.10000 962.37 1054.4 3.5022 2.3684 2.5853 312.73 0.048908 13.480 0.047712 10.000 0.10000 962.37 1054.4 3.5022 2.3684 2.5853 312.73 0.048908 13.480 0.047712
229.38 133.79 undefined 964.74 1057.0 3.5069 10.000 0.10000 964.74 1057.0 3.5069 2.3722 2.5890 313.06 0.048644 13.504 0.047886 10.000 0.10000 964.74 1057.0 3.5069 2.3722 2.5890 313.06 0.048644 13.504 0.047886
230.38 134.07 undefined 967.11 1059.6 3.5117 10.000 0.10000 967.11 1059.6 3.5117 2.3761 2.5928 313.39 0.048381 13.529 0.048060 10.000 0.10000 967.11 1059.6 3.5117 2.3761 2.5928 313.39 0.048381 13.529 0.048060
231.38 134.36 undefined 969.49 1062.1 3.5164 10.000 0.10000 969.49 1062.1 3.5164 2.3800 2.5966 313.72 0.048121 13.553 0.048234 10.000 0.10000 969.49 1062.1 3.5164 2.3800 2.5966 313.72 0.048121 13.553 0.048234
232.38 134.64 undefined 971.87 1064.7 3.5211 10.000 0.10000 971.87 1064.7 3.5211 2.3839 2.6004 314.05 0.047863 13.577 0.048408 10.000 0.10000 971.87 1064.7 3.5211 2.3839 2.6004 314.05 0.047863 13.577 0.048408
233.38 134.93 undefined 974.26 1067.3 3.5258 10.000 0.10000 974.26 1067.3 3.5258 2.3877 2.6041 314.37 0.047607 13.602 0.048583 10.000 0.10000 974.26 1067.3 3.5258 2.3877 2.6041 314.37 0.047607 13.602 0.048583
234.38 135.21 undefined 976.65 1069.9 3.5305 10.000 0.10000 976.65 1069.9 3.5305 2.3916 2.6079 314.70 0.047353 13.626 0.048758 10.000 0.10000 976.65 1069.9 3.5305 2.3916 2.6079 314.70 0.047353 13.626 0.048758
235.38 135.50 undefined 979.04 1072.5 3.5352 10.000 0.10000 979.04 1072.5 3.5352 2.3954 2.6117 315.03 0.047100 13.650 0.048933 10.000 0.10000 979.04 1072.5 3.5352 2.3954 2.6117 315.03 0.047100 13.650 0.048933
236.38 135.78 undefined 981.44 1075.1 3.5399 10.000 0.10000 981.44 1075.1 3.5399 2.3993 2.6154 315.36 0.046850 13.675 0.049109 10.000 0.10000 981.44 1075.1 3.5399 2.3993 2.6154 315.36 0.046850 13.675 0.049109
237.38 136.07 undefined 983.84 1077.7 3.5446 10.000 0.10000 983.84 1077.7 3.5446 2.4031 2.6192 315.69 0.046602 13.699 0.049285 10.000 0.10000 983.84 1077.7 3.5446 2.4031 2.6192 315.69 0.046602 13.699 0.049285
238.38 136.36 undefined 986.24 1080.3 3.5494 10.000 0.10000 986.24 1080.3 3.5494 2.4069 2.6229 316.01 0.046355 13.723 0.049461 10.000 0.10000 986.24 1080.3 3.5494 2.4069 2.6229 316.01 0.046355 13.723 0.049461
239.38 136.64 undefined 988.65 1082.9 3.5541 10.000 0.10000 988.65 1082.9 3.5541 2.4108 2.6266 316.34 0.046111 13.747 0.049637 10.000 0.10000 988.65 1082.9 3.5541 2.4108 2.6266 316.34 0.046111 13.747 0.049637
240.38 136.93 undefined 991.07 1085.5 3.5588 10.000 0.10000 991.07 1085.5 3.5588 2.4146 2.6304 316.67 0.045868 13.771 0.049814 10.000 0.10000 991.07 1085.5 3.5588 2.4146 2.6304 316.67 0.045868 13.771 0.049814
241.38 137.21 undefined 993.48 1088.1 3.5635 10.000 0.10000 993.48 1088.1 3.5635 2.4184 2.6341 316.99 0.045627 13.796 0.049991 10.000 0.10000 993.48 1088.1 3.5635 2.4184 2.6341 316.99 0.045627 13.796 0.049991
242.38 137.50 undefined 995.90 1090.7 3.5682 10.000 0.10000 995.90 1090.7 3.5682 2.4222 2.6378 317.32 0.045388 13.820 0.050169 10.000 0.10000 995.90 1090.7 3.5682 2.4222 2.6378 317.32 0.045388 13.820 0.050169
243.38 137.78 undefined 998.33 1093.3 3.5729 10.000 0.10000 998.33 1093.3 3.5729 2.4260 2.6416 317.65 0.045151 13.844 0.050346 10.000 0.10000 998.33 1093.3 3.5729 2.4260 2.6416 317.65 0.045151 13.844 0.050346
244.38 138.07 undefined 1000.8 1095.9 3.5776 10.000 0.10000 1000.8 1095.9 3.5776 2.4298 2.6453 317.97 0.044916 13.868 0.050524 10.000 0.10000 1000.8 1095.9 3.5776 2.4298 2.6453 317.97 0.044916 13.868 0.050524
245.38 138.35 undefined 1003.2 1098.6 3.5823 10.000 0.10000 1003.2 1098.6 3.5823 2.4336 2.6490 318.30 0.044682 13.892 0.050702 10.000 0.10000 1003.2 1098.6 3.5823 2.4336 2.6490 318.30 0.044682 13.892 0.050702
246.38 138.64 undefined 1005.6 1101.2 3.5869 10.000 0.10000 1005.6 1101.2 3.5869 2.4374 2.6527 318.62 0.044450 13.916 0.050881 10.000 0.10000 1005.6 1101.2 3.5869 2.4374 2.6527 318.62 0.044450 13.916 0.050881
247.38 138.92 undefined 1008.1 1103.8 3.5916 10.000 0.10000 1008.1 1103.8 3.5916 2.4412 2.6564 318.94 0.044220 13.940 0.051060 10.000 0.10000 1008.1 1103.8 3.5916 2.4412 2.6564 318.94 0.044220 13.940 0.051060
248.38 139.21 undefined 1010.5 1106.5 3.5963 10.000 0.10000 1010.5 1106.5 3.5963 2.4450 2.6601 319.27 0.043992 13.964 0.051239 10.000 0.10000 1010.5 1106.5 3.5963 2.4450 2.6601 319.27 0.043992 13.964 0.051239
249.38 139.49 undefined 1013.0 1109.1 3.6010 10.000 0.10000 1013.0 1109.1 3.6010 2.4488 2.6638 319.59 0.043765 13.988 0.051418 10.000 0.10000 1013.0 1109.1 3.6010 2.4488 2.6638 319.59 0.043765 13.988 0.051418
250.38 139.78 undefined 1015.4 1111.8 3.6057 10.000 0.10000 1015.4 1111.8 3.6057 2.4525 2.6675 319.91 0.043540 14.012 0.051598 10.000 0.10000 1015.4 1111.8 3.6057 2.4525 2.6675 319.91 0.043540 14.012 0.051598
251.38 140.06 undefined 1017.9 1114.4 3.6104 10.000 0.10000 1017.9 1114.4 3.6104 2.4563 2.6712 320.24 0.043317 14.036 0.051778 10.000 0.10000 1017.9 1114.4 3.6104 2.4563 2.6712 320.24 0.043317 14.036 0.051778
252.38 140.35 undefined 1020.3 1117.1 3.6151 10.000 0.10000 1020.3 1117.1 3.6151 2.4601 2.6748 320.56 0.043095 14.060 0.051958 10.000 0.10000 1020.3 1117.1 3.6151 2.4601 2.6748 320.56 0.043095 14.060 0.051958
253.38 140.63 undefined 1022.8 1119.7 3.6197 10.000 0.10000 1022.8 1119.7 3.6197 2.4638 2.6785 320.88 0.042875 14.084 0.052139 10.000 0.10000 1022.8 1119.7 3.6197 2.4638 2.6785 320.88 0.042875 14.084 0.052139
254.38 140.92 undefined 1025.2 1122.4 3.6244 10.000 0.10000 1025.2 1122.4 3.6244 2.4676 2.6822 321.20 0.042656 14.108 0.052319 10.000 0.10000 1025.2 1122.4 3.6244 2.4676 2.6822 321.20 0.042656 14.108 0.052319
255.38 141.20 undefined 1027.7 1125.1 3.6291 10.000 0.10000 1027.7 1125.1 3.6291 2.4713 2.6859 321.52 0.042440 14.132 0.052501 10.000 0.10000 1027.7 1125.1 3.6291 2.4713 2.6859 321.52 0.042440 14.132 0.052501
256.38 141.49 undefined 1030.2 1127.7 3.6338 10.000 0.10000 1030.2 1127.7 3.6338 2.4750 2.6895 321.85 0.042224 14.156 0.052682 10.000 0.10000 1030.2 1127.7 3.6338 2.4750 2.6895 321.85 0.042224 14.156 0.052682
257.38 141.77 undefined 1032.7 1130.4 3.6384 10.000 0.10000 1032.7 1130.4 3.6384 2.4788 2.6932 322.17 0.042011 14.180 0.052864 10.000 0.10000 1032.7 1130.4 3.6384 2.4788 2.6932 322.17 0.042011 14.180 0.052864
258.38 142.06 undefined 1035.1 1133.1 3.6431 10.000 0.10000 1035.1 1133.1 3.6431 2.4825 2.6968 322.49 0.041798 14.204 0.053046 10.000 0.10000 1035.1 1133.1 3.6431 2.4825 2.6968 322.49 0.041798 14.204 0.053046
259.38 142.34 undefined 1037.6 1135.8 3.6478 10.000 0.10000 1037.6 1135.8 3.6478 2.4862 2.7005 322.81 0.041588 14.228 0.053228 10.000 0.10000 1037.6 1135.8 3.6478 2.4862 2.7005 322.81 0.041588 14.228 0.053228
260.38 142.63 undefined 1040.1 1138.5 3.6525 10.000 0.10000 1040.1 1138.5 3.6525 2.4900 2.7041 323.13 0.041379 14.251 0.053411 10.000 0.10000 1040.1 1138.5 3.6525 2.4900 2.7041 323.13 0.041379 14.251 0.053411
261.38 142.91 undefined 1042.6 1141.1 3.6571 10.000 0.10000 1042.6 1141.1 3.6571 2.4937 2.7077 323.45 0.041171 14.275 0.053593 10.000 0.10000 1042.6 1141.1 3.6571 2.4937 2.7077 323.45 0.041171 14.275 0.053593
262.38 143.20 undefined 1045.1 1143.8 3.6618 10.000 0.10000 1045.1 1143.8 3.6618 2.4974 2.7114 323.76 0.040965 14.299 0.053777 10.000 0.10000 1045.1 1143.8 3.6618 2.4974 2.7114 323.76 0.040965 14.299 0.053777
263.38 143.48 undefined 1047.6 1146.5 3.6664 10.000 0.10000 1047.6 1146.5 3.6664 2.5011 2.7150 324.08 0.040760 14.323 0.053960 10.000 0.10000 1047.6 1146.5 3.6664 2.5011 2.7150 324.08 0.040760 14.323 0.053960
264.38 143.77 undefined 1050.1 1149.2 3.6711 10.000 0.10000 1050.1 1149.2 3.6711 2.5048 2.7186 324.40 0.040557 14.346 0.054144 10.000 0.10000 1050.1 1149.2 3.6711 2.5048 2.7186 324.40 0.040557 14.346 0.054144
265.38 144.05 undefined 1052.6 1151.9 3.6758 10.000 0.10000 1052.6 1151.9 3.6758 2.5085 2.7223 324.72 0.040355 14.370 0.054328 10.000 0.10000 1052.6 1151.9 3.6758 2.5085 2.7223 324.72 0.040355 14.370 0.054328
266.38 144.34 undefined 1055.1 1154.6 3.6804 10.000 0.10000 1055.1 1154.6 3.6804 2.5122 2.7259 325.04 0.040155 14.394 0.054512 10.000 0.10000 1055.1 1154.6 3.6804 2.5122 2.7259 325.04 0.040155 14.394 0.054512
267.38 144.62 undefined 1057.6 1157.3 3.6851 10.000 0.10000 1057.6 1157.3 3.6851 2.5158 2.7295 325.36 0.039956 14.417 0.054697 10.000 0.10000 1057.6 1157.3 3.6851 2.5158 2.7295 325.36 0.039956 14.417 0.054697
268.38 144.91 undefined 1060.2 1160.1 3.6897 10.000 0.10000 1060.2 1160.1 3.6897 2.5195 2.7331 325.67 0.039759 14.441 0.054882 10.000 0.10000 1060.2 1160.1 3.6897 2.5195 2.7331 325.67 0.039759 14.441 0.054882
269.38 145.19 undefined 1062.7 1162.8 3.6944 10.000 0.10000 1062.7 1162.8 3.6944 2.5232 2.7367 325.99 0.039563 14.465 0.055067 10.000 0.10000 1062.7 1162.8 3.6944 2.5232 2.7367 325.99 0.039563 14.465 0.055067
270.38 145.48 undefined 1065.2 1165.5 3.6990 10.000 0.10000 1065.2 1165.5 3.6990 2.5269 2.7403 326.31 0.039368 14.488 0.055252 10.000 0.10000 1065.2 1165.5 3.6990 2.5269 2.7403 326.31 0.039368 14.488 0.055252
271.38 145.76 undefined 1067.7 1168.2 3.7037 10.000 0.10000 1067.7 1168.2 3.7037 2.5305 2.7439 326.62 0.039175 14.512 0.055438 10.000 0.10000 1067.7 1168.2 3.7037 2.5305 2.7439 326.62 0.039175 14.512 0.055438
272.38 146.05 undefined 1070.3 1171.0 3.7083 10.000 0.10000 1070.3 1171.0 3.7083 2.5342 2.7474 326.94 0.038983 14.535 0.055624 10.000 0.10000 1070.3 1171.0 3.7083 2.5342 2.7474 326.94 0.038983 14.535 0.055624
273.38 146.33 undefined 1072.8 1173.7 3.7130 10.000 0.10000 1072.8 1173.7 3.7130 2.5378 2.7510 327.25 0.038792 14.559 0.055811 10.000 0.10000 1072.8 1173.7 3.7130 2.5378 2.7510 327.25 0.038792 14.559 0.055811
274.38 146.62 undefined 1075.3 1176.4 3.7176 10.000 0.10000 1075.3 1176.4 3.7176 2.5415 2.7546 327.57 0.038603 14.582 0.055997 10.000 0.10000 1075.3 1176.4 3.7176 2.5415 2.7546 327.57 0.038603 14.582 0.055997
275.38 146.90 undefined 1077.9 1179.2 3.7223 10.000 0.10000 1077.9 1179.2 3.7223 2.5451 2.7582 327.88 0.038415 14.606 0.056184 10.000 0.10000 1077.9 1179.2 3.7223 2.5451 2.7582 327.88 0.038415 14.606 0.056184
276.38 147.18 undefined 1080.4 1181.9 3.7269 10.000 0.10000 1080.4 1181.9 3.7269 2.5488 2.7617 328.20 0.038228 14.629 0.056371 10.000 0.10000 1080.4 1181.9 3.7269 2.5488 2.7617 328.20 0.038228 14.629 0.056371
277.38 147.47 undefined 1083.0 1184.7 3.7315 10.000 0.10000 1083.0 1184.7 3.7315 2.5524 2.7653 328.51 0.038042 14.653 0.056559 10.000 0.10000 1083.0 1184.7 3.7315 2.5524 2.7653 328.51 0.038042 14.653 0.056559
278.38 147.75 undefined 1085.5 1187.4 3.7362 10.000 0.10000 1085.5 1187.4 3.7362 2.5560 2.7689 328.83 0.037858 14.676 0.056746 10.000 0.10000 1085.5 1187.4 3.7362 2.5560 2.7689 328.83 0.037858 14.676 0.056746
279.38 148.04 undefined 1088.1 1190.2 3.7408 10.000 0.10000 1088.1 1190.2 3.7408 2.5596 2.7724 329.14 0.037675 14.700 0.056934 10.000 0.10000 1088.1 1190.2 3.7408 2.5596 2.7724 329.14 0.037675 14.700 0.056934
280.38 148.32 undefined 1090.6 1192.9 3.7454 10.000 0.10000 1090.6 1192.9 3.7454 2.5633 2.7760 329.45 0.037494 14.723 0.057123 10.000 0.10000 1090.6 1192.9 3.7454 2.5633 2.7760 329.45 0.037494 14.723 0.057123
281.38 148.61 undefined 1093.2 1195.7 3.7501 10.000 0.10000 1093.2 1195.7 3.7501 2.5669 2.7795 329.77 0.037313 14.747 0.057311 10.000 0.10000 1093.2 1195.7 3.7501 2.5669 2.7795 329.77 0.037313 14.747 0.057311
282.38 148.89 undefined 1095.8 1198.4 3.7547 10.000 0.10000 1095.8 1198.4 3.7547 2.5705 2.7830 330.08 0.037134 14.770 0.057500 10.000 0.10000 1095.8 1198.4 3.7547 2.5705 2.7830 330.08 0.037134 14.770 0.057500
283.38 149.18 undefined 1098.4 1201.2 3.7593 10.000 0.10000 1098.4 1201.2 3.7593 2.5741 2.7866 330.39 0.036956 14.793 0.057689 10.000 0.10000 1098.4 1201.2 3.7593 2.5741 2.7866 330.39 0.036956 14.793 0.057689
284.38 149.46 undefined 1100.9 1204.0 3.7639 10.000 0.10000 1100.9 1204.0 3.7639 2.5777 2.7901 330.70 0.036779 14.817 0.057879 10.000 0.10000 1100.9 1204.0 3.7639 2.5777 2.7901 330.70 0.036779 14.817 0.057879
285.38 149.75 undefined 1103.5 1206.8 3.7686 10.000 0.10000 1103.5 1206.8 3.7686 2.5813 2.7936 331.02 0.036603 14.840 0.058069 10.000 0.10000 1103.5 1206.8 3.7686 2.5813 2.7936 331.02 0.036603 14.840 0.058069
286.38 150.03 undefined 1106.1 1209.5 3.7732 10.000 0.10000 1106.1 1209.5 3.7732 2.5848 2.7971 331.33 0.036429 14.863 0.058259 10.000 0.10000 1106.1 1209.5 3.7732 2.5848 2.7971 331.33 0.036429 14.863 0.058259
287.38 150.32 undefined 1108.7 1212.3 3.7778 10.000 0.10000 1108.7 1212.3 3.7778 2.5884 2.8007 331.64 0.036256 14.886 0.058450 10.000 0.10000 1108.7 1212.3 3.7778 2.5884 2.8007 331.64 0.036256 14.886 0.058450
288.38 150.60 undefined 1111.3 1215.1 3.7824 10.000 0.10000 1111.3 1215.1 3.7824 2.5920 2.8042 331.95 0.036084 14.910 0.058640 10.000 0.10000 1111.3 1215.1 3.7824 2.5920 2.8042 331.95 0.036084 14.910 0.058640
289.38 150.88 undefined 1113.9 1217.9 3.7870 10.000 0.10000 1113.9 1217.9 3.7870 2.5956 2.8077 332.26 0.035913 14.933 0.058832 10.000 0.10000 1113.9 1217.9 3.7870 2.5956 2.8077 332.26 0.035913 14.933 0.058832
290.38 151.17 undefined 1116.5 1220.7 3.7916 10.000 0.10000 1116.5 1220.7 3.7916 2.5991 2.8112 332.57 0.035743 14.956 0.059023 10.000 0.10000 1116.5 1220.7 3.7916 2.5991 2.8112 332.57 0.035743 14.956 0.059023
291.38 151.45 undefined 1119.1 1223.5 3.7963 10.000 0.10000 1119.1 1223.5 3.7963 2.6027 2.8147 332.88 0.035574 14.979 0.059215 10.000 0.10000 1119.1 1223.5 3.7963 2.6027 2.8147 332.88 0.035574 14.979 0.059215
292.38 151.74 undefined 1121.7 1226.3 3.8009 10.000 0.10000 1121.7 1226.3 3.8009 2.6062 2.8182 333.19 0.035406 15.002 0.059407 10.000 0.10000 1121.7 1226.3 3.8009 2.6062 2.8182 333.19 0.035406 15.002 0.059407
293.38 152.02 undefined 1124.3 1229.1 3.8055 10.000 0.10000 1124.3 1229.1 3.8055 2.6098 2.8216 333.50 0.035240 15.026 0.059599 10.000 0.10000 1124.3 1229.1 3.8055 2.6098 2.8216 333.50 0.035240 15.026 0.059599
294.38 152.31 undefined 1126.9 1231.9 3.8101 10.000 0.10000 1126.9 1231.9 3.8101 2.6133 2.8251 333.81 0.035075 15.049 0.059791 10.000 0.10000 1126.9 1231.9 3.8101 2.6133 2.8251 333.81 0.035075 15.049 0.059791
295.38 152.59 undefined 1129.5 1234.7 3.8147 10.000 0.10000 1129.5 1234.7 3.8147 2.6169 2.8286 334.12 0.034910 15.072 0.059984 10.000 0.10000 1129.5 1234.7 3.8147 2.6169 2.8286 334.12 0.034910 15.072 0.059984
296.38 152.88 undefined 1132.1 1237.5 3.8193 10.000 0.10000 1132.1 1237.5 3.8193 2.6204 2.8321 334.43 0.034747 15.095 0.060177 10.000 0.10000 1132.1 1237.5 3.8193 2.6204 2.8321 334.43 0.034747 15.095 0.060177
297.38 153.16 undefined 1134.7 1240.3 3.8239 10.000 0.10000 1134.7 1240.3 3.8239 2.6239 2.8355 334.74 0.034585 15.118 0.060371 10.000 0.10000 1134.7 1240.3 3.8239 2.6239 2.8355 334.74 0.034585 15.118 0.060371
298.38 153.44 undefined 1137.4 1243.2 3.8285 10.000 0.10000 1137.4 1243.2 3.8285 2.6275 2.8390 335.04 0.034424 15.141 0.060565 10.000 0.10000 1137.4 1243.2 3.8285 2.6275 2.8390 335.04 0.034424 15.141 0.060565
299.38 153.73 undefined 1140.0 1246.0 3.8331 10.000 0.10000 1140.0 1246.0 3.8331 2.6310 2.8425 335.35 0.034264 15.164 0.060759 10.000 0.10000 1140.0 1246.0 3.8331 2.6310 2.8425 335.35 0.034264 15.164 0.060759
300.38 154.01 undefined 1142.6 1248.8 3.8377 10.000 0.10000 1142.6 1248.8 3.8377 2.6345 2.8459 335.66 0.034105 15.187 0.060953 10.000 0.10000 1142.6 1248.8 3.8377 2.6345 2.8459 335.66 0.034105 15.187 0.060953