Temperature (C) Pressure (psia) Quality (l+v) Internal Energy (l+v, kJ/kg) Enthalpy (l+v, kJ/kg) Entropy (l+v, J/g*K) Density (l, kg/m3) Volume (l, m3/kg) Internal Energy (l, kJ/kg) Enthalpy (l, kJ/kg) Entropy (l, J/g*K) Cv (l, J/g*K) Cp (l, J/g*K) Sound Spd. (l, m/s) Joule-Thomson (l, F/psia) Viscosity (l, uPa*s) Therm. Cond. (l, W/m*K) Density (v, kg/m3) Volume (v, m3/kg) Internal Energy (v, kJ/kg) Enthalpy (v, kJ/kg) Entropy (v, J/g*K) Cv (v, J/g*K) Cp (v, J/g*K) Sound Spd. (v, m/s) Joule-Thomson (v, F/psia) Viscosity (v, uPa*s) Therm. Cond. (v, W/m*K)
-187.62 2.4953e-08 7.0797e-11 -196.64 -196.64 -1.3959 733.13 0.0013640 -196.64 -196.64 -1.3959 1.3553 1.9158 2136.4 -0.0077592 10960. 0.20792 1.0669e-08 9.3732e+07 350.13 366.26 5.1858 0.69067 0.87923 143.28 6.1051 2.3259 0.0017061
-186.62 3.7339e-08 1.0469e-10 -194.73 -194.73 -1.3736 732.08 0.0013660 -194.73 -194.73 -1.3736 1.3539 1.9166 2129.6 -0.0077546 10073. 0.20765 1.5780e-08 6.3371e+07 350.82 367.14 5.1200 0.69462 0.88317 144.03 5.9178 2.3534 0.0017533
-185.62 5.5322e-08 1.5328e-10 -192.81 -192.81 -1.3516 731.04 0.0013679 -192.81 -192.81 -1.3516 1.3525 1.9174 2122.9 -0.0077498 9276.1 0.20737 2.3112e-08 4.3267e+07 351.52 368.02 5.0561 0.69857 0.88713 144.77 5.7383 2.3808 0.0018007
-184.62 8.1182e-08 2.2233e-10 -190.89 -190.89 -1.3298 730.00 0.0013699 -190.89 -190.89 -1.3298 1.3513 1.9182 2116.1 -0.0077448 8557.8 0.20708 3.3533e-08 2.9821e+07 352.22 368.91 4.9939 0.70253 0.89108 145.51 5.5662 2.4083 0.0018485
-183.62 1.1803e-07 3.1955e-10 -188.97 -188.97 -1.3083 728.96 0.0013718 -188.97 -188.97 -1.3083 1.3501 1.9191 2109.3 -0.0077395 7909.8 0.20678 4.8211e-08 2.0742e+07 352.92 369.81 4.9333 0.70648 0.89504 146.24 5.4011 2.4357 0.0018965
-182.62 1.7009e-07 4.5525e-10 -187.05 -187.05 -1.2869 727.92 0.0013738 -187.05 -187.05 -1.2869 1.3490 1.9201 2102.5 -0.0077340 7324.3 0.20647 6.8704e-08 1.4555e+07 353.63 370.70 4.8744 0.71043 0.89899 146.97 5.2426 2.4632 0.0019448
-181.62 2.4299e-07 6.4307e-10 -185.13 -185.13 -1.2658 726.88 0.0013757 -185.13 -185.13 -1.2658 1.3480 1.9210 2095.7 -0.0077283 6794.5 0.20616 9.7079e-08 1.0301e+07 354.35 371.60 4.8170 0.71438 0.90294 147.69 5.0904 2.4906 0.0019934
-180.62 3.4425e-07 9.0095e-10 -183.21 -183.21 -1.2450 725.85 0.0013777 -183.21 -183.21 -1.2450 1.3470 1.9220 2088.9 -0.0077225 6314.4 0.20584 1.3605e-07 7.3504e+06 355.06 372.51 4.7612 0.71833 0.90688 148.41 4.9442 2.5181 0.0020423
-179.62 4.8378e-07 1.2522e-09 -181.29 -181.29 -1.2243 724.81 0.0013797 -181.29 -181.29 -1.2243 1.3461 1.9231 2082.0 -0.0077164 5878.8 0.20551 1.8915e-07 5.2868e+06 355.78 373.42 4.7068 0.72227 0.91082 149.13 4.8038 2.5456 0.0020915
-178.62 6.7459e-07 1.7271e-09 -179.37 -179.37 -1.2038 723.78 0.0013816 -179.37 -179.37 -1.2038 1.3453 1.9241 2075.2 -0.0077102 5482.9 0.20517 2.6096e-07 3.8320e+06 356.51 374.33 4.6538 0.72620 0.91475 149.84 4.6688 2.5731 0.0021410
-177.62 9.3358e-07 2.3645e-09 -177.44 -177.44 -1.1836 722.75 0.0013836 -177.44 -177.44 -1.1836 1.3445 1.9252 2068.4 -0.0077039 5122.6 0.20483 3.5737e-07 2.7982e+06 357.23 375.25 4.6022 0.73012 0.91867 150.54 4.5390 2.6005 0.0021907
-176.62 1.2826e-06 3.2138e-09 -175.52 -175.52 -1.1635 721.72 0.0013856 -175.52 -175.52 -1.1635 1.3437 1.9263 2061.5 -0.0076973 4794.1 0.20447 4.8588e-07 2.0581e+06 357.97 376.17 4.5519 0.73403 0.92258 151.25 4.4142 2.6280 0.0022408
-175.62 1.7496e-06 4.3379e-09 -173.59 -173.59 -1.1437 720.69 0.0013876 -173.59 -173.59 -1.1437 1.3430 1.9274 2054.7 -0.0076907 4494.3 0.20411 6.5601e-07 1.5244e+06 358.70 377.09 4.5029 0.73792 0.92648 151.95 4.2941 2.6555 0.0022912
-174.62 2.3705e-06 5.8156e-09 -171.66 -171.66 -1.1240 719.66 0.0013895 -171.66 -171.66 -1.1240 1.3423 1.9286 2047.9 -0.0076838 4220.2 0.20375 8.7976e-07 1.1367e+06 359.44 378.02 4.4551 0.74181 0.93036 152.64 4.1784 2.6830 0.0023418
-173.62 3.1903e-06 7.7460e-09 -169.73 -169.73 -1.1045 718.64 0.0013915 -169.73 -169.73 -1.1045 1.3417 1.9298 2041.0 -0.0076769 3969.3 0.20338 1.1721e-06 8.5314e+05 360.19 378.95 4.4085 0.74568 0.93423 153.33 4.0671 2.7105 0.0023928
-172.62 4.2661e-06 1.0252e-08 -167.80 -167.80 -1.0852 717.61 0.0013935 -167.80 -167.80 -1.0852 1.3411 1.9310 2034.2 -0.0076698 3739.3 0.20300 1.5518e-06 6.4441e+05 360.93 379.89 4.3631 0.74953 0.93809 154.02 3.9599 2.7379 0.0024440
-171.62 5.6692e-06 1.3486e-08 -165.87 -165.87 -1.0661 716.58 0.0013955 -165.87 -165.87 -1.0661 1.3405 1.9322 2027.3 -0.0076625 3528.0 0.20261 2.0419e-06 4.8974e+05 361.69 380.83 4.3188 0.75337 0.94193 154.71 3.8566 2.7654 0.0024955
-170.62 7.4884e-06 1.7634e-08 -163.94 -163.94 -1.0472 715.56 0.0013975 -163.94 -163.94 -1.0472 1.3400 1.9334 2020.5 -0.0076552 3333.8 0.20222 2.6708e-06 3.7442e+05 362.44 381.77 4.2755 0.75720 0.94575 155.39 3.7570 2.7929 0.0025473
-169.62 9.8334e-06 2.2925e-08 -162.00 -162.00 -1.0284 714.54 0.0013995 -162.00 -162.00 -1.0284 1.3395 1.9347 2013.6 -0.0076477 3154.9 0.20182 3.4733e-06 2.8791e+05 363.20 382.72 4.2334 0.76100 0.94956 156.07 3.6609 2.8204 0.0025994
-168.62 1.2839e-05 2.9638e-08 -160.07 -160.07 -1.0098 713.52 0.0014015 -160.07 -160.07 -1.0098 1.3390 1.9359 2006.8 -0.0076401 2989.9 0.20141 4.4917e-06 2.2263e+05 363.96 383.67 4.1922 0.76479 0.95335 156.74 3.5683 2.8479 0.0026518
-167.62 1.6672e-05 3.8109e-08 -158.13 -158.13 -0.99134 712.49 0.0014035 -158.13 -158.13 -0.99134 1.3386 1.9372 2000.0 -0.0076323 2837.5 0.20100 5.7771e-06 1.7310e+05 364.73 384.63 4.1521 0.76856 0.95712 157.41 3.4790 2.8754 0.0027045
-166.62 2.1533e-05 4.8742e-08 -156.19 -156.19 -0.97306 711.47 0.0014055 -156.19 -156.19 -0.97306 1.3382 1.9385 1993.1 -0.0076245 2696.5 0.20058 7.3914e-06 1.3529e+05 365.50 385.59 4.1129 0.77232 0.96087 158.08 3.3927 2.9029 0.0027575
-165.62 2.7666e-05 6.2024e-08 -154.25 -154.25 -0.95494 710.45 0.0014075 -154.25 -154.25 -0.95494 1.3378 1.9398 1986.3 -0.0076165 2566.0 0.20016 9.4084e-06 1.0629e+05 366.27 386.55 4.0746 0.77605 0.96460 158.75 3.3095 2.9304 0.0028108
-164.62 3.5367e-05 7.8534e-08 -152.31 -152.31 -0.93698 709.44 0.0014096 -152.31 -152.31 -0.93698 1.3375 1.9411 1979.4 -0.0076084 2444.9 0.19973 1.1916e-05 83918. 367.05 387.52 4.0372 0.77976 0.96832 159.41 3.2291 2.9579 0.0028643
-163.62 4.4989e-05 9.8959e-08 -150.37 -150.37 -0.91917 708.42 0.0014116 -150.37 -150.37 -0.91917 1.3371 1.9424 1972.6 -0.0076002 2332.3 0.19930 1.5020e-05 66577. 367.83 388.49 4.0008 0.78346 0.97201 160.07 3.1514 2.9854 0.0029182
-162.62 5.6956e-05 1.2411e-07 -148.43 -148.43 -0.90151 707.40 0.0014136 -148.43 -148.43 -0.90151 1.3368 1.9437 1965.8 -0.0075919 2227.7 0.19886 1.8844e-05 53068. 368.62 389.46 3.9651 0.78713 0.97569 160.72 3.0764 3.0129 0.0029723
-161.62 7.1773e-05 1.5495e-07 -146.48 -146.48 -0.88400 706.38 0.0014157 -146.48 -146.48 -0.88400 1.3365 1.9451 1959.0 -0.0075834 2130.2 0.19841 2.3533e-05 42494. 369.41 390.44 3.9304 0.79079 0.97935 161.38 3.0038 3.0404 0.0030268
-160.62 9.0036e-05 1.9259e-07 -144.54 -144.54 -0.86663 705.37 0.0014177 -144.54 -144.54 -0.86663 1.3363 1.9465 1952.1 -0.0075748 2039.2 0.19796 2.9258e-05 34178. 370.20 391.42 3.8964 0.79443 0.98298 162.03 2.9337 3.0679 0.0030815
-159.62 0.00011245 2.3834e-07 -142.59 -142.59 -0.84940 704.35 0.0014197 -142.59 -142.59 -0.84940 1.3360 1.9478 1945.3 -0.0075661 1954.2 0.19751 3.6221e-05 27609. 371.00 392.40 3.8632 0.79805 0.98660 162.68 2.8658 3.0955 0.0031365
-158.62 0.00013985 2.9373e-07 -140.64 -140.64 -0.83231 703.34 0.0014218 -140.64 -140.64 -0.83231 1.3358 1.9492 1938.5 -0.0075573 1874.8 0.19705 4.4652e-05 22395. 371.80 393.39 3.8307 0.80164 0.99020 163.32 2.8002 3.1230 0.0031918
-157.62 0.00017320 3.6052e-07 -138.69 -138.69 -0.81536 702.32 0.0014238 -138.69 -138.69 -0.81536 1.3356 1.9506 1931.7 -0.0075484 1800.3 0.19658 5.4822e-05 18241. 372.60 394.38 3.7990 0.80522 0.99378 163.96 2.7367 3.1505 0.0032474
-156.62 0.00021364 4.4073e-07 -136.74 -136.74 -0.79854 701.31 0.0014259 -136.74 -136.74 -0.79854 1.3354 1.9520 1924.9 -0.0075393 1730.5 0.19611 6.7040e-05 14916. 373.41 395.38 3.7680 0.80878 0.99734 164.60 2.6752 3.1780 0.0033033
-155.62 0.00026248 5.3671e-07 -134.79 -134.79 -0.78185 700.30 0.0014280 -134.79 -134.79 -0.78185 1.3352 1.9534 1918.1 -0.0075302 1664.9 0.19564 8.1666e-05 12245. 374.22 396.38 3.7377 0.81232 1.0009 165.24 2.6157 3.2055 0.0033595
-154.62 0.00032125 6.5114e-07 -132.83 -132.83 -0.76529 699.29 0.0014300 -132.83 -132.83 -0.76530 1.3350 1.9548 1911.3 -0.0075209 1603.3 0.19516 9.9109e-05 10090. 375.03 397.38 3.7081 0.81585 1.0044 165.87 2.5580 3.2330 0.0034160
-153.62 0.00039171 7.8708e-07 -130.88 -130.88 -0.74886 698.27 0.0014321 -130.88 -130.88 -0.74887 1.3349 1.9563 1904.5 -0.0075114 1545.3 0.19468 0.00011984 8344.6 375.85 398.39 3.6792 0.81935 1.0079 166.50 2.5022 3.2606 0.0034727
-152.62 0.00047590 9.4801e-07 -128.92 -128.92 -0.73256 697.26 0.0014342 -128.92 -128.92 -0.73256 1.3348 1.9577 1897.8 -0.0075019 1490.6 0.19419 0.00014439 6925.9 376.67 399.40 3.6509 0.82284 1.0114 167.13 2.4481 3.2881 0.0035298
-151.62 0.00057613 1.1379e-06 -126.96 -126.96 -0.71638 696.25 0.0014363 -126.96 -126.96 -0.71638 1.3346 1.9592 1891.0 -0.0074922 1438.9 0.19370 0.00017336 5768.4 377.49 400.41 3.6232 0.82631 1.0149 167.76 2.3957 3.3156 0.0035872
-150.62 0.00069507 1.3611e-06 -125.00 -125.00 -0.70031 695.24 0.0014384 -125.00 -125.00 -0.70032 1.3345 1.9606 1884.2 -0.0074824 1390.2 0.19320 0.00020744 4820.7 378.32 401.42 3.5962 0.82976 1.0183 168.38 2.3448 3.3431 0.0036448
-149.62 0.00083574 1.6228e-06 -123.04 -123.04 -0.68437 694.23 0.0014404 -123.04 -123.04 -0.68438 1.3345 1.9621 1877.4 -0.0074724 1344.0 0.19270 0.00024740 4042.0 379.15 402.44 3.5697 0.83319 1.0218 169.00 2.2956 3.3706 0.0037027
-148.62 0.0010016 1.9287e-06 -121.08 -121.08 -0.66854 693.22 0.0014425 -121.08 -121.08 -0.66855 1.3344 1.9636 1870.7 -0.0074623 1300.3 0.19220 0.00029412 3400.0 379.99 403.47 3.5438 0.83661 1.0252 169.62 2.2478 3.3982 0.0037610
-147.62 0.0011965 2.2849e-06 -119.11 -119.11 -0.65283 692.21 0.0014447 -119.11 -119.11 -0.65284 1.3343 1.9651 1863.9 -0.0074521 1258.9 0.19169 0.00034856 2869.0 380.83 404.49 3.5185 0.84001 1.0286 170.24 2.2014 3.4257 0.0038195
-146.62 0.0014249 2.6987e-06 -117.15 -117.15 -0.63723 691.20 0.0014468 -117.15 -117.15 -0.63724 1.3343 1.9666 1857.2 -0.0074417 1219.6 0.19117 0.00041181 2428.3 381.67 405.52 3.4938 0.84340 1.0320 170.85 2.1565 3.4532 0.0038783
-145.62 0.0016917 3.1779e-06 -115.18 -115.18 -0.62174 690.19 0.0014489 -115.18 -115.18 -0.62175 1.3343 1.9682 1850.4 -0.0074312 1182.3 0.19066 0.00048510 2061.4 382.51 406.56 3.4695 0.84677 1.0353 171.46 2.1128 3.4807 0.0039374
-144.62 0.0020026 3.7314e-06 -113.21 -113.21 -0.60636 689.18 0.0014510 -113.21 -113.21 -0.60637 1.3343 1.9697 1843.7 -0.0074206 1146.8 0.19014 0.00056976 1755.1 383.36 407.59 3.4458 0.85012 1.0387 172.07 2.0705 3.5082 0.0039967
-143.62 0.0023637 4.3688e-06 -111.24 -111.24 -0.59108 688.17 0.0014531 -111.24 -111.24 -0.59110 1.3343 1.9713 1836.9 -0.0074098 1113.0 0.18962 0.00066731 1498.6 384.21 408.63 3.4226 0.85346 1.0420 172.68 2.0294 3.5358 0.0040564
-142.62 0.0027820 5.1009e-06 -109.27 -109.27 -0.57591 687.16 0.0014553 -109.27 -109.27 -0.57593 1.3343 1.9728 1830.2 -0.0073988 1080.8 0.18909 0.00077939 1283.1 385.07 409.68 3.3999 0.85679 1.0454 173.28 1.9896 3.5633 0.0041164
-141.62 0.0032653 5.9396e-06 -107.29 -107.29 -0.56085 686.15 0.0014574 -107.30 -107.30 -0.56087 1.3343 1.9744 1823.5 -0.0073878 1050.1 0.18856 0.00090784 1101.5 385.93 410.72 3.3777 0.86011 1.0487 173.88 1.9508 3.5908 0.0041766
-140.62 0.0038222 6.8980e-06 -105.32 -105.32 -0.54588 685.14 0.0014596 -105.32 -105.32 -0.54591 1.3344 1.9760 1816.7 -0.0073765 1020.7 0.18803 0.0010547 948.16 386.79 411.77 3.3560 0.86341 1.0520 174.48 1.9133 3.6183 0.0042372
-139.62 0.0044623 7.9905e-06 -103.34 -103.34 -0.53102 684.13 0.0014617 -103.34 -103.34 -0.53105 1.3344 1.9776 1810.0 -0.0073651 992.74 0.18749 0.0012221 818.26 387.65 412.83 3.3347 0.86670 1.0553 175.08 1.8768 3.6459 0.0042980
-138.62 0.0051963 9.2326e-06 -101.36 -101.36 -0.51625 683.12 0.0014639 -101.37 -101.37 -0.51629 1.3345 1.9792 1803.3 -0.0073536 965.97 0.18695 0.0014125 707.94 388.52 413.88 3.3139 0.86998 1.0586 175.67 1.8413 3.6734 0.0043592
-137.62 0.0060358 1.0642e-05 -99.381 -99.381 -0.50158 682.11 0.0014660 -99.386 -99.386 -0.50162 1.3346 1.9808 1796.6 -0.0073419 940.35 0.18641 0.0016287 614.00 389.39 414.94 3.2935 0.87325 1.0619 176.26 1.8069 3.7009 0.0044206
-136.62 0.0069938 1.2236e-05 -97.398 -97.398 -0.48701 681.10 0.0014682 -97.404 -97.404 -0.48705 1.3347 1.9825 1789.9 -0.0073301 915.81 0.18586 0.0018733 533.80 390.26 416.00 3.2735 0.87650 1.0651 176.85 1.7734 3.7284 0.0044823
-135.62 0.0080843 1.4037e-05 -95.414 -95.414 -0.47253 680.09 0.0014704 -95.421 -95.421 -0.47258 1.3348 1.9841 1783.2 -0.0073180 892.30 0.18531 0.0021497 465.17 391.14 417.07 3.2540 0.87975 1.0684 177.44 1.7409 3.7559 0.0045443
-134.62 0.0093230 1.6066e-05 -93.428 -93.428 -0.45814 679.08 0.0014726 -93.436 -93.436 -0.45820 1.3350 1.9858 1776.5 -0.0073059 869.75 0.18476 0.0024613 406.30 392.02 418.14 3.2348 0.88299 1.0716 178.02 1.7093 3.7834 0.0046066
-133.62 0.010727 1.8347e-05 -91.441 -91.440 -0.44384 678.07 0.0014748 -91.450 -91.449 -0.44391 1.3351 1.9875 1769.8 -0.0072935 848.11 0.18421 0.0028116 355.67 392.91 419.21 3.2161 0.88622 1.0749 178.61 1.6786 3.8109 0.0046691
-132.62 0.012315 2.0905e-05 -89.451 -89.450 -0.42963 677.06 0.0014770 -89.461 -89.461 -0.42971 1.3353 1.9892 1763.1 -0.0072810 827.32 0.18365 0.0032049 312.03 393.79 420.29 3.1977 0.88944 1.0781 179.19 1.6488 3.8385 0.0047320
-131.62 0.014106 2.3770e-05 -87.460 -87.459 -0.41551 676.04 0.0014792 -87.471 -87.471 -0.41560 1.3354 1.9909 1756.4 -0.0072684 807.34 0.18309 0.0036453 274.33 394.68 421.36 3.1798 0.89266 1.0813 179.76 1.6197 3.8660 0.0047951
-130.62 0.016124 2.6971e-05 -85.466 -85.466 -0.40148 675.03 0.0014814 -85.479 -85.479 -0.40157 1.3356 1.9926 1749.7 -0.0072555 788.12 0.18253 0.0041375 241.69 395.58 422.44 3.1622 0.89586 1.0846 180.34 1.5915 3.8935 0.0048586
-129.62 0.018392 3.0540e-05 -83.471 -83.470 -0.38753 674.02 0.0014836 -83.486 -83.486 -0.38763 1.3358 1.9944 1743.0 -0.0072425 769.63 0.18196 0.0046867 213.37 396.47 423.53 3.1450 0.89906 1.0878 180.91 1.5641 3.9210 0.0049223
-128.62 0.020935 3.4513e-05 -81.474 -81.473 -0.37366 673.01 0.0014859 -81.491 -81.490 -0.37378 1.3360 1.9961 1736.3 -0.0072294 751.83 0.18140 0.0052981 188.75 397.37 424.62 3.1281 0.90226 1.0910 181.48 1.5374 3.9485 0.0049863
-127.62 0.023783 3.8926e-05 -79.475 -79.474 -0.35988 672.00 0.0014881 -79.494 -79.493 -0.36001 1.3363 1.9979 1729.6 -0.0072160 734.67 0.18083 0.0059776 167.29 398.27 425.71 3.1116 0.90545 1.0942 182.05 1.5114 3.9760 0.0050506
-126.62 0.026966 4.3819e-05 -77.474 -77.472 -0.34617 670.98 0.0014904 -77.495 -77.495 -0.34632 1.3365 1.9997 1722.9 -0.0072025 718.14 0.18025 0.0067313 148.56 399.18 426.80 3.0954 0.90863 1.0974 182.62 1.4861 4.0035 0.0051152
-125.62 0.030515 4.9235e-05 -75.471 -75.469 -0.33255 669.97 0.0014926 -75.494 -75.494 -0.33272 1.3368 2.0015 1716.2 -0.0071888 702.18 0.17968 0.0075660 132.17 400.09 427.89 3.0795 0.91181 1.1006 183.18 1.4615 4.0310 0.0051800
-124.62 0.034467 5.5219e-05 -73.466 -73.464 -0.31900 668.95 0.0014949 -73.492 -73.492 -0.31919 1.3371 2.0033 1709.5 -0.0071749 686.79 0.17910 0.0084885 117.81 401.00 428.99 3.0640 0.91499 1.1038 183.74 1.4375 4.0584 0.0052452
-123.62 0.038859 6.1820e-05 -71.458 -71.456 -0.30553 667.94 0.0014971 -71.488 -71.487 -0.30574 1.3374 2.0051 1702.8 -0.0071609 671.93 0.17852 0.0095065 105.19 401.91 430.10 3.0488 0.91816 1.1070 184.30 1.4141 4.0859 0.0053106
-122.62 0.043731 6.9088e-05 -69.449 -69.447 -0.29214 666.92 0.0014994 -69.482 -69.481 -0.29237 1.3377 2.0070 1696.2 -0.0071466 657.57 0.17794 0.010628 94.092 402.83 431.20 3.0339 0.92134 1.1102 184.86 1.3913 4.1134 0.0053764
-121.62 0.049128 7.7079e-05 -67.437 -67.435 -0.27882 665.91 0.0015017 -67.474 -67.473 -0.27907 1.3380 2.0089 1689.5 -0.0071322 643.70 0.17736 0.011861 84.309 403.75 432.31 3.0193 0.92451 1.1134 185.41 1.3691 4.1409 0.0054424
-120.62 0.055096 8.5849e-05 -65.424 -65.421 -0.26557 664.89 0.0015040 -65.464 -65.463 -0.26585 1.3384 2.0107 1682.8 -0.0071176 630.28 0.17678 0.013215 75.669 404.67 433.42 3.0050 0.92767 1.1166 185.96 1.3475 4.1683 0.0055087
-119.62 0.061684 9.5459e-05 -63.407 -63.404 -0.25240 663.87 0.0015063 -63.452 -63.452 -0.25271 1.3387 2.0126 1676.1 -0.0071028 617.30 0.17619 0.014700 68.027 405.60 434.53 2.9909 0.93084 1.1198 186.51 1.3264 4.1958 0.0055752
-118.62 0.068946 0.00010597 -61.389 -61.385 -0.23929 662.86 0.0015086 -61.439 -61.438 -0.23963 1.3391 2.0146 1669.4 -0.0070878 604.74 0.17560 0.016325 61.255 406.53 435.64 2.9772 0.93401 1.1231 187.06 1.3058 4.2233 0.0056421
-117.62 0.076937 0.00011746 -59.368 -59.364 -0.22626 661.84 0.0015109 -59.423 -59.422 -0.22663 1.3395 2.0165 1662.8 -0.0070726 592.58 0.17501 0.018101 55.245 407.46 436.76 2.9638 0.93718 1.1263 187.60 1.2857 4.2507 0.0057092
-116.62 0.085718 0.00013000 -57.345 -57.340 -0.21329 660.82 0.0015133 -57.406 -57.405 -0.21370 1.3400 2.0184 1656.1 -0.0070573 580.80 0.17442 0.020040 49.901 408.39 437.88 2.9506 0.94035 1.1295 188.14 1.2660 4.2782 0.0057767
-115.62 0.095353 0.00014365 -55.320 -55.314 -0.20039 659.80 0.0015156 -55.386 -55.385 -0.20084 1.3404 2.0204 1649.4 -0.0070417 569.38 0.17383 0.022152 45.142 409.33 439.01 2.9377 0.94352 1.1327 188.68 1.2468 4.3056 0.0058444
-114.62 0.10591 0.00015850 -53.291 -53.286 -0.18756 658.78 0.0015180 -53.365 -53.364 -0.18805 1.3409 2.0224 1642.7 -0.0070260 558.32 0.17323 0.024451 40.898 410.27 440.13 2.9250 0.94669 1.1360 189.22 1.2281 4.3330 0.0059123
-113.62 0.11746 0.00017463 -51.261 -51.254 -0.17479 657.76 0.0015203 -51.342 -51.340 -0.17533 1.3413 2.0244 1636.0 -0.0070100 547.59 0.17264 0.026949 37.107 411.21 441.26 2.9126 0.94987 1.1392 189.75 1.2097 4.3604 0.0059806
-112.62 0.13008 0.00019213 -49.228 -49.220 -0.16208 656.73 0.0015227 -49.316 -49.315 -0.16267 1.3418 2.0264 1629.3 -0.0069938 537.18 0.17204 0.029661 33.715 412.16 442.39 2.9005 0.95305 1.1424 190.28 1.1918 4.3879 0.0060491
-111.62 0.14384 0.00021109 -47.192 -47.184 -0.14944 655.71 0.0015251 -47.289 -47.287 -0.15008 1.3424 2.0285 1622.7 -0.0069774 527.08 0.17144 0.032600 30.675 413.10 443.53 2.8885 0.95623 1.1457 190.81 1.1742 4.4153 0.0061180
-110.62 0.15884 0.00023160 -45.153 -45.144 -0.13685 654.69 0.0015274 -45.259 -45.258 -0.13755 1.3429 2.0305 1616.0 -0.0069609 517.28 0.17084 0.035781 27.948 414.06 444.66 2.8769 0.95942 1.1490 191.34 1.1570 4.4427 0.0061871
-109.62 0.17516 0.00025377 -43.111 -43.102 -0.12433 653.66 0.0015298 -43.228 -43.226 -0.12509 1.3435 2.0326 1609.3 -0.0069441 507.76 0.17024 0.039220 25.497 415.01 445.80 2.8654 0.96261 1.1522 191.86 1.1402 4.4701 0.0062564
-108.62 0.19290 0.00027770 -41.067 -41.057 -0.11187 652.64 0.0015322 -41.194 -41.192 -0.11269 1.3441 2.0347 1602.6 -0.0069271 498.51 0.16964 0.042933 23.292 415.96 446.94 2.8542 0.96581 1.1555 192.38 1.1236 4.4974 0.0063261
-107.62 0.21215 0.00030349 -39.020 -39.008 -0.099464 651.61 0.0015347 -39.158 -39.156 -0.10036 1.3447 2.0369 1595.9 -0.0069098 489.52 0.16903 0.046937 21.305 416.92 448.09 2.8433 0.96901 1.1588 192.90 1.1075 4.5248 0.0063960
-106.62 0.23301 0.00033125 -36.970 -36.957 -0.087115 650.58 0.0015371 -37.120 -37.118 -0.088082 1.3453 2.0390 1589.2 -0.0068924 480.79 0.16843 0.051250 19.512 417.88 449.23 2.8325 0.97222 1.1621 193.41 1.0916 4.5522 0.0064662
-105.62 0.25561 0.00036111 -34.917 -34.902 -0.074822 649.55 0.0015395 -35.080 -35.078 -0.075868 1.3460 2.0412 1582.6 -0.0068747 472.30 0.16782 0.055891 17.892 418.85 450.38 2.8220 0.97544 1.1655 193.93 1.0760 4.5795 0.0065367
-104.62 0.28004 0.00039319 -32.860 -32.845 -0.062584 648.52 0.0015420 -33.038 -33.035 -0.063714 1.3467 2.0434 1575.9 -0.0068569 464.04 0.16721 0.060878 16.426 419.81 451.53 2.8116 0.97867 1.1688 194.44 1.0608 4.6069 0.0066074
-103.62 0.30643 0.00042760 -30.801 -30.784 -0.050399 647.49 0.0015444 -30.994 -30.991 -0.051619 1.3474 2.0456 1569.2 -0.0068387 456.00 0.16660 0.066231 15.099 420.78 452.68 2.8015 0.98191 1.1722 194.94 1.0458 4.6342 0.0066785
-102.62 0.33490 0.00046449 -28.738 -28.719 -0.038267 646.46 0.0015469 -28.947 -28.944 -0.039582 1.3481 2.0478 1562.5 -0.0068204 448.18 0.16600 0.071971 13.894 421.75 453.84 2.7916 0.98516 1.1755 195.44 1.0310 4.6615 0.0067498
-101.62 0.36558 0.00050398 -26.672 -26.652 -0.026186 645.43 0.0015494 -26.898 -26.894 -0.027602 1.3489 2.0501 1555.8 -0.0068018 440.57 0.16539 0.078120 12.801 422.73 454.99 2.7818 0.98841 1.1789 195.95 1.0166 4.6888 0.0068213
-100.62 0.39862 0.00054622 -24.602 -24.580 -0.014155 644.39 0.0015519 -24.847 -24.843 -0.015678 1.3497 2.0524 1549.1 -0.0067830 433.16 0.16478 0.084699 11.807 423.70 456.15 2.7723 0.99168 1.1823 196.44 1.0024 4.7161 0.0068932
-99.625 0.43414 0.00059135 -22.529 -22.505 -0.0021741 643.36 0.0015544 -22.794 -22.789 -0.0038103 1.3505 2.0547 1542.4 -0.0067639 425.95 0.16416 0.091731 10.901 424.68 457.31 2.7630 0.99496 1.1858 196.94 0.98838 4.7434 0.0069653
-98.625 0.47230 0.00063952 -20.453 -20.427 0.0097587 642.32 0.0015569 -20.738 -20.733 0.0080027 1.3514 2.0570 1535.7 -0.0067447 418.92 0.16355 0.099240 10.077 425.66 458.48 2.7538 0.99825 1.1892 197.43 0.97464 4.7707 0.0070377
-97.625 0.51325 0.00069088 -18.372 -18.344 0.021644 641.28 0.0015594 -18.680 -18.674 0.019762 1.3522 2.0594 1529.0 -0.0067251 412.07 0.16294 0.10725 9.3239 426.65 459.64 2.7448 1.0016 1.1927 197.92 0.96112 4.7979 0.0071103
-96.625 0.55714 0.00074559 -16.288 -16.258 0.033484 640.24 0.0015619 -16.620 -16.614 0.031467 1.3531 2.0618 1522.3 -0.0067053 405.39 0.16233 0.11579 8.6365 427.63 460.81 2.7360 1.0049 1.1962 198.40 0.94783 4.8251 0.0071832
-95.625 0.60416 0.00080381 -14.200 -14.167 0.045278 639.20 0.0015645 -14.557 -14.550 0.043120 1.3540 2.0642 1515.7 -0.0066853 398.88 0.16171 0.12488 8.0078 428.62 461.98 2.7274 1.0082 1.1997 198.88 0.93475 4.8524 0.0072564
-94.625 0.65446 0.00086572 -12.109 -12.073 0.057028 638.16 0.0015670 -12.491 -12.484 0.054721 1.3550 2.0667 1509.0 -0.0066650 392.53 0.16110 0.13455 7.4323 429.61 463.15 2.7189 1.0116 1.2032 199.36 0.92188 4.8796 0.0073299
-93.625 0.70822 0.00093149 -10.013 -9.9738 0.068734 637.12 0.0015696 -10.424 -10.416 0.066271 1.3560 2.0691 1502.3 -0.0066444 386.34 0.16048 0.14482 6.9050 430.60 464.32 2.7107 1.0149 1.2068 199.83 0.90921 4.9068 0.0074036
-92.625 0.76564 0.0010013 -7.9130 -7.8708 0.080399 636.07 0.0015722 -8.3535 -8.3452 0.077771 1.3570 2.0716 1495.6 -0.0066236 380.31 0.15987 0.15573 6.4212 431.60 465.49 2.7025 1.0183 1.2104 200.30 0.89673 4.9340 0.0074776
-91.625 0.82689 0.0010753 -5.8089 -5.7633 0.092022 635.02 0.0015747 -6.2808 -6.2719 0.089220 1.3580 2.0742 1488.9 -0.0066025 374.41 0.15925 0.16731 5.9769 432.59 466.67 2.6946 1.0217 1.2140 200.77 0.88445 4.9611 0.0075518
-90.625 0.89218 0.0011537 -3.7005 -3.6513 0.10360 633.98 0.0015773 -4.2056 -4.1959 0.10062 1.3591 2.0767 1482.2 -0.0065811 368.66 0.15864 0.17958 5.5685 433.59 467.84 2.6868 1.0251 1.2177 201.24 0.87236 4.9883 0.0076263
-89.625 0.96172 0.0012367 -1.5878 -1.5347 0.11515 632.93 0.0015800 -2.1279 -2.1174 0.11197 1.3602 2.0793 1475.5 -0.0065595 363.05 0.15802 0.19258 5.1928 434.59 469.02 2.6791 1.0285 1.2213 201.70 0.86045 5.0154 0.0077011
-88.625 1.0357 0.0013245 0.52950 0.58663 0.12665 631.88 0.0015826 -0.047516 -0.036215 0.12328 1.3613 2.0819 1468.8 -0.0065375 357.56 0.15740 0.20633 4.8466 435.59 470.20 2.6717 1.0320 1.2250 202.15 0.84873 5.0425 0.0077761
-87.625 1.1144 0.0014173 2.6514 2.7128 0.13812 630.83 0.0015852 2.0355 2.0476 0.13454 1.3625 2.0846 1462.1 -0.0065153 352.21 0.15679 0.22087 4.5276 436.60 471.39 2.6643 1.0354 1.2288 202.61 0.83718 5.0696 0.0078514
-86.625 1.1979 0.0015153 4.7779 4.8440 0.14955 629.77 0.0015879 4.1211 4.1342 0.14575 1.3637 2.0873 1455.4 -0.0064928 346.98 0.15617 0.23623 4.2331 437.61 472.57 2.6571 1.0389 1.2325 203.06 0.82580 5.0967 0.0079270
-85.625 1.2866 0.0016187 6.9093 6.9803 0.16095 628.72 0.0015905 6.2094 6.2235 0.15691 1.3649 2.0900 1448.8 -0.0064701 341.87 0.15555 0.25245 3.9612 438.61 473.75 2.6501 1.0424 1.2363 203.50 0.81460 5.1237 0.0080028
-84.625 1.3806 0.0017278 9.0456 9.1217 0.17231 627.66 0.0015932 8.3004 8.3155 0.16803 1.3661 2.0927 1442.1 -0.0064470 336.87 0.15494 0.26956 3.7097 439.63 474.94 2.6432 1.0460 1.2402 203.95 0.80356 5.1508 0.0080789
-83.625 1.4803 0.0018426 11.187 11.269 0.18364 626.60 0.0015959 10.394 10.410 0.17911 1.3674 2.0955 1435.4 -0.0064236 331.99 0.15432 0.28760 3.4771 440.64 476.13 2.6364 1.0495 1.2440 204.38 0.79269 5.1778 0.0081553
-82.625 1.5858 0.0019636 13.333 13.421 0.19493 625.54 0.0015986 12.491 12.508 0.19014 1.3687 2.0983 1428.7 -0.0063999 327.22 0.15370 0.30659 3.2616 441.65 477.31 2.6298 1.0531 1.2479 204.82 0.78199 5.2048 0.0082319
-81.625 1.6975 0.0020909 15.485 15.579 0.20620 624.48 0.0016013 14.590 14.609 0.20113 1.3700 2.1012 1422.0 -0.0063759 322.55 0.15309 0.32659 3.0619 442.67 478.50 2.6233 1.0567 1.2519 205.25 0.77144 5.2318 0.0083088
-80.625 1.8155 0.0022246 17.642 17.742 0.21743 623.42 0.0016041 16.692 16.712 0.21208 1.3714 2.1041 1415.4 -0.0063516 317.99 0.15247 0.34763 2.8766 443.69 479.70 2.6169 1.0603 1.2558 205.67 0.76106 5.2587 0.0083860
-79.625 1.9402 0.0023652 19.804 19.911 0.22863 622.36 0.0016068 18.797 18.819 0.22299 1.3728 2.1070 1408.7 -0.0063270 313.52 0.15186 0.36974 2.7046 444.71 480.89 2.6106 1.0639 1.2598 206.10 0.75083 5.2857 0.0084634
-78.625 2.0718 0.0025128 21.972 22.087 0.23981 621.29 0.0016096 20.905 20.928 0.23385 1.3742 2.1099 1402.0 -0.0063021 309.15 0.15124 0.39296 2.5448 445.73 482.08 2.6045 1.0676 1.2639 206.51 0.74076 5.3126 0.0085411
-77.625 2.2107 0.0026677 24.146 24.268 0.25095 620.22 0.0016123 23.016 23.040 0.24468 1.3757 2.1129 1395.3 -0.0062768 304.88 0.15062 0.41735 2.3961 446.75 483.27 2.5985 1.0712 1.2680 206.93 0.73084 5.3395 0.0086190
-76.625 2.3571 0.0028300 26.326 26.456 0.26207 619.15 0.0016151 25.130 25.156 0.25546 1.3772 2.1159 1388.7 -0.0062512 300.69 0.15001 0.44292 2.2577 447.78 484.47 2.5926 1.0749 1.2721 207.34 0.72107 5.3664 0.0086972
-75.625 2.5113 0.0030002 28.511 28.650 0.27317 618.08 0.0016179 27.247 27.275 0.26620 1.3787 2.1190 1382.0 -0.0062253 296.59 0.14939 0.46974 2.1288 448.81 485.67 2.5869 1.0787 1.2762 207.74 0.71146 5.3933 0.0087757
-74.625 2.6736 0.0031784 30.703 30.850 0.28423 617.01 0.0016207 29.366 29.396 0.27691 1.3802 2.1221 1375.4 -0.0061990 292.58 0.14878 0.49783 2.0087 449.83 486.86 2.5812 1.0824 1.2804 208.14 0.70200 5.4201 0.0088544
-73.625 2.8444 0.0033649 32.900 33.057 0.29528 615.93 0.0016236 31.489 31.521 0.28758 1.3818 2.1252 1368.7 -0.0061724 288.65 0.14816 0.52725 1.8966 450.86 488.06 2.5757 1.0862 1.2847 208.54 0.69268 5.4469 0.0089334
-72.625 3.0240 0.0035600 35.104 35.271 0.30629 614.85 0.0016264 33.615 33.649 0.29821 1.3834 2.1284 1362.0 -0.0061454 284.81 0.14755 0.55804 1.7920 451.90 489.26 2.5703 1.0900 1.2889 208.93 0.68351 5.4737 0.0090126
-71.625 3.2127 0.0037639 37.315 37.492 0.31729 613.78 0.0016293 35.745 35.781 0.30880 1.3851 2.1316 1355.4 -0.0061181 281.03 0.14694 0.59024 1.6942 452.93 490.46 2.5650 1.0938 1.2932 209.32 0.67448 5.5005 0.0090922
-70.625 3.4108 0.0039770 39.532 39.720 0.32826 612.69 0.0016321 37.877 37.915 0.31935 1.3867 2.1349 1348.7 -0.0060904 277.34 0.14632 0.62390 1.6028 453.96 491.66 2.5598 1.0976 1.2976 209.70 0.66560 5.5273 0.0091720
-69.625 3.6187 0.0041994 41.755 41.955 0.33922 611.61 0.0016350 40.013 40.053 0.32987 1.3884 2.1382 1342.1 -0.0060624 273.72 0.14571 0.65906 1.5173 455.00 492.86 2.5547 1.1015 1.3020 210.08 0.65687 5.5540 0.0092520
-68.625 3.8367 0.0044316 43.986 44.197 0.35015 610.53 0.0016379 42.152 42.195 0.34036 1.3902 2.1415 1335.5 -0.0060339 270.17 0.14510 0.69577 1.4372 456.04 494.06 2.5497 1.1054 1.3064 210.45 0.64827 5.5807 0.0093324
-67.625 4.0652 0.0046738 46.223 46.447 0.36106 609.44 0.0016409 44.294 44.340 0.35080 1.3919 2.1449 1328.8 -0.0060051 266.69 0.14449 0.73408 1.3622 457.08 495.26 2.5448 1.1093 1.3109 210.82 0.63981 5.6074 0.0094130
-66.625 4.3046 0.0049262 48.467 48.705 0.37195 608.35 0.0016438 46.439 46.488 0.36122 1.3937 2.1483 1322.2 -0.0059760 263.28 0.14388 0.77404 1.2919 458.12 496.46 2.5400 1.1133 1.3154 211.18 0.63150 5.6341 0.0094939
-65.625 4.5551 0.0051893 50.719 50.970 0.38283 607.26 0.0016467 48.588 48.640 0.37160 1.3955 2.1518 1315.6 -0.0059464 259.93 0.14327 0.81570 1.2259 459.16 497.67 2.5353 1.1172 1.3200 211.54 0.62332 5.6608 0.0095750
-64.625 4.8173 0.0054633 52.977 53.243 0.39369 606.16 0.0016497 50.740 50.795 0.38195 1.3974 2.1553 1308.9 -0.0059164 256.65 0.14266 0.85910 1.1640 460.21 498.87 2.5307 1.1212 1.3246 211.89 0.61527 5.6874 0.0096564
-63.625 5.0915 0.0057484 55.244 55.524 0.40453 605.07 0.0016527 52.896 52.954 0.39226 1.3993 2.1588 1302.3 -0.0058861 253.42 0.14205 0.90429 1.1058 461.25 500.07 2.5262 1.1252 1.3293 212.24 0.60736 5.7140 0.0097382
-62.625 5.3781 0.0060451 57.517 57.814 0.41535 603.97 0.0016557 55.055 55.117 0.40254 1.4012 2.1624 1295.7 -0.0058553 250.26 0.14144 0.95134 1.0511 462.30 501.28 2.5218 1.1293 1.3340 212.58 0.59958 5.7406 0.0098201
-61.625 5.6774 0.0063536 59.799 60.112 0.42616 602.87 0.0016587 57.218 57.283 0.41279 1.4031 2.1660 1289.1 -0.0058241 247.16 0.14084 1.0003 0.99972 463.35 502.48 2.5175 1.1333 1.3387 212.92 0.59194 5.7672 0.0099024
-60.625 5.9899 0.0066743 62.088 62.418 0.43696 601.77 0.0016618 59.385 59.453 0.42301 1.4051 2.1697 1282.5 -0.0057925 244.12 0.14023 1.0512 0.95131 464.40 503.68 2.5133 1.1374 1.3435 213.26 0.58442 5.7938 0.0099850
-59.625 6.3160 0.0070075 64.385 64.733 0.44774 600.66 0.0016648 61.554 61.627 0.43320 1.4071 2.1734 1275.9 -0.0057605 241.13 0.13962 1.1041 0.90573 465.45 504.89 2.5091 1.1415 1.3483 213.58 0.57704 5.8203 0.010068
-58.625 6.6561 0.0073535 66.690 67.057 0.45851 599.55 0.0016679 63.728 63.805 0.44335 1.4091 2.1772 1269.3 -0.0057280 238.19 0.13902 1.1591 0.86277 466.50 506.09 2.5051 1.1457 1.3532 213.90 0.56978 5.8468 0.010151
-57.625 7.0107 0.0077126 69.003 69.390 0.46927 598.44 0.0016710 65.905 65.986 0.45348 1.4111 2.1810 1262.7 -0.0056951 235.31 0.13842 1.2161 0.82228 467.55 507.30 2.5011 1.1498 1.3581 214.22 0.56265 5.8733 0.010234
-56.625 7.3801 0.0080852 71.325 71.732 0.48002 597.33 0.0016741 68.086 68.172 0.46358 1.4132 2.1848 1256.1 -0.0056617 232.48 0.13781 1.2754 0.78408 468.60 508.50 2.4972 1.1540 1.3631 214.53 0.55564 5.8998 0.010318
-55.625 7.7648 0.0084717 73.655 74.083 0.49075 596.22 0.0016772 70.271 70.361 0.47364 1.4153 2.1887 1249.5 -0.0056279 229.69 0.13721 1.3369 0.74802 469.66 509.71 2.4934 1.1582 1.3681 214.84 0.54875 5.9263 0.010402
-54.625 8.1652 0.0088723 75.993 76.444 0.50148 595.10 0.0016804 72.460 72.554 0.48368 1.4174 2.1927 1242.9 -0.0055937 226.96 0.13661 1.4006 0.71396 470.72 510.91 2.4897 1.1624 1.3731 215.14 0.54199 5.9527 0.010486
-53.625 8.5819 0.0092875 78.341 78.814 0.51220 593.98 0.0016836 74.652 74.752 0.49369 1.4196 2.1967 1236.3 -0.0055589 224.27 0.13601 1.4667 0.68178 471.77 512.11 2.4860 1.1667 1.3782 215.43 0.53535 5.9792 0.010571
-52.625 9.0151 0.0097176 80.697 81.194 0.52291 592.86 0.0016867 76.849 76.954 0.50368 1.4218 2.2007 1229.8 -0.0055237 221.63 0.13541 1.5353 0.65136 472.83 513.32 2.4824 1.1710 1.3834 215.72 0.52882 6.0056 0.010656
-51.625 9.4655 0.010163 83.062 83.584 0.53361 591.73 0.0016900 79.049 79.159 0.51363 1.4240 2.2048 1223.2 -0.0054880 219.04 0.13482 1.6062 0.62258 473.89 514.52 2.4789 1.1752 1.3886 216.00 0.52241 6.0320 0.010741
-50.625 9.9335 0.010624 85.436 85.984 0.54430 590.60 0.0016932 81.253 81.369 0.52356 1.4262 2.2089 1216.6 -0.0054519 216.48 0.13422 1.6797 0.59534 474.95 515.73 2.4755 1.1796 1.3938 216.28 0.51612 6.0584 0.010827
-49.625 10.419 0.011101 87.819 88.394 0.55499 589.47 0.0016964 83.462 83.584 0.53347 1.4285 2.2131 1210.1 -0.0054152 213.98 0.13363 1.7558 0.56954 476.01 516.93 2.4722 1.1839 1.3991 216.55 0.50994 6.0848 0.010913
-48.625 10.924 0.011594 90.212 90.815 0.56567 588.34 0.0016997 85.674 85.802 0.54334 1.4308 2.2173 1203.5 -0.0053780 211.51 0.13303 1.8345 0.54510 477.07 518.13 2.4689 1.1883 1.4044 216.82 0.50387 6.1112 0.010999
-47.625 11.448 0.012104 92.614 93.246 0.57634 587.20 0.0017030 87.891 88.025 0.55319 1.4331 2.2216 1196.9 -0.0053403 209.08 0.13244 1.9159 0.52194 478.14 519.33 2.4657 1.1927 1.4098 217.08 0.49792 6.1375 0.011085
-46.625 11.991 0.012631 95.026 95.687 0.58701 586.06 0.0017063 90.111 90.252 0.56302 1.4354 2.2259 1190.4 -0.0053020 206.69 0.13185 2.0001 0.49997 479.20 520.53 2.4625 1.1971 1.4153 217.33 0.49207 6.1639 0.011172
-45.625 12.554 0.013176 97.448 98.140 0.59768 584.92 0.0017096 92.336 92.484 0.57282 1.4378 2.2303 1183.8 -0.0052633 204.34 0.13126 2.0872 0.47912 480.27 521.74 2.4594 1.2015 1.4207 217.58 0.48633 6.1902 0.011259
-44.625 13.137 0.013739 99.879 100.60 0.60834 583.77 0.0017130 94.565 94.720 0.58260 1.4402 2.2347 1177.3 -0.0052240 202.03 0.13067 2.1771 0.45933 481.33 522.94 2.4564 1.2060 1.4263 217.82 0.48069 6.2165 0.011347
-43.625 13.741 0.014320 102.32 103.08 0.61900 582.62 0.0017164 96.799 96.961 0.59235 1.4426 2.2392 1170.7 -0.0051841 199.75 0.13008 2.2700 0.44053 482.40 524.14 2.4535 1.2104 1.4319 218.05 0.47516 6.2429 0.011435
-42.625 14.367 0.014919 104.77 105.56 0.62966 581.47 0.0017198 99.036 99.207 0.60208 1.4450 2.2437 1164.2 -0.0051437 197.51 0.12949 2.3659 0.42267 483.46 525.33 2.4506 1.2149 1.4375 218.28 0.46973 6.2692 0.011523
-41.625 15.015 0.015538 107.23 108.06 0.64031 580.32 0.0017232 101.28 101.46 0.61179 1.4475 2.2483 1157.7 -0.0051027 195.30 0.12891 2.4649 0.40569 484.53 526.53 2.4478 1.2195 1.4432 218.50 0.46440 6.2955 0.011612
-40.625 15.686 0.016176 109.71 110.57 0.65097 579.16 0.0017266 103.52 103.71 0.62147 1.4500 2.2529 1151.1 -0.0050611 193.13 0.12832 2.5671 0.38954 485.60 527.73 2.4450 1.2240 1.4489 218.72 0.45917 6.3218 0.011701
-39.625 16.380 0.016834 112.19 113.09 0.66162 578.00 0.0017301 105.78 105.97 0.63113 1.4525 2.2576 1144.6 -0.0050189 190.99 0.12774 2.6725 0.37418 486.67 528.93 2.4423 1.2286 1.4547 218.93 0.45403 6.3481 0.011790
-38.625 17.097 0.017513 114.68 115.62 0.67228 576.83 0.0017336 108.03 108.24 0.64077 1.4550 2.2623 1138.0 -0.0049761 188.88 0.12716 2.7813 0.35955 487.74 530.12 2.4397 1.2332 1.4606 219.13 0.44900 6.3744 0.011880
-37.625 17.838 0.018212 117.19 118.17 0.68293 575.66 0.0017371 110.29 110.51 0.65039 1.4576 2.2671 1131.5 -0.0049327 186.81 0.12658 2.8934 0.34562 488.81 531.32 2.4371 1.2378 1.4665 219.33 0.44405 6.4007 0.011970
-36.625 18.604 0.018933 119.70 120.73 0.69358 574.49 0.0017407 112.56 112.78 0.65999 1.4602 2.2719 1125.0 -0.0048887 184.76 0.12600 3.0089 0.33235 489.88 532.51 2.4346 1.2424 1.4724 219.52 0.43920 6.4270 0.012060
-35.625 19.395 0.019675 122.23 123.30 0.70424 573.32 0.0017442 114.83 115.06 0.66956 1.4628 2.2768 1118.5 -0.0048440 182.75 0.12542 3.1280 0.31969 490.95 533.70 2.4321 1.2471 1.4784 219.70 0.43444 6.4533 0.012151
-34.625 20.212 0.020440 124.76 125.88 0.71490 572.14 0.0017478 117.10 117.34 0.67912 1.4654 2.2818 1111.9 -0.0047987 180.76 0.12485 3.2506 0.30763 492.02 534.89 2.4297 1.2517 1.4845 219.88 0.42977 6.4797 0.012243
-33.625 21.056 0.021227 127.31 128.47 0.72556 570.96 0.0017514 119.38 119.63 0.68865 1.4681 2.2868 1105.4 -0.0047527 178.80 0.12427 3.3770 0.29612 493.09 536.08 2.4273 1.2564 1.4906 220.05 0.42519 6.5060 0.012334
-32.625 21.926 0.022037 129.87 131.08 0.73622 569.77 0.0017551 121.66 121.93 0.69817 1.4708 2.2918 1098.9 -0.0047061 176.87 0.12370 3.5071 0.28514 494.17 537.27 2.4250 1.2611 1.4968 220.21 0.42070 6.5323 0.012426
-31.625 22.823 0.022870 132.44 133.70 0.74689 568.58 0.0017588 123.95 124.23 0.70767 1.4735 2.2970 1092.3 -0.0046587 174.97 0.12313 3.6410 0.27465 495.24 538.46 2.4227 1.2659 1.5031 220.36 0.41629 6.5587 0.012519
-30.625 23.749 0.023728 135.02 136.33 0.75756 567.39 0.0017625 126.24 126.53 0.71714 1.4762 2.3021 1085.8 -0.0046107 173.09 0.12256 3.7787 0.26464 496.31 539.64 2.4205 1.2706 1.5094 220.51 0.41196 6.5850 0.012612
-29.625 24.703 0.024610 137.62 138.98 0.76824 566.19 0.0017662 128.54 128.84 0.72660 1.4790 2.3074 1079.3 -0.0045619 171.24 0.12200 3.9205 0.25507 497.38 540.83 2.4184 1.2754 1.5157 220.65 0.40772 6.6114 0.012706
-28.625 25.687 0.025517 140.22 141.64 0.77892 564.99 0.0017699 130.84 131.16 0.73604 1.4818 2.3126 1072.8 -0.0045124 169.42 0.12143 4.0663 0.24592 498.46 542.01 2.4162 1.2802 1.5222 220.79 0.40356 6.6378 0.012800
-27.625 26.700 0.026450 142.84 144.32 0.78960 563.78 0.0017737 133.15 133.48 0.74547 1.4846 2.3180 1066.2 -0.0044621 167.62 0.12087 4.2163 0.23717 499.53 543.19 2.4142 1.2850 1.5286 220.91 0.39947 6.6642 0.012894
-26.625 27.743 0.027408 145.47 147.00 0.80029 562.57 0.0017775 135.47 135.81 0.75487 1.4874 2.3234 1059.7 -0.0044111 165.84 0.12031 4.3705 0.22881 500.60 544.37 2.4122 1.2899 1.5352 221.03 0.39547 6.6906 0.012989
-25.625 28.817 0.028393 148.12 149.71 0.81099 561.36 0.0017814 137.78 138.14 0.76426 1.4902 2.3289 1053.2 -0.0043593 164.09 0.11975 4.5290 0.22080 501.68 545.55 2.4102 1.2947 1.5418 221.14 0.39154 6.7171 0.013084
-24.625 29.923 0.029405 150.77 152.42 0.82170 560.14 0.0017853 140.11 140.48 0.77363 1.4931 2.3344 1046.7 -0.0043067 162.36 0.11919 4.6918 0.21314 502.75 546.72 2.4083 1.2996 1.5485 221.25 0.38768 6.7436 0.013180
-23.625 31.061 0.030444 153.44 155.15 0.83241 558.92 0.0017892 142.44 142.82 0.78298 1.4960 2.3400 1040.1 -0.0042533 160.65 0.11863 4.8592 0.20580 503.82 547.90 2.4064 1.3045 1.5552 221.35 0.38391 6.7701 0.013277
-22.625 32.232 0.031512 156.12 157.90 0.84313 557.69 0.0017931 144.77 145.17 0.79232 1.4990 2.3457 1033.6 -0.0041990 158.97 0.11807 5.0311 0.19877 504.90 549.07 2.4045 1.3095 1.5621 221.44 0.38020 6.7967 0.013374
-21.625 33.435 0.032608 158.81 160.65 0.85385 556.46 0.0017971 147.11 147.52 0.80164 1.5019 2.3514 1027.1 -0.0041439 157.30 0.11752 5.2076 0.19203 505.97 550.24 2.4027 1.3144 1.5690 221.52 0.37656 6.8232 0.013471
-20.625 34.673 0.033733 161.52 163.43 0.86459 555.23 0.0018011 149.45 149.88 0.81095 1.5049 2.3572 1020.6 -0.0040879 155.66 0.11697 5.3889 0.18557 507.04 551.40 2.4010 1.3194 1.5759 221.59 0.37300 6.8499 0.013569
-19.625 35.946 0.034888 164.23 166.22 0.87533 553.99 0.0018051 151.80 152.25 0.82024 1.5079 2.3630 1014.0 -0.0040311 154.04 0.11642 5.5750 0.17937 508.11 552.57 2.3992 1.3244 1.5829 221.66 0.36950 6.8765 0.013668
-18.625 37.253 0.036073 166.97 169.02 0.88608 552.74 0.0018092 154.16 154.62 0.82952 1.5109 2.3689 1007.5 -0.0039733 152.44 0.11587 5.7660 0.17343 509.19 553.73 2.3976 1.3294 1.5901 221.72 0.36608 6.9032 0.013767
-17.625 38.596 0.037289 169.71 171.84 0.89685 551.49 0.0018133 156.52 157.00 0.83878 1.5140 2.3749 1001.0 -0.0039145 150.86 0.11532 5.9621 0.16773 510.26 554.89 2.3959 1.3345 1.5972 221.77 0.36272 6.9300 0.013867
-16.625 39.976 0.038536 172.47 174.67 0.90762 550.24 0.0018174 158.89 159.39 0.84803 1.5171 2.3810 994.44 -0.0038549 149.29 0.11478 6.1632 0.16225 511.33 556.05 2.3943 1.3395 1.6045 221.81 0.35942 6.9568 0.013968
-15.625 41.392 0.039816 175.24 177.52 0.91840 548.98 0.0018216 161.26 161.78 0.85726 1.5202 2.3871 987.91 -0.0037942 147.75 0.11423 6.3696 0.15700 512.40 557.20 2.3927 1.3446 1.6119 221.85 0.35619 6.9836 0.014069
-14.625 42.846 0.041128 178.03 180.39 0.92919 547.71 0.0018258 163.64 164.18 0.86649 1.5233 2.3933 981.37 -0.0037325 146.22 0.11369 6.5812 0.15195 513.47 558.36 2.3912 1.3497 1.6193 221.87 0.35302 7.0105 0.014170
-13.625 44.338 0.042474 180.82 183.27 0.94000 546.44 0.0018300 166.02 166.58 0.87569 1.5264 2.3996 974.83 -0.0036698 144.72 0.11315 6.7983 0.14710 514.54 559.51 2.3897 1.3549 1.6268 221.89 0.34992 7.0375 0.014273
-12.625 45.870 0.043853 183.64 186.17 0.95082 545.17 0.0018343 168.41 168.99 0.88489 1.5296 2.4059 968.29 -0.0036061 143.23 0.11261 7.0208 0.14243 515.61 560.65 2.3883 1.3600 1.6344 221.90 0.34688 7.0646 0.014376
-11.625 47.440 0.045267 186.46 189.08 0.96164 543.89 0.0018386 170.81 171.41 0.89407 1.5328 2.4124 961.75 -0.0035413 141.76 0.11208 7.2490 0.13795 516.68 561.80 2.3868 1.3652 1.6421 221.91 0.34389 7.0917 0.014479
-10.625 49.051 0.046717 189.30 192.01 0.97248 542.60 0.0018430 173.21 173.83 0.90324 1.5360 2.4189 955.20 -0.0034753 140.30 0.11154 7.4829 0.13364 517.75 562.94 2.3854 1.3704 1.6498 221.90 0.34097 7.1188 0.014584
-9.6250 50.703 0.048202 192.16 194.95 0.98334 541.31 0.0018474 175.61 176.26 0.91240 1.5393 2.4255 948.65 -0.0034082 138.86 0.11101 7.7226 0.12949 518.81 564.08 2.3841 1.3757 1.6577 221.88 0.33810 7.1461 0.014689
-8.6250 52.396 0.049725 195.03 197.92 0.99420 540.02 0.0018518 178.03 178.70 0.92154 1.5426 2.4321 942.10 -0.0033400 137.44 0.11048 7.9683 0.12550 519.88 565.21 2.3827 1.3809 1.6657 221.86 0.33529 7.1734 0.014795
-7.6250 54.131 0.051284 197.91 200.90 1.0051 538.72 0.0018563 180.45 181.14 0.93068 1.5459 2.4389 935.55 -0.0032705 136.03 0.10995 8.2200 0.12165 520.94 566.35 2.3814 1.3862 1.6737 221.83 0.33254 7.2008 0.014902
-6.6250 55.909 0.052882 200.81 203.89 1.0160 537.41 0.0018608 182.87 183.59 0.93980 1.5492 2.4457 928.99 -0.0031998 134.64 0.10942 8.4779 0.11795 522.01 567.48 2.3801 1.3915 1.6819 221.79 0.32984 7.2284 0.015009
-5.6250 57.730 0.054518 203.72 206.90 1.0269 536.10 0.0018653 185.30 186.05 0.94892 1.5525 2.4526 922.43 -0.0031279 133.27 0.10889 8.7420 0.11439 523.07 568.60 2.3789 1.3969 1.6902 221.74 0.32720 7.2560 0.015117
-4.6250 59.595 0.056195 206.65 209.93 1.0378 534.78 0.0018699 187.74 188.51 0.95802 1.5559 2.4596 915.87 -0.0030546 131.91 0.10837 9.0126 0.11096 524.13 569.72 2.3777 1.4022 1.6985 221.68 0.32461 7.2837 0.015226
-3.6250 61.505 0.057911 209.59 212.98 1.0487 533.45 0.0018746 190.19 190.98 0.96711 1.5593 2.4667 909.30 -0.0029800 130.56 0.10785 9.2896 0.10765 525.19 570.84 2.3765 1.4076 1.7070 221.62 0.32207 7.3115 0.015336
-2.6250 63.461 0.059669 212.54 216.04 1.0597 532.12 0.0018793 192.64 193.46 0.97620 1.5627 2.4739 902.73 -0.0029041 129.23 0.10733 9.5733 0.10446 526.25 571.96 2.3753 1.4131 1.7156 221.54 0.31958 7.3394 0.015447
-1.6250 65.462 0.061469 215.52 219.13 1.0706 530.78 0.0018840 195.10 195.95 0.98527 1.5662 2.4811 896.16 -0.0028267 127.91 0.10681 9.8638 0.10138 527.31 573.07 2.3742 1.4185 1.7243 221.45 0.31715 7.3674 0.015559
-0.62500 67.510 0.063312 218.50 222.23 1.0816 529.44 0.0018888 197.56 198.44 0.99434 1.5696 2.4885 889.58 -0.0027478 126.61 0.10629 10.161 0.098414 528.37 574.18 2.3731 1.4240 1.7331 221.36 0.31476 7.3956 0.015671
0.37500 69.606 0.065198 221.51 225.34 1.0926 528.09 0.0018936 200.03 200.94 1.0034 1.5731 2.4960 883.00 -0.0026675 125.32 0.10578 10.466 0.095552 529.42 575.28 2.3720 1.4295 1.7421 221.26 0.31242 7.4239 0.015785
1.3750 71.749 0.067130 224.52 228.48 1.1036 526.73 0.0018985 202.51 203.45 1.0124 1.5767 2.5035 876.42 -0.0025856 124.04 0.10527 10.777 0.092790 530.48 576.38 2.3709 1.4350 1.7512 221.14 0.31013 7.4523 0.015899
2.3750 73.941 0.069106 227.56 231.63 1.1147 525.37 0.0019034 204.99 205.96 1.0215 1.5802 2.5112 869.83 -0.0025022 122.78 0.10476 11.096 0.090123 531.53 577.47 2.3699 1.4406 1.7604 221.02 0.30789 7.4808 0.016015
3.3750 76.183 0.071130 230.61 234.81 1.1257 523.99 0.0019084 207.48 208.48 1.0305 1.5838 2.5190 863.24 -0.0024171 121.53 0.10425 11.422 0.087549 532.58 578.56 2.3688 1.4462 1.7697 220.89 0.30569 7.5095 0.016131
4.3750 78.475 0.073201 233.67 238.00 1.1368 522.62 0.0019134 209.98 211.01 1.0395 1.5874 2.5268 856.64 -0.0023303 120.29 0.10374 11.756 0.085062 533.63 579.65 2.3678 1.4518 1.7792 220.75 0.30354 7.5384 0.016249
5.3750 80.817 0.075320 236.75 241.21 1.1479 521.23 0.0019185 212.48 213.55 1.0486 1.5910 2.5348 850.04 -0.0022417 119.06 0.10324 12.098 0.082660 534.67 580.73 2.3669 1.4575 1.7888 220.60 0.30144 7.5674 0.016368
6.3750 83.211 0.077489 239.85 244.44 1.1590 519.84 0.0019237 215.00 216.10 1.0576 1.5946 2.5429 843.43 -0.0021514 117.85 0.10273 12.447 0.080340 535.72 581.81 2.3659 1.4632 1.7986 220.44 0.29938 7.5966 0.016487
7.3750 85.657 0.079708 242.96 247.69 1.1701 518.44 0.0019289 217.51 218.65 1.0666 1.5983 2.5511 836.82 -0.0020593 116.65 0.10223 12.805 0.078096 536.76 582.88 2.3650 1.4689 1.8085 220.27 0.29736 7.6259 0.016608
8.3750 88.156 0.081979 246.09 250.95 1.1812 517.03 0.0019341 220.04 221.22 1.0756 1.6020 2.5595 830.20 -0.0019652 115.46 0.10173 13.170 0.075928 537.80 583.95 2.3640 1.4746 1.8186 220.08 0.29538 7.6555 0.016730
9.3750 90.708 0.084302 249.24 254.24 1.1924 515.62 0.0019394 222.57 223.79 1.0846 1.6057 2.5679 823.58 -0.0018691 114.28 0.10124 13.545 0.073830 538.84 585.01 2.3631 1.4804 1.8288 219.89 0.29345 7.6852 0.016853
10.375 93.315 0.086680 252.40 257.54 1.2035 514.19 0.0019448 225.11 226.37 1.0936 1.6095 2.5765 816.96 -0.0017710 113.11 0.10074 13.927 0.071802 539.87 586.07 2.3622 1.4863 1.8392 219.69 0.29156 7.7151 0.016978
11.375 95.977 0.089112 255.58 260.87 1.2147 512.76 0.0019502 227.66 228.95 1.1025 1.6132 2.5852 810.32 -0.0016708 111.95 0.10025 14.319 0.069840 540.90 587.12 2.3614 1.4921 1.8498 219.48 0.28971 7.7452 0.017103
12.375 98.694 0.091601 258.77 264.22 1.2259 511.32 0.0019557 230.22 231.55 1.1115 1.6170 2.5940 803.68 -0.0015685 110.80 0.099756 14.719 0.067941 541.93 588.17 2.3605 1.4980 1.8605 219.26 0.28790 7.7756 0.017230
13.375 101.47 0.094147 261.98 267.58 1.2372 509.87 0.0019613 232.78 234.15 1.1205 1.6208 2.6030 797.04 -0.0014639 109.67 0.099267 15.128 0.066103 542.96 589.21 2.3597 1.5040 1.8715 219.03 0.28612 7.8061 0.017359
14.375 104.30 0.096752 265.21 270.97 1.2484 508.42 0.0019669 235.35 236.77 1.1295 1.6247 2.6121 790.39 -0.0013569 108.54 0.098779 15.547 0.064323 543.99 590.24 2.3588 1.5099 1.8826 218.79 0.28439 7.8369 0.017488
15.375 107.19 0.099418 268.46 274.37 1.2597 506.95 0.0019726 237.93 239.39 1.1384 1.6286 2.6214 783.73 -0.0012476 107.43 0.098294 15.974 0.062600 545.01 591.27 2.3580 1.5159 1.8940 218.53 0.28270 7.8680 0.017619
16.375 110.13 0.10214 271.72 277.80 1.2710 505.48 0.0019783 240.52 242.02 1.1474 1.6324 2.6308 777.07 -0.0011357 106.32 0.097810 16.412 0.060931 546.03 592.29 2.3572 1.5220 1.9055 218.27 0.28104 7.8993 0.017752
17.375 113.14 0.10493 275.01 281.25 1.2823 504.00 0.0019841 243.11 244.66 1.1564 1.6364 2.6403 770.40 -0.0010213 105.22 0.097328 16.859 0.059314 547.04 593.31 2.3564 1.5281 1.9172 217.99 0.27942 7.9308 0.017886
18.375 116.21 0.10779 278.30 284.71 1.2936 502.50 0.0019900 245.72 247.31 1.1653 1.6403 2.6501 763.72 -0.00090422 104.14 0.096848 17.317 0.057747 548.05 594.32 2.3557 1.5342 1.9292 217.71 0.27783 7.9626 0.018021
19.375 119.33 0.11071 281.62 288.20 1.3050 501.00 0.0019960 248.33 249.97 1.1743 1.6443 2.6599 757.04 -0.00078435 103.06 0.096371 17.785 0.056228 549.06 595.33 2.3549 1.5404 1.9414 217.41 0.27628 7.9947 0.018159
20.375 122.52 0.11370 284.96 291.71 1.3164 499.49 0.0020020 250.95 252.64 1.1832 1.6483 2.6700 750.35 -0.00066161 101.99 0.095895 18.263 0.054756 550.07 596.32 2.3541 1.5466 1.9538 217.10 0.27477 8.0272 0.018297
21.375 125.77 0.11675 288.31 295.24 1.3278 497.97 0.0020082 253.57 255.32 1.1922 1.6523 2.6802 743.64 -0.00053589 100.93 0.095420 18.752 0.053328 551.07 597.31 2.3534 1.5528 1.9665 216.78 0.27329 8.0599 0.018438
22.375 129.08 0.11988 291.68 298.80 1.3392 496.43 0.0020144 256.21 258.00 1.2012 1.6563 2.6906 736.94 -0.00040708 99.877 0.094948 19.252 0.051943 552.07 598.30 2.3526 1.5591 1.9795 216.45 0.27184 8.0929 0.018580
23.375 132.46 0.12308 295.07 302.37 1.3506 494.89 0.0020206 258.86 260.70 1.2101 1.6604 2.7012 730.22 -0.00027505 98.834 0.094478 19.763 0.050600 553.06 599.27 2.3519 1.5655 1.9927 216.11 0.27043 8.1263 0.018724
24.375 135.90 0.12636 298.47 305.97 1.3621 493.34 0.0020270 261.51 263.41 1.2191 1.6645 2.7120 723.49 -0.00013968 97.800 0.094009 20.285 0.049297 554.05 600.24 2.3512 1.5718 2.0061 215.75 0.26906 8.1600 0.018870
25.375 139.41 0.12971 301.90 309.59 1.3736 491.77 0.0020335 264.17 266.13 1.2280 1.6686 2.7230 716.76 -8.3775e-07 96.773 0.093543 20.820 0.048032 555.03 601.20 2.3504 1.5783 2.0199 215.39 0.26771 8.1941 0.019017
26.375 142.98 0.13314 305.34 313.23 1.3851 490.20 0.0020400 266.84 268.85 1.2370 1.6728 2.7342 710.01 0.00014161 95.755 0.093078 21.366 0.046804 556.01 602.15 2.3497 1.5847 2.0340 215.01 0.26640 8.2286 0.019167
27.375 146.62 0.13666 308.81 316.89 1.3967 488.61 0.0020466 269.52 271.59 1.2459 1.6770 2.7456 703.26 0.00028782 94.745 0.092615 21.924 0.045612 556.99 603.10 2.3490 1.5913 2.0484 214.62 0.26512 8.2634 0.019319
28.375 150.33 0.14025 312.29 320.58 1.4082 487.01 0.0020533 272.21 274.34 1.2549 1.6812 2.7573 696.49 0.00043793 93.742 0.092154 22.495 0.044454 557.96 604.03 2.3483 1.5978 2.0631 214.21 0.26387 8.2987 0.019472
29.375 154.10 0.14393 315.79 324.29 1.4198 485.40 0.0020601 274.91 277.10 1.2638 1.6854 2.7691 689.72 0.00059212 92.747 0.091695 23.079 0.043329 558.92 604.96 2.3476 1.6044 2.0781 213.80 0.26265 8.3344 0.019628
30.375 157.94 0.14770 319.31 328.02 1.4315 483.78 0.0020671 277.62 279.87 1.2728 1.6897 2.7813 682.93 0.00075055 91.760 0.091238 23.676 0.042237 559.88 605.88 2.3469 1.6111 2.0935 213.37 0.26147 8.3705 0.019786
31.375 161.86 0.15156 322.85 331.78 1.4431 482.15 0.0020741 280.34 282.66 1.2818 1.6939 2.7936 676.13 0.00091340 90.779 0.090782 24.287 0.041175 560.84 606.79 2.3462 1.6178 2.1092 212.93 0.26031 8.4071 0.019947
32.375 165.84 0.15551 326.41 335.56 1.4548 480.50 0.0020812 283.07 285.45 1.2908 1.6983 2.8063 669.32 0.0010809 89.806 0.090328 24.911 0.040143 561.79 607.69 2.3455 1.6246 2.1254 212.48 0.25919 8.4442 0.020110
33.375 169.90 0.15955 329.99 339.36 1.4665 478.83 0.0020884 285.81 288.26 1.2997 1.7026 2.8192 662.50 0.0012532 88.840 0.089876 25.549 0.039140 562.73 608.58 2.3448 1.6314 2.1419 212.01 0.25809 8.4818 0.020275
34.375 174.02 0.16369 333.59 343.19 1.4782 477.16 0.0020957 288.56 291.07 1.3087 1.7070 2.8324 655.67 0.0014305 87.880 0.089426 26.202 0.038164 563.67 609.46 2.3440 1.6383 2.1589 211.53 0.25702 8.5199 0.020443
35.375 178.22 0.16794 337.21 347.04 1.4899 475.47 0.0021032 291.32 293.90 1.3177 1.7114 2.8459 648.82 0.0016131 86.927 0.088977 26.870 0.037216 564.60 610.33 2.3433 1.6452 2.1763 211.04 0.25599 8.5586 0.020613
36.375 182.50 0.17229 340.85 350.92 1.5017 473.77 0.0021107 294.09 296.74 1.3267 1.7158 2.8597 641.96 0.0018012 85.980 0.088531 27.553 0.036293 565.52 611.19 2.3426 1.6522 2.1942 210.53 0.25498 8.5978 0.020786
37.375 186.84 0.17675 344.51 354.82 1.5135 472.05 0.0021184 296.87 299.60 1.3357 1.7203 2.8739 635.08 0.0019950 85.040 0.088085 28.252 0.035395 566.44 612.04 2.3419 1.6592 2.2125 210.01 0.25400 8.6376 0.020962
38.375 191.27 0.18131 348.20 358.75 1.5254 470.31 0.0021262 299.66 302.46 1.3447 1.7248 2.8884 628.19 0.0021949 84.105 0.087642 28.967 0.034522 567.35 612.88 2.3411 1.6663 2.2314 209.47 0.25305 8.6780 0.021141
39.375 195.77 0.18600 351.90 362.70 1.5372 468.56 0.0021342 302.46 305.34 1.3537 1.7293 2.9033 621.29 0.0024011 83.177 0.087200 29.699 0.033671 568.26 613.70 2.3404 1.6734 2.2508 208.92 0.25213 8.7190 0.021323
40.375 200.34 0.19080 355.62 366.67 1.5491 466.80 0.0021423 305.27 308.23 1.3627 1.7339 2.9185 614.37 0.0026140 82.254 0.086760 30.447 0.032844 569.15 614.52 2.3396 1.6806 2.2708 208.36 0.25123 8.7608 0.021508
41.375 205.00 0.19572 359.37 370.67 1.5611 465.01 0.0021505 308.10 311.14 1.3718 1.7385 2.9342 607.43 0.0028338 81.338 0.086322 31.214 0.032037 570.04 615.32 2.3389 1.6879 2.2913 207.78 0.25037 8.8032 0.021696
42.375 209.73 0.20077 363.13 374.70 1.5730 463.21 0.0021588 310.94 314.06 1.3808 1.7432 2.9502 600.47 0.0030609 80.426 0.085885 31.998 0.031252 570.92 616.11 2.3381 1.6952 2.3125 207.19 0.24953 8.8463 0.021888
43.375 214.54 0.20595 366.92 378.76 1.5850 461.40 0.0021673 313.79 316.99 1.3899 1.7478 2.9667 593.50 0.0032957 79.520 0.085449 32.800 0.030488 571.79 616.88 2.3373 1.7027 2.3344 206.58 0.24871 8.8902 0.022084
44.375 219.43 0.21127 370.73 382.84 1.5970 459.56 0.0021760 316.65 319.94 1.3989 1.7525 2.9837 586.51 0.0035386 78.619 0.085015 33.622 0.029742 572.65 617.65 2.3365 1.7101 2.3569 205.96 0.24793 8.9349 0.022283
45.375 224.41 0.21673 374.57 386.94 1.6091 457.71 0.0021848 319.52 322.90 1.4080 1.7573 3.0012 579.50 0.0037900 77.723 0.084583 34.463 0.029016 573.50 618.40 2.3357 1.7177 2.3802 205.32 0.24717 8.9805 0.022485
46.375 229.46 0.22234 378.42 391.08 1.6212 455.83 0.0021938 322.41 325.88 1.4171 1.7621 3.0192 572.46 0.0040504 76.832 0.084152 35.325 0.028308 574.34 619.13 2.3349 1.7253 2.4042 204.67 0.24644 9.0269 0.022692
47.375 234.60 0.22809 382.30 395.24 1.6333 453.94 0.0022029 325.31 328.87 1.4262 1.7669 3.0377 565.41 0.0043202 75.946 0.083723 36.208 0.027618 575.17 619.85 2.3340 1.7329 2.4291 204.00 0.24573 9.0742 0.022903
48.375 239.83 0.23401 386.20 399.43 1.6454 452.03 0.0022123 328.22 331.88 1.4353 1.7718 3.0569 558.34 0.0046000 75.064 0.083295 37.112 0.026945 576.00 620.55 2.3332 1.7407 2.4548 203.31 0.24505 9.1224 0.023119
49.375 245.13 0.24009 390.13 403.65 1.6576 450.09 0.0022218 331.15 334.90 1.4445 1.7767 3.0766 551.24 0.0048904 74.186 0.082868 38.039 0.026289 576.81 621.24 2.3323 1.7485 2.4815 202.61 0.24440 9.1716 0.023339
50.375 250.53 0.24634 394.08 407.89 1.6698 448.13 0.0022315 334.09 337.94 1.4536 1.7817 3.0970 544.13 0.0051920 73.313 0.082442 38.989 0.025648 577.61 621.91 2.3314 1.7564 2.5092 201.89 0.24377 9.2219 0.023564
51.375 256.01 0.25277 398.05 412.17 1.6821 446.15 0.0022414 337.04 341.00 1.4628 1.7867 3.1181 536.98 0.0055054 72.443 0.082018 39.962 0.025024 578.39 622.56 2.3304 1.7644 2.5379 201.16 0.24317 9.2733 0.023794
52.375 261.57 0.25938 402.05 416.47 1.6944 444.15 0.0022515 340.01 344.07 1.4720 1.7918 3.1400 529.82 0.0058313 71.577 0.081595 40.961 0.024414 579.17 623.20 2.3295 1.7724 2.5677 200.41 0.24260 9.3258 0.024029
53.375 267.23 0.26619 406.07 420.81 1.7067 442.12 0.0022618 343.00 347.17 1.4812 1.7969 3.1627 522.62 0.0061705 70.715 0.081174 41.985 0.023818 579.93 623.81 2.3285 1.7805 2.5987 199.63 0.24205 9.3795 0.024270
54.375 272.97 0.27321 410.11 425.17 1.7191 440.06 0.0022724 346.00 350.28 1.4904 1.8021 3.1862 515.40 0.0065239 69.856 0.080753 43.036 0.023237 580.68 624.41 2.3274 1.7887 2.6310 198.85 0.24154 9.4344 0.024516
55.375 278.81 0.28044 414.19 429.57 1.7315 437.98 0.0022832 349.02 353.40 1.4997 1.8073 3.2106 508.15 0.0068923 69.001 0.080334 44.114 0.022669 581.41 624.99 2.3264 1.7969 2.6646 198.04 0.24105 9.4907 0.024769
56.375 284.74 0.28789 418.29 433.99 1.7440 435.87 0.0022943 352.05 356.55 1.5090 1.8126 3.2360 500.87 0.0072767 68.148 0.079915 45.221 0.022114 582.13 625.54 2.3253 1.8052 2.6998 197.22 0.24059 9.5484 0.025028
57.375 290.76 0.29557 422.41 438.45 1.7565 433.73 0.0023056 355.10 359.72 1.5183 1.8179 3.2624 493.56 0.0076782 67.299 0.079498 46.358 0.021571 582.83 626.07 2.3241 1.8136 2.7365 196.37 0.24016 9.6075 0.025294
58.375 296.87 0.30350 426.56 442.93 1.7690 431.56 0.0023172 358.17 362.91 1.5276 1.8233 3.2900 486.22 0.0080980 66.451 0.079082 47.525 0.021041 583.52 626.58 2.3230 1.8220 2.7749 195.51 0.23976 9.6682 0.025568
59.375 303.08 0.31169 430.74 447.46 1.7816 429.36 0.0023290 361.25 366.12 1.5370 1.8288 3.3188 478.84 0.0085373 65.606 0.078666 48.726 0.020523 584.18 627.07 2.3218 1.8305 2.8152 194.63 0.23939 9.7305 0.025849
60.375 309.38 0.32016 434.94 452.01 1.7942 427.13 0.0023412 364.36 369.35 1.5464 1.8343 3.3489 471.43 0.0089976 64.763 0.078251 49.960 0.020016 584.83 627.53 2.3205 1.8391 2.8576 193.73 0.23905 9.7945 0.026138
61.375 315.78 0.32891 439.18 456.59 1.8069 424.87 0.0023537 367.48 372.60 1.5558 1.8400 3.3805 463.99 0.0094803 63.922 0.077838 51.229 0.019520 585.46 627.96 2.3192 1.8479 2.9022 192.82 0.23873 9.8603 0.026436
62.375 322.28 0.33797 443.44 461.22 1.8196 422.56 0.0023665 370.62 375.88 1.5653 1.8457 3.4136 456.50 0.0099871 63.083 0.077425 52.535 0.019035 586.07 628.37 2.3178 1.8567 2.9492 191.88 0.23845 9.9281 0.026744
63.375 328.88 0.34736 447.73 465.87 1.8324 420.22 0.0023797 373.79 379.18 1.5748 1.8514 3.4483 448.97 0.010520 62.244 0.077012 53.879 0.018560 586.66 628.74 2.3164 1.8656 2.9989 190.92 0.23819 9.9979 0.027061
64.375 335.58 0.35708 452.05 470.56 1.8452 417.85 0.0023932 376.97 382.51 1.5844 1.8573 3.4850 441.40 0.011081 61.407 0.076600 55.265 0.018095 587.22 629.09 2.3149 1.8747 3.0517 189.95 0.23796 10.070 0.027389
65.375 342.38 0.36718 456.40 475.29 1.8581 415.42 0.0024072 380.18 385.86 1.5939 1.8633 3.5236 433.79 0.011672 60.570 0.076189 56.692 0.017639 587.76 629.40 2.3133 1.8839 3.1077 188.95 0.23775 10.144 0.027729
66.375 349.28 0.37766 460.78 480.05 1.8710 412.96 0.0024215 383.41 389.25 1.6036 1.8693 3.5645 426.12 0.012296 59.733 0.075779 58.165 0.017193 588.28 629.68 2.3117 1.8933 3.1674 187.93 0.23757 10.221 0.028080
67.375 356.28 0.38856 465.20 484.85 1.8840 410.45 0.0024363 386.67 392.65 1.6133 1.8755 3.6078 418.41 0.012956 58.897 0.075368 59.684 0.016755 588.76 629.92 2.3100 1.9030 3.2311 186.89 0.23740 10.300 0.028446
68.375 363.40 0.39991 469.64 489.69 1.8970 407.89 0.0024516 389.95 396.09 1.6230 1.8818 3.6537 410.64 0.013655 58.059 0.074959 61.253 0.016326 589.22 630.13 2.3082 1.9129 3.2994 185.83 0.23724 10.382 0.028825
69.375 370.61 0.41173 474.12 494.56 1.9101 405.28 0.0024674 393.26 399.57 1.6328 1.8882 3.7027 402.81 0.014396 57.221 0.074549 62.875 0.015905 589.65 630.29 2.3064 1.9231 3.3727 184.74 0.23710 10.467 0.029221
70.375 377.94 0.42408 478.63 499.48 1.9233 402.62 0.0024838 396.60 403.07 1.6426 1.8947 3.7550 394.92 0.015183 56.381 0.074141 64.552 0.015491 590.04 630.41 2.3044 1.9336 3.4518 183.63 0.23697 10.555 0.029633
71.375 385.37 0.43697 483.18 504.44 1.9365 399.89 0.0025007 399.96 406.61 1.6525 1.9014 3.8109 386.97 0.016021 55.540 0.073732 66.288 0.015086 590.40 630.49 2.3024 1.9444 3.5371 182.50 0.23684 10.647 0.030064
72.375 392.92 0.45048 487.76 509.44 1.9498 397.11 0.0025182 403.36 410.18 1.6625 1.9083 3.8711 378.95 0.016915 54.696 0.073324 68.087 0.014687 590.73 630.51 2.3002 1.9556 3.6297 181.34 0.23671 10.743 0.030515
73.375 400.57 0.46463 492.39 514.48 1.9631 394.26 0.0025364 406.79 413.80 1.6726 1.9153 3.9359 370.85 0.017871 53.848 0.072917 69.953 0.014295 591.01 630.49 2.2979 1.9673 3.7303 180.16 0.23658 10.842 0.030989
74.375 408.34 0.47950 497.04 519.57 1.9766 391.34 0.0025553 410.26 417.45 1.6827 1.9226 4.0060 362.67 0.018894 52.997 0.072510 71.890 0.013910 591.25 630.41 2.2955 1.9793 3.8401 178.95 0.23643 10.946 0.031488
75.375 416.23 0.49516 501.74 524.70 1.9901 388.34 0.0025751 413.76 421.15 1.6930 1.9301 4.0822 354.41 0.019993 52.142 0.072104 73.904 0.013531 591.44 630.27 2.2930 1.9919 3.9604 177.71 0.23627 11.054 0.032014
76.375 424.23 0.51167 506.48 529.88 2.0036 385.26 0.0025957 417.31 424.90 1.7033 1.9378 4.1654 346.06 0.021177 51.281 0.071699 76.001 0.013158 591.59 630.07 2.2903 2.0050 4.0927 176.44 0.23609 11.168 0.032570
77.375 432.35 0.52914 511.26 535.11 2.0173 382.09 0.0026172 420.89 428.70 1.7137 1.9459 4.2565 337.60 0.022455 50.414 0.071295 78.187 0.012790 591.68 629.80 2.2874 2.0186 4.2389 175.15 0.23588 11.287 0.033161
78.375 440.59 0.54767 516.09 540.39 2.0310 378.83 0.0026397 424.53 432.54 1.7243 1.9543 4.3570 329.05 0.023838 49.539 0.070893 80.469 0.012427 591.71 629.46 2.2844 2.0328 4.4012 173.82 0.23563 11.412 0.033789
79.375 448.95 0.56738 520.96 545.72 2.0449 375.46 0.0026634 428.21 436.45 1.7349 1.9631 4.4684 320.38 0.025341 48.657 0.070494 82.856 0.012069 591.68 629.04 2.2812 2.0475 4.5824 172.46 0.23535 11.544 0.034461
80.375 457.44 0.58842 525.88 551.11 2.0588 371.97 0.0026884 431.94 440.42 1.7457 1.9723 4.5928 311.58 0.026980 47.764 0.070099 85.359 0.011715 591.58 628.53 2.2778 2.0630 4.7859 171.07 0.23501 11.684 0.035181
81.375 466.05 0.61098 530.85 556.55 2.0729 368.36 0.0027147 435.74 444.46 1.7567 1.9820 4.7327 302.66 0.028773 46.860 0.069708 87.988 0.011365 591.40 627.92 2.2742 2.0791 5.0161 169.64 0.23461 11.832 0.035957
82.375 474.79 0.63527 535.87 562.06 2.0870 364.61 0.0027427 439.60 448.58 1.7678 1.9924 4.8914 293.60 0.030744 45.942 0.069323 90.757 0.011018 591.14 627.21 2.2703 2.0959 5.2786 168.17 0.23413 11.989 0.036797
83.375 483.66 0.66155 540.95 567.63 2.1013 360.70 0.0027724 443.53 452.78 1.7791 2.0034 5.0731 284.38 0.032920 45.010 0.068948 93.681 0.010674 590.79 626.38 2.2661 2.1136 5.5807 166.67 0.23357 12.157 0.037711
84.375 492.67 0.69017 546.09 573.26 2.1157 356.61 0.0028041 447.54 457.07 1.7907 2.0153 5.2834 275.00 0.035335 44.059 0.068586 96.781 0.010333 590.33 625.42 2.2616 2.1321 5.9321 165.13 0.23290 12.338 0.038713
85.375 501.81 0.72154 551.29 578.97 2.1302 352.33 0.0028382 451.65 461.47 1.8025 2.0281 5.5302 265.44 0.038030 43.088 0.068241 100.08 0.0099920 589.74 624.31 2.2567 2.1517 6.3459 163.54 0.23209 12.532 0.039819
86.375 511.09 0.75623 556.56 584.75 2.1449 347.82 0.0028751 455.85 465.98 1.8145 2.0420 5.8240 255.69 0.041058 42.092 0.067923 103.61 0.0096520 589.03 623.04 2.2514 2.1723 6.8405 161.91 0.23112 12.743 0.041051
87.375 520.51 0.79498 561.91 590.62 2.1597 343.04 0.0029151 460.18 470.64 1.8269 2.0574 6.1803 245.72 0.044485 41.066 0.067640 107.40 0.0093114 588.15 621.56 2.2456 2.1943 7.4422 160.23 0.22995 12.973 0.042436
88.375 530.07 0.83878 567.34 596.58 2.1748 337.95 0.0029590 464.64 475.45 1.8397 2.0745 6.6221 235.52 0.048397 40.005 0.067412 111.50 0.0089689 587.08 619.86 2.2392 2.2178 8.1900 158.49 0.22854 13.226 0.044014
89.375 539.79 0.88908 572.86 602.64 2.1900 332.48 0.0030077 469.27 480.46 1.8530 2.0936 7.1851 225.04 0.052906 38.901 0.067265 115.97 0.0086228 585.79 617.88 2.2321 2.2433 9.1445 156.69 0.22681 13.508 0.045839
90.375 549.66 0.94800 578.49 608.81 2.2055 326.55 0.0030623 474.10 485.71 1.8669 2.1156 7.9284 214.26 0.058166 37.742 0.067243 120.91 0.0082708 584.22 615.56 2.2241 2.2711 10.405 154.82 0.22467 13.825 0.047992
91.375 558.73 undefined 583.37 614.19 2.2189 125.00 0.0080000 583.37 614.19 2.2189 2.2887 11.376 153.64 0.22176 14.103 0.049647 125.00 0.0080000 583.37 614.19 2.2189 2.2887 11.376 153.64 0.22176 14.103 0.049647
92.375 564.94 undefined 585.65 616.81 2.2252 125.00 0.0080000 585.65 616.81 2.2252 2.2687 10.392 154.86 0.21796 14.138 0.048734 125.00 0.0080000 585.65 616.81 2.2252 2.2687 10.392 154.86 0.21796 14.138 0.048734
93.375 571.10 undefined 587.91 619.41 2.2314 125.00 0.0080000 587.91 619.41 2.2314 2.2510 9.6035 156.08 0.21425 14.173 0.047985 125.00 0.0080000 587.91 619.41 2.2314 2.2510 9.6035 156.08 0.21425 14.173 0.047985
94.375 577.22 undefined 590.15 621.99 2.2375 125.00 0.0080000 590.15 621.99 2.2375 2.2352 8.9576 157.30 0.21063 14.211 0.047361 125.00 0.0080000 590.15 621.99 2.2375 2.2352 8.9576 157.30 0.21063 14.211 0.047361
95.375 583.29 undefined 592.38 624.55 2.2435 125.00 0.0080000 592.38 624.55 2.2435 2.2214 8.4187 158.51 0.20710 14.253 0.046835 125.00 0.0080000 592.38 624.55 2.2435 2.2214 8.4187 158.51 0.20710 14.253 0.046835
96.375 589.33 undefined 594.60 627.10 2.2495 125.00 0.0080000 594.60 627.10 2.2495 2.2092 7.9622 159.71 0.20364 14.304 0.046384 125.00 0.0080000 594.60 627.10 2.2495 2.2092 7.9622 159.71 0.20364 14.304 0.046384
97.375 595.33 undefined 596.80 629.64 2.2555 125.00 0.0080000 596.80 629.64 2.2555 2.1987 7.5704 160.90 0.20026 14.332 0.046013 125.00 0.0080000 596.80 629.64 2.2555 2.1987 7.5704 160.90 0.20026 14.332 0.046013
98.375 601.30 undefined 598.99 632.16 2.2614 125.00 0.0080000 598.99 632.16 2.2614 2.1895 7.2304 162.08 0.19696 14.351 0.045701 125.00 0.0080000 598.99 632.16 2.2614 2.1895 7.2304 162.08 0.19696 14.351 0.045701
99.375 607.24 undefined 601.18 634.67 2.2673 125.00 0.0080000 601.18 634.67 2.2673 2.1816 6.9324 163.25 0.19373 14.378 0.045430 125.00 0.0080000 601.18 634.67 2.2673 2.1816 6.9324 163.25 0.19373 14.378 0.045430
100.38 613.16 undefined 603.36 637.18 2.2731 125.00 0.0080000 603.36 637.18 2.2731 2.1747 6.6690 164.41 0.19057 14.407 0.045194 125.00 0.0080000 603.36 637.18 2.2731 2.1747 6.6690 164.41 0.19057 14.407 0.045194
101.38 619.05 undefined 605.53 639.67 2.2789 125.00 0.0080000 605.53 639.67 2.2789 2.1687 6.4344 165.55 0.18749 14.439 0.044990 125.00 0.0080000 605.53 639.67 2.2789 2.1687 6.4344 165.55 0.18749 14.439 0.044990
102.38 624.92 undefined 607.70 642.16 2.2847 125.00 0.0080000 607.70 642.16 2.2847 2.1636 6.2241 166.69 0.18447 14.471 0.044814 125.00 0.0080000 607.70 642.16 2.2847 2.1636 6.2241 166.69 0.18447 14.471 0.044814
103.38 630.77 undefined 609.86 644.65 2.2904 125.00 0.0080000 609.86 644.65 2.2904 2.1592 6.0343 167.82 0.18152 14.504 0.044662 125.00 0.0080000 609.86 644.65 2.2904 2.1592 6.0343 167.82 0.18152 14.504 0.044662
104.38 636.60 undefined 612.01 647.13 2.2962 125.00 0.0080000 612.01 647.13 2.2962 2.1554 5.8622 168.95 0.17864 14.537 0.044532 125.00 0.0080000 612.01 647.13 2.2962 2.1554 5.8622 168.95 0.17864 14.537 0.044532
105.38 642.41 undefined 614.17 649.60 2.3019 125.00 0.0080000 614.17 649.60 2.3019 2.1521 5.7055 170.06 0.17583 14.570 0.044421 125.00 0.0080000 614.17 649.60 2.3019 2.1521 5.7055 170.06 0.17583 14.570 0.044421
106.38 648.20 undefined 616.32 652.07 2.3075 125.00 0.0080000 616.32 652.07 2.3075 2.1493 5.5620 171.16 0.17308 14.603 0.044328 125.00 0.0080000 616.32 652.07 2.3075 2.1493 5.5620 171.16 0.17308 14.603 0.044328
107.38 653.98 undefined 618.47 654.54 2.3132 125.00 0.0080000 618.47 654.54 2.3132 2.1469 5.4303 172.26 0.17040 14.636 0.044249 125.00 0.0080000 618.47 654.54 2.3132 2.1469 5.4303 172.26 0.17040 14.636 0.044249
108.38 659.74 undefined 620.61 657.00 2.3188 125.00 0.0080000 620.61 657.00 2.3188 2.1449 5.3088 173.35 0.16778 14.669 0.044184 125.00 0.0080000 620.61 657.00 2.3188 2.1449 5.3088 173.35 0.16778 14.669 0.044184
109.38 665.48 undefined 622.76 659.46 2.3244 125.00 0.0080000 622.76 659.46 2.3244 2.1432 5.1966 174.43 0.16522 14.702 0.044132 125.00 0.0080000 622.76 659.46 2.3244 2.1432 5.1966 174.43 0.16522 14.702 0.044132
110.38 671.21 undefined 624.90 661.92 2.3300 125.00 0.0080000 624.90 661.92 2.3300 2.1418 5.0925 175.51 0.16272 14.735 0.044092 125.00 0.0080000 624.90 661.92 2.3300 2.1418 5.0925 175.51 0.16272 14.735 0.044092
111.38 676.93 undefined 627.04 664.38 2.3356 125.00 0.0080000 627.04 664.38 2.3356 2.1407 4.9957 176.58 0.16028 14.768 0.044061 125.00 0.0080000 627.04 664.38 2.3356 2.1407 4.9957 176.58 0.16028 14.768 0.044061
112.38 682.63 undefined 629.18 666.83 2.3412 125.00 0.0080000 629.18 666.83 2.3412 2.1398 4.9055 177.64 0.15789 14.801 0.044040 125.00 0.0080000 629.18 666.83 2.3412 2.1398 4.9055 177.64 0.15789 14.801 0.044040
113.38 688.32 undefined 631.32 669.29 2.3467 125.00 0.0080000 631.32 669.29 2.3467 2.1391 4.8213 178.70 0.15556 14.834 0.044028 125.00 0.0080000 631.32 669.29 2.3467 2.1391 4.8213 178.70 0.15556 14.834 0.044028
114.38 694.00 undefined 633.46 671.74 2.3522 125.00 0.0080000 633.46 671.74 2.3522 2.1387 4.7425 179.75 0.15328 14.866 0.044025 125.00 0.0080000 633.46 671.74 2.3522 2.1387 4.7425 179.75 0.15328 14.866 0.044025
115.38 699.67 undefined 635.60 674.19 2.3577 125.00 0.0080000 635.60 674.19 2.3577 2.1384 4.6686 180.80 0.15105 14.899 0.044028 125.00 0.0080000 635.60 674.19 2.3577 2.1384 4.6686 180.80 0.15105 14.899 0.044028
116.38 705.33 undefined 637.74 676.64 2.3632 125.00 0.0080000 637.74 676.64 2.3632 2.1384 4.5992 181.84 0.14888 14.932 0.044039 125.00 0.0080000 637.74 676.64 2.3632 2.1384 4.5992 181.84 0.14888 14.932 0.044039
117.38 710.97 undefined 639.87 679.09 2.3687 125.00 0.0080000 639.87 679.09 2.3687 2.1384 4.5339 182.87 0.14675 14.964 0.044056 125.00 0.0080000 639.87 679.09 2.3687 2.1384 4.5339 182.87 0.14675 14.964 0.044056
118.38 716.60 undefined 642.01 681.54 2.3742 125.00 0.0080000 642.01 681.54 2.3742 2.1387 4.4724 183.90 0.14466 14.997 0.044079 125.00 0.0080000 642.01 681.54 2.3742 2.1387 4.4724 183.90 0.14466 14.997 0.044079
119.38 722.23 undefined 644.15 683.99 2.3796 125.00 0.0080000 644.15 683.99 2.3796 2.1391 4.4144 184.92 0.14263 15.030 0.044108 125.00 0.0080000 644.15 683.99 2.3796 2.1391 4.4144 184.92 0.14263 15.030 0.044108
120.38 727.84 undefined 646.29 686.44 2.3851 125.00 0.0080000 646.29 686.44 2.3851 2.1397 4.3596 185.94 0.14063 15.062 0.044142 125.00 0.0080000 646.29 686.44 2.3851 2.1397 4.3596 185.94 0.14063 15.062 0.044142
121.38 733.45 undefined 648.43 688.89 2.3905 125.00 0.0080000 648.43 688.89 2.3905 2.1403 4.3077 186.95 0.13868 15.094 0.044181 125.00 0.0080000 648.43 688.89 2.3905 2.1403 4.3077 186.95 0.13868 15.094 0.044181
122.38 739.04 undefined 650.57 691.34 2.3959 125.00 0.0080000 650.57 691.34 2.3959 2.1411 4.2586 187.96 0.13677 15.127 0.044224 125.00 0.0080000 650.57 691.34 2.3959 2.1411 4.2586 187.96 0.13677 15.127 0.044224
123.38 744.63 undefined 652.71 693.78 2.4013 125.00 0.0080000 652.71 693.78 2.4013 2.1420 4.2120 188.96 0.13491 15.159 0.044272 125.00 0.0080000 652.71 693.78 2.4013 2.1420 4.2120 188.96 0.13491 15.159 0.044272
124.38 750.21 undefined 654.86 696.24 2.4067 125.00 0.0080000 654.86 696.24 2.4067 2.1431 4.1678 189.96 0.13308 15.192 0.044325 125.00 0.0080000 654.86 696.24 2.4067 2.1431 4.1678 189.96 0.13308 15.192 0.044325
125.38 755.77 undefined 657.00 698.69 2.4121 125.00 0.0080000 657.00 698.69 2.4121 2.1442 4.1258 190.95 0.13128 15.224 0.044381 125.00 0.0080000 657.00 698.69 2.4121 2.1442 4.1258 190.95 0.13128 15.224 0.044381
126.38 761.34 undefined 659.14 701.14 2.4175 125.00 0.0080000 659.14 701.14 2.4175 2.1454 4.0859 191.94 0.12953 15.256 0.044440 125.00 0.0080000 659.14 701.14 2.4175 2.1454 4.0859 191.94 0.12953 15.256 0.044440
127.38 766.89 undefined 661.29 703.59 2.4229 125.00 0.0080000 661.29 703.59 2.4229 2.1468 4.0478 192.92 0.12781 15.288 0.044503 125.00 0.0080000 661.29 703.59 2.4229 2.1468 4.0478 192.92 0.12781 15.288 0.044503
128.38 772.43 undefined 663.44 706.04 2.4282 125.00 0.0080000 663.44 706.04 2.4282 2.1482 4.0116 193.90 0.12613 15.321 0.044570 125.00 0.0080000 663.44 706.04 2.4282 2.1482 4.0116 193.90 0.12613 15.321 0.044570
129.38 777.97 undefined 665.59 708.50 2.4336 125.00 0.0080000 665.59 708.50 2.4336 2.1497 3.9770 194.87 0.12448 15.353 0.044639 125.00 0.0080000 665.59 708.50 2.4336 2.1497 3.9770 194.87 0.12448 15.353 0.044639
130.38 783.50 undefined 667.74 710.95 2.4389 125.00 0.0080000 667.74 710.95 2.4389 2.1513 3.9441 195.84 0.12286 15.385 0.044712 125.00 0.0080000 667.74 710.95 2.4389 2.1513 3.9441 195.84 0.12286 15.385 0.044712
131.38 789.03 undefined 669.89 713.41 2.4442 125.00 0.0080000 669.89 713.41 2.4442 2.1529 3.9126 196.80 0.12128 15.417 0.044787 125.00 0.0080000 669.89 713.41 2.4442 2.1529 3.9126 196.80 0.12128 15.417 0.044787
132.38 794.54 undefined 672.04 715.87 2.4495 125.00 0.0080000 672.04 715.87 2.4495 2.1546 3.8825 197.76 0.11972 15.449 0.044865 125.00 0.0080000 672.04 715.87 2.4495 2.1546 3.8825 197.76 0.11972 15.449 0.044865
133.38 800.05 undefined 674.20 718.33 2.4548 125.00 0.0080000 674.20 718.33 2.4548 2.1564 3.8537 198.72 0.11820 15.481 0.044946 125.00 0.0080000 674.20 718.33 2.4548 2.1564 3.8537 198.72 0.11820 15.481 0.044946
134.38 805.56 undefined 676.36 720.79 2.4602 125.00 0.0080000 676.36 720.79 2.4602 2.1583 3.8261 199.67 0.11670 15.513 0.045029 125.00 0.0080000 676.36 720.79 2.4602 2.1583 3.8261 199.67 0.11670 15.513 0.045029
135.38 811.05 undefined 678.51 723.25 2.4654 125.00 0.0080000 678.51 723.25 2.4654 2.1602 3.7997 200.62 0.11524 15.544 0.045114 125.00 0.0080000 678.51 723.25 2.4654 2.1602 3.7997 200.62 0.11524 15.544 0.045114
136.38 816.54 undefined 680.68 725.71 2.4707 125.00 0.0080000 680.68 725.71 2.4707 2.1622 3.7744 201.56 0.11380 15.576 0.045202 125.00 0.0080000 680.68 725.71 2.4707 2.1622 3.7744 201.56 0.11380 15.576 0.045202
137.38 822.03 undefined 682.84 728.18 2.4760 125.00 0.0080000 682.84 728.18 2.4760 2.1643 3.7502 202.50 0.11239 15.608 0.045292 125.00 0.0080000 682.84 728.18 2.4760 2.1643 3.7502 202.50 0.11239 15.608 0.045292
138.38 827.51 undefined 685.00 730.65 2.4813 125.00 0.0080000 685.00 730.65 2.4813 2.1663 3.7269 203.43 0.11101 15.640 0.045383 125.00 0.0080000 685.00 730.65 2.4813 2.1663 3.7269 203.43 0.11101 15.640 0.045383
139.38 832.98 undefined 687.17 733.12 2.4865 125.00 0.0080000 687.17 733.12 2.4865 2.1685 3.7046 204.36 0.10965 15.672 0.045477 125.00 0.0080000 687.17 733.12 2.4865 2.1685 3.7046 204.36 0.10965 15.672 0.045477
140.38 838.45 undefined 689.34 735.59 2.4918 125.00 0.0080000 689.34 735.59 2.4918 2.1707 3.6831 205.28 0.10832 15.703 0.045573 125.00 0.0080000 689.34 735.59 2.4918 2.1707 3.6831 205.28 0.10832 15.703 0.045573
141.38 843.91 undefined 691.51 738.06 2.4970 125.00 0.0080000 691.51 738.06 2.4970 2.1729 3.6625 206.21 0.10701 15.735 0.045670 125.00 0.0080000 691.51 738.06 2.4970 2.1729 3.6625 206.21 0.10701 15.735 0.045670
142.38 849.36 undefined 693.69 740.54 2.5023 125.00 0.0080000 693.69 740.54 2.5023 2.1752 3.6427 207.12 0.10572 15.766 0.045769 125.00 0.0080000 693.69 740.54 2.5023 2.1752 3.6427 207.12 0.10572 15.766 0.045769
143.38 854.82 undefined 695.86 743.01 2.5075 125.00 0.0080000 695.86 743.01 2.5075 2.1775 3.6237 208.04 0.10446 15.798 0.045870 125.00 0.0080000 695.86 743.01 2.5075 2.1775 3.6237 208.04 0.10446 15.798 0.045870
144.38 860.26 undefined 698.04 745.49 2.5127 125.00 0.0080000 698.04 745.49 2.5127 2.1799 3.6054 208.95 0.10322 15.830 0.045973 125.00 0.0080000 698.04 745.49 2.5127 2.1799 3.6054 208.95 0.10322 15.830 0.045973
145.38 865.70 undefined 700.22 747.97 2.5179 125.00 0.0080000 700.22 747.97 2.5179 2.1823 3.5878 209.85 0.10201 15.861 0.046077 125.00 0.0080000 700.22 747.97 2.5179 2.1823 3.5878 209.85 0.10201 15.861 0.046077
146.38 871.14 undefined 702.41 750.46 2.5232 125.00 0.0080000 702.41 750.46 2.5232 2.1847 3.5708 210.75 0.10081 15.892 0.046182 125.00 0.0080000 702.41 750.46 2.5232 2.1847 3.5708 210.75 0.10081 15.892 0.046182
147.38 876.57 undefined 704.59 752.94 2.5284 125.00 0.0080000 704.59 752.94 2.5284 2.1872 3.5544 211.65 0.099638 15.924 0.046289 125.00 0.0080000 704.59 752.94 2.5284 2.1872 3.5544 211.65 0.099638 15.924 0.046289
148.38 881.99 undefined 706.78 755.43 2.5336 125.00 0.0080000 706.78 755.43 2.5336 2.1897 3.5387 212.55 0.098484 15.955 0.046398 125.00 0.0080000 706.78 755.43 2.5336 2.1897 3.5387 212.55 0.098484 15.955 0.046398
149.38 887.41 undefined 708.97 757.92 2.5387 125.00 0.0080000 708.97 757.92 2.5387 2.1922 3.5235 213.44 0.097351 15.986 0.046508 125.00 0.0080000 708.97 757.92 2.5387 2.1922 3.5235 213.44 0.097351 15.986 0.046508
150.38 892.83 undefined 711.17 760.41 2.5439 125.00 0.0080000 711.17 760.41 2.5439 2.1948 3.5089 214.33 0.096237 16.018 0.046619 125.00 0.0080000 711.17 760.41 2.5439 2.1948 3.5089 214.33 0.096237 16.018 0.046619
151.38 898.24 undefined 713.36 762.91 2.5491 125.00 0.0080000 713.36 762.91 2.5491 2.1974 3.4948 215.21 0.095142 16.049 0.046731 125.00 0.0080000 713.36 762.91 2.5491 2.1974 3.4948 215.21 0.095142 16.049 0.046731
152.38 903.64 undefined 715.56 765.40 2.5543 125.00 0.0080000 715.56 765.40 2.5543 2.2000 3.4812 216.09 0.094066 16.080 0.046845 125.00 0.0080000 715.56 765.40 2.5543 2.2000 3.4812 216.09 0.094066 16.080 0.046845
153.38 909.05 undefined 717.76 767.90 2.5594 125.00 0.0080000 717.76 767.90 2.5594 2.2027 3.4681 216.97 0.093008 16.111 0.046959 125.00 0.0080000 717.76 767.90 2.5594 2.2027 3.4681 216.97 0.093008 16.111 0.046959
154.38 914.44 undefined 719.97 770.40 2.5646 125.00 0.0080000 719.97 770.40 2.5646 2.2053 3.4554 217.84 0.091967 16.142 0.047075 125.00 0.0080000 719.97 770.40 2.5646 2.2053 3.4554 217.84 0.091967 16.142 0.047075
155.38 919.84 undefined 722.17 772.91 2.5698 125.00 0.0080000 722.17 772.91 2.5698 2.2080 3.4432 218.71 0.090944 16.173 0.047192 125.00 0.0080000 722.17 772.91 2.5698 2.2080 3.4432 218.71 0.090944 16.173 0.047192
156.38 925.22 undefined 724.38 775.42 2.5749 125.00 0.0080000 724.38 775.42 2.5749 2.2107 3.4314 219.58 0.089938 16.205 0.047311 125.00 0.0080000 724.38 775.42 2.5749 2.2107 3.4314 219.58 0.089938 16.205 0.047311
157.38 930.61 undefined 726.59 777.92 2.5801 125.00 0.0080000 726.59 777.92 2.5801 2.2135 3.4201 220.44 0.088949 16.235 0.047430 125.00 0.0080000 726.59 777.92 2.5801 2.2135 3.4201 220.44 0.088949 16.235 0.047430
158.38 935.99 undefined 728.81 780.44 2.5852 125.00 0.0080000 728.81 780.44 2.5852 2.2163 3.4091 221.30 0.087976 16.266 0.047550 125.00 0.0080000 728.81 780.44 2.5852 2.2163 3.4091 221.30 0.087976 16.266 0.047550
159.38 941.37 undefined 731.03 782.95 2.5903 125.00 0.0080000 731.03 782.95 2.5903 2.2190 3.3984 222.16 0.087018 16.297 0.047671 125.00 0.0080000 731.03 782.95 2.5903 2.2190 3.3984 222.16 0.087018 16.297 0.047671
160.38 946.74 undefined 733.25 785.47 2.5955 125.00 0.0080000 733.25 785.47 2.5955 2.2218 3.3882 223.01 0.086077 16.328 0.047793 125.00 0.0080000 733.25 785.47 2.5955 2.2218 3.3882 223.01 0.086077 16.328 0.047793
161.38 952.11 undefined 735.47 787.99 2.6006 125.00 0.0080000 735.47 787.99 2.6006 2.2247 3.3783 223.86 0.085150 16.359 0.047917 125.00 0.0080000 735.47 787.99 2.6006 2.2247 3.3783 223.86 0.085150 16.359 0.047917
162.38 957.47 undefined 737.70 790.51 2.6057 125.00 0.0080000 737.70 790.51 2.6057 2.2275 3.3687 224.71 0.084238 16.390 0.048041 125.00 0.0080000 737.70 790.51 2.6057 2.2275 3.3687 224.71 0.084238 16.390 0.048041
163.38 962.83 undefined 739.93 793.03 2.6108 125.00 0.0080000 739.93 793.03 2.6108 2.2304 3.3594 225.56 0.083340 16.421 0.048166 125.00 0.0080000 739.93 793.03 2.6108 2.2304 3.3594 225.56 0.083340 16.421 0.048166
164.38 968.19 undefined 742.16 795.56 2.6159 125.00 0.0080000 742.16 795.56 2.6159 2.2333 3.3505 226.40 0.082457 16.451 0.048292 125.00 0.0080000 742.16 795.56 2.6159 2.2333 3.3505 226.40 0.082457 16.451 0.048292
165.38 973.54 undefined 744.39 798.09 2.6210 125.00 0.0080000 744.39 798.09 2.6210 2.2361 3.3419 227.23 0.081587 16.482 0.048419 125.00 0.0080000 744.39 798.09 2.6210 2.2361 3.3419 227.23 0.081587 16.482 0.048419
166.38 978.89 undefined 746.63 800.62 2.6261 125.00 0.0080000 746.63 800.62 2.6261 2.2391 3.3335 228.07 0.080731 16.513 0.048546 125.00 0.0080000 746.63 800.62 2.6261 2.2391 3.3335 228.07 0.080731 16.513 0.048546
167.38 984.24 undefined 748.87 803.16 2.6312 125.00 0.0080000 748.87 803.16 2.6312 2.2420 3.3254 228.90 0.079889 16.543 0.048675 125.00 0.0080000 748.87 803.16 2.6312 2.2420 3.3254 228.90 0.079889 16.543 0.048675
168.38 989.58 undefined 751.11 805.70 2.6363 125.00 0.0080000 751.11 805.70 2.6363 2.2449 3.3176 229.73 0.079059 16.574 0.048804 125.00 0.0080000 751.11 805.70 2.6363 2.2449 3.3176 229.73 0.079059 16.574 0.048804
169.38 994.92 undefined 753.36 808.24 2.6414 125.00 0.0080000 753.36 808.24 2.6414 2.2479 3.3101 230.56 0.078242 16.604 0.048934 125.00 0.0080000 753.36 808.24 2.6414 2.2479 3.3101 230.56 0.078242 16.604 0.048934
170.38 1000.3 undefined 755.61 810.78 2.6465 125.00 0.0080000 755.61 810.78 2.6465 2.2508 3.3028 231.38 0.077437 16.635 0.049065 125.00 0.0080000 755.61 810.78 2.6465 2.2508 3.3028 231.38 0.077437 16.635 0.049065
171.38 1005.6 undefined 757.86 813.33 2.6515 125.00 0.0080000 757.86 813.33 2.6515 2.2538 3.2958 232.20 0.076645 16.665 0.049196 125.00 0.0080000 757.86 813.33 2.6515 2.2538 3.2958 232.20 0.076645 16.665 0.049196
172.38 1010.9 undefined 760.12 815.88 2.6566 125.00 0.0080000 760.12 815.88 2.6566 2.2568 3.2889 233.02 0.075864 16.696 0.049329 125.00 0.0080000 760.12 815.88 2.6566 2.2568 3.2889 233.02 0.075864 16.696 0.049329
173.38 1016.2 undefined 762.37 818.43 2.6617 125.00 0.0080000 762.37 818.43 2.6617 2.2598 3.2824 233.83 0.075096 16.726 0.049462 125.00 0.0080000 762.37 818.43 2.6617 2.2598 3.2824 233.83 0.075096 16.726 0.049462
174.38 1021.6 undefined 764.64 820.98 2.6667 125.00 0.0080000 764.64 820.98 2.6667 2.2628 3.2760 234.65 0.074338 16.757 0.049596 125.00 0.0080000 764.64 820.98 2.6667 2.2628 3.2760 234.65 0.074338 16.757 0.049596
175.38 1026.9 undefined 766.90 823.54 2.6718 125.00 0.0080000 766.90 823.54 2.6718 2.2659 3.2698 235.46 0.073592 16.787 0.049730 125.00 0.0080000 766.90 823.54 2.6718 2.2659 3.2698 235.46 0.073592 16.787 0.049730
176.38 1032.2 undefined 769.17 826.10 2.6768 125.00 0.0080000 769.17 826.10 2.6768 2.2689 3.2639 236.26 0.072857 16.817 0.049865 125.00 0.0080000 769.17 826.10 2.6768 2.2689 3.2639 236.26 0.072857 16.817 0.049865
177.38 1037.5 undefined 771.44 828.66 2.6819 125.00 0.0080000 771.44 828.66 2.6819 2.2719 3.2581 237.07 0.072132 16.847 0.050001 125.00 0.0080000 771.44 828.66 2.6819 2.2719 3.2581 237.07 0.072132 16.847 0.050001
178.38 1042.8 undefined 773.71 831.23 2.6869 125.00 0.0080000 773.71 831.23 2.6869 2.2750 3.2526 237.87 0.071419 16.878 0.050138 125.00 0.0080000 773.71 831.23 2.6869 2.2750 3.2526 237.87 0.071419 16.878 0.050138
179.38 1048.1 undefined 775.99 833.80 2.6919 125.00 0.0080000 775.99 833.80 2.6919 2.2781 3.2472 238.67 0.070715 16.908 0.050275 125.00 0.0080000 775.99 833.80 2.6919 2.2781 3.2472 238.67 0.070715 16.908 0.050275
180.38 1053.4 undefined 778.27 836.37 2.6970 125.00 0.0080000 778.27 836.37 2.6970 2.2812 3.2420 239.46 0.070022 16.938 0.050413 125.00 0.0080000 778.27 836.37 2.6970 2.2812 3.2420 239.46 0.070022 16.938 0.050413
181.38 1058.7 undefined 780.55 838.95 2.7020 125.00 0.0080000 780.55 838.95 2.7020 2.2842 3.2370 240.25 0.069338 16.968 0.050551 125.00 0.0080000 780.55 838.95 2.7020 2.2842 3.2370 240.25 0.069338 16.968 0.050551
182.38 1064.0 undefined 782.84 841.53 2.7070 125.00 0.0080000 782.84 841.53 2.7070 2.2873 3.2322 241.05 0.068665 16.998 0.050690 125.00 0.0080000 782.84 841.53 2.7070 2.2873 3.2322 241.05 0.068665 16.998 0.050690
183.38 1069.3 undefined 785.13 844.11 2.7120 125.00 0.0080000 785.13 844.11 2.7120 2.2905 3.2275 241.83 0.068000 17.028 0.050830 125.00 0.0080000 785.13 844.11 2.7120 2.2905 3.2275 241.83 0.068000 17.028 0.050830
184.38 1074.6 undefined 787.42 846.69 2.7171 125.00 0.0080000 787.42 846.69 2.7171 2.2936 3.2230 242.62 0.067346 17.058 0.050970 125.00 0.0080000 787.42 846.69 2.7171 2.2936 3.2230 242.62 0.067346 17.058 0.050970
185.38 1079.9 undefined 789.71 849.28 2.7221 125.00 0.0080000 789.71 849.28 2.7221 2.2967 3.2187 243.40 0.066700 17.088 0.051111 125.00 0.0080000 789.71 849.28 2.7221 2.2967 3.2187 243.40 0.066700 17.088 0.051111
186.38 1085.2 undefined 792.01 851.87 2.7271 125.00 0.0080000 792.01 851.87 2.7271 2.2998 3.2145 244.18 0.066063 17.118 0.051252 125.00 0.0080000 792.01 851.87 2.7271 2.2998 3.2145 244.18 0.066063 17.118 0.051252
187.38 1090.4 undefined 794.31 854.46 2.7321 125.00 0.0080000 794.31 854.46 2.7321 2.3030 3.2104 244.96 0.065436 17.148 0.051394 125.00 0.0080000 794.31 854.46 2.7321 2.3030 3.2104 244.96 0.065436 17.148 0.051394
188.38 1095.7 undefined 796.62 857.05 2.7371 125.00 0.0080000 796.62 857.05 2.7371 2.3061 3.2065 245.74 0.064817 17.178 0.051537 125.00 0.0080000 796.62 857.05 2.7371 2.3061 3.2065 245.74 0.064817 17.178 0.051537
189.38 1101.0 undefined 798.92 859.65 2.7421 125.00 0.0080000 798.92 859.65 2.7421 2.3093 3.2028 246.51 0.064206 17.207 0.051680 125.00 0.0080000 798.92 859.65 2.7421 2.3093 3.2028 246.51 0.064206 17.207 0.051680
190.38 1106.3 undefined 801.24 862.26 2.7471 125.00 0.0080000 801.24 862.26 2.7471 2.3124 3.1991 247.28 0.063604 17.237 0.051823 125.00 0.0080000 801.24 862.26 2.7471 2.3124 3.1991 247.28 0.063604 17.237 0.051823
191.38 1111.5 undefined 803.55 864.86 2.7521 125.00 0.0080000 803.55 864.86 2.7521 2.3156 3.1957 248.05 0.063010 17.267 0.051967 125.00 0.0080000 803.55 864.86 2.7521 2.3156 3.1957 248.05 0.063010 17.267 0.051967
192.38 1116.8 undefined 805.87 867.47 2.7570 125.00 0.0080000 805.87 867.47 2.7570 2.3188 3.1923 248.82 0.062424 17.297 0.052112 125.00 0.0080000 805.87 867.47 2.7570 2.3188 3.1923 248.82 0.062424 17.297 0.052112
193.38 1122.1 undefined 808.19 870.08 2.7620 125.00 0.0080000 808.19 870.08 2.7620 2.3220 3.1890 249.58 0.061846 17.326 0.052257 125.00 0.0080000 808.19 870.08 2.7620 2.3220 3.1890 249.58 0.061846 17.326 0.052257
194.38 1127.3 undefined 810.51 872.69 2.7670 125.00 0.0080000 810.51 872.69 2.7670 2.3252 3.1859 250.34 0.061275 17.356 0.052403 125.00 0.0080000 810.51 872.69 2.7670 2.3252 3.1859 250.34 0.061275 17.356 0.052403
195.38 1132.6 undefined 812.84 875.31 2.7720 125.00 0.0080000 812.84 875.31 2.7720 2.3283 3.1829 251.10 0.060713 17.385 0.052549 125.00 0.0080000 812.84 875.31 2.7720 2.3283 3.1829 251.10 0.060713 17.385 0.052549
196.38 1137.9 undefined 815.17 877.93 2.7769 125.00 0.0080000 815.17 877.93 2.7769 2.3315 3.1800 251.86 0.060158 17.415 0.052696 125.00 0.0080000 815.17 877.93 2.7769 2.3315 3.1800 251.86 0.060158 17.415 0.052696
197.38 1143.1 undefined 817.50 880.55 2.7819 125.00 0.0080000 817.50 880.55 2.7819 2.3348 3.1773 252.61 0.059610 17.445 0.052843 125.00 0.0080000 817.50 880.55 2.7819 2.3348 3.1773 252.61 0.059610 17.445 0.052843
198.38 1148.4 undefined 819.84 883.18 2.7869 125.00 0.0080000 819.84 883.18 2.7869 2.3380 3.1746 253.36 0.059069 17.474 0.052991 125.00 0.0080000 819.84 883.18 2.7869 2.3380 3.1746 253.36 0.059069 17.474 0.052991
199.38 1153.6 undefined 822.18 885.81 2.7918 125.00 0.0080000 822.18 885.81 2.7918 2.3412 3.1721 254.11 0.058535 17.503 0.053139 125.00 0.0080000 822.18 885.81 2.7918 2.3412 3.1721 254.11 0.058535 17.503 0.053139
200.38 1158.9 undefined 824.52 888.44 2.7968 125.00 0.0080000 824.52 888.44 2.7968 2.3444 3.1696 254.86 0.058009 17.533 0.053288 125.00 0.0080000 824.52 888.44 2.7968 2.3444 3.1696 254.86 0.058009 17.533 0.053288
201.38 1164.1 undefined 826.86 891.07 2.8017 125.00 0.0080000 826.86 891.07 2.8017 2.3476 3.1673 255.61 0.057489 17.562 0.053437 125.00 0.0080000 826.86 891.07 2.8017 2.3476 3.1673 255.61 0.057489 17.562 0.053437
202.38 1169.4 undefined 829.21 893.71 2.8067 125.00 0.0080000 829.21 893.71 2.8067 2.3509 3.1650 256.35 0.056976 17.592 0.053587 125.00 0.0080000 829.21 893.71 2.8067 2.3509 3.1650 256.35 0.056976 17.592 0.053587
203.38 1174.6 undefined 831.57 896.35 2.8116 125.00 0.0080000 831.57 896.35 2.8116 2.3541 3.1629 257.09 0.056469 17.621 0.053737 125.00 0.0080000 831.57 896.35 2.8116 2.3541 3.1629 257.09 0.056469 17.621 0.053737
204.38 1179.8 undefined 833.92 899.00 2.8165 125.00 0.0080000 833.92 899.00 2.8165 2.3574 3.1608 257.83 0.055969 17.650 0.053887 125.00 0.0080000 833.92 899.00 2.8165 2.3574 3.1608 257.83 0.055969 17.650 0.053887
205.38 1185.1 undefined 836.28 901.65 2.8215 125.00 0.0080000 836.28 901.65 2.8215 2.3606 3.1589 258.57 0.055476 17.679 0.054038 125.00 0.0080000 836.28 901.65 2.8215 2.3606 3.1589 258.57 0.055476 17.679 0.054038
206.38 1190.3 undefined 838.64 904.30 2.8264 125.00 0.0080000 838.64 904.30 2.8264 2.3639 3.1570 259.30 0.054989 17.709 0.054190 125.00 0.0080000 838.64 904.30 2.8264 2.3639 3.1570 259.30 0.054989 17.709 0.054190
207.38 1195.5 undefined 841.01 906.95 2.8313 125.00 0.0080000 841.01 906.95 2.8313 2.3671 3.1552 260.04 0.054507 17.738 0.054341 125.00 0.0080000 841.01 906.95 2.8313 2.3671 3.1552 260.04 0.054507 17.738 0.054341
208.38 1200.8 undefined 843.38 909.61 2.8363 125.00 0.0080000 843.38 909.61 2.8363 2.3704 3.1535 260.77 0.054032 17.767 0.054494 125.00 0.0080000 843.38 909.61 2.8363 2.3704 3.1535 260.77 0.054032 17.767 0.054494
209.38 1206.0 undefined 845.75 912.27 2.8412 125.00 0.0080000 845.75 912.27 2.8412 2.3736 3.1519 261.50 0.053563 17.796 0.054646 125.00 0.0080000 845.75 912.27 2.8412 2.3736 3.1519 261.50 0.053563 17.796 0.054646
210.38 1211.2 undefined 848.13 914.93 2.8461 125.00 0.0080000 848.13 914.93 2.8461 2.3769 3.1503 262.22 0.053100 17.825 0.054800 125.00 0.0080000 848.13 914.93 2.8461 2.3769 3.1503 262.22 0.053100 17.825 0.054800
211.38 1216.4 undefined 850.50 917.60 2.8510 125.00 0.0080000 850.50 917.60 2.8510 2.3802 3.1489 262.95 0.052642 17.854 0.054953 125.00 0.0080000 850.50 917.60 2.8510 2.3802 3.1489 262.95 0.052642 17.854 0.054953
212.38 1221.6 undefined 852.89 920.27 2.8559 125.00 0.0080000 852.89 920.27 2.8559 2.3835 3.1475 263.67 0.052190 17.883 0.055107 125.00 0.0080000 852.89 920.27 2.8559 2.3835 3.1475 263.67 0.052190 17.883 0.055107
213.38 1226.9 undefined 855.27 922.94 2.8608 125.00 0.0080000 855.27 922.94 2.8608 2.3867 3.1462 264.39 0.051744 17.912 0.055262 125.00 0.0080000 855.27 922.94 2.8608 2.3867 3.1462 264.39 0.051744 17.912 0.055262
214.38 1232.1 undefined 857.66 925.62 2.8657 125.00 0.0080000 857.66 925.62 2.8657 2.3900 3.1450 265.11 0.051303 17.941 0.055416 125.00 0.0080000 857.66 925.62 2.8657 2.3900 3.1450 265.11 0.051303 17.941 0.055416
215.38 1237.3 undefined 860.05 928.30 2.8706 125.00 0.0080000 860.05 928.30 2.8706 2.3933 3.1438 265.83 0.050867 17.970 0.055572 125.00 0.0080000 860.05 928.30 2.8706 2.3933 3.1438 265.83 0.050867 17.970 0.055572
216.38 1242.5 undefined 862.45 930.98 2.8755 125.00 0.0080000 862.45 930.98 2.8755 2.3966 3.1427 266.54 0.050437 17.999 0.055727 125.00 0.0080000 862.45 930.98 2.8755 2.3966 3.1427 266.54 0.050437 17.999 0.055727
217.38 1247.7 undefined 864.84 933.67 2.8804 125.00 0.0080000 864.84 933.67 2.8804 2.3999 3.1417 267.25 0.050012 18.027 0.055883 125.00 0.0080000 864.84 933.67 2.8804 2.3999 3.1417 267.25 0.050012 18.027 0.055883
218.38 1252.9 undefined 867.25 936.35 2.8853 125.00 0.0080000 867.25 936.35 2.8853 2.4032 3.1408 267.96 0.049592 18.056 0.056039 125.00 0.0080000 867.25 936.35 2.8853 2.4032 3.1408 267.96 0.049592 18.056 0.056039
219.38 1258.1 undefined 869.65 939.05 2.8902 125.00 0.0080000 869.65 939.05 2.8902 2.4065 3.1399 268.67 0.049177 18.085 0.056196 125.00 0.0080000 869.65 939.05 2.8902 2.4065 3.1399 268.67 0.049177 18.085 0.056196
220.38 1263.3 undefined 872.06 941.74 2.8951 125.00 0.0080000 872.06 941.74 2.8951 2.4098 3.1391 269.38 0.048767 18.114 0.056353 125.00 0.0080000 872.06 941.74 2.8951 2.4098 3.1391 269.38 0.048767 18.114 0.056353
221.38 1268.5 undefined 874.47 944.44 2.9000 125.00 0.0080000 874.47 944.44 2.9000 2.4131 3.1383 270.09 0.048362 18.142 0.056511 125.00 0.0080000 874.47 944.44 2.9000 2.4131 3.1383 270.09 0.048362 18.142 0.056511
222.38 1273.7 undefined 876.88 947.14 2.9048 125.00 0.0080000 876.88 947.14 2.9048 2.4164 3.1376 270.79 0.047961 18.171 0.056669 125.00 0.0080000 876.88 947.14 2.9048 2.4164 3.1376 270.79 0.047961 18.171 0.056669
223.38 1278.9 undefined 879.30 949.85 2.9097 125.00 0.0080000 879.30 949.85 2.9097 2.4197 3.1370 271.49 0.047566 18.200 0.056827 125.00 0.0080000 879.30 949.85 2.9097 2.4197 3.1370 271.49 0.047566 18.200 0.056827
224.38 1284.1 undefined 881.72 952.55 2.9146 125.00 0.0080000 881.72 952.55 2.9146 2.4230 3.1364 272.19 0.047175 18.228 0.056986 125.00 0.0080000 881.72 952.55 2.9146 2.4230 3.1364 272.19 0.047175 18.228 0.056986
225.38 1289.3 undefined 884.15 955.26 2.9195 125.00 0.0080000 884.15 955.26 2.9195 2.4263 3.1359 272.89 0.046788 18.257 0.057145 125.00 0.0080000 884.15 955.26 2.9195 2.4263 3.1359 272.89 0.046788 18.257 0.057145
226.38 1294.5 undefined 886.58 957.98 2.9243 125.00 0.0080000 886.58 957.98 2.9243 2.4296 3.1355 273.59 0.046407 18.285 0.057304 125.00 0.0080000 886.58 957.98 2.9243 2.4296 3.1355 273.59 0.046407 18.285 0.057304
227.38 1299.7 undefined 889.01 960.70 2.9292 125.00 0.0080000 889.01 960.70 2.9292 2.4329 3.1350 274.28 0.046029 18.314 0.057464 125.00 0.0080000 889.01 960.70 2.9292 2.4329 3.1350 274.28 0.046029 18.314 0.057464
228.38 1304.9 undefined 891.44 963.42 2.9340 125.00 0.0080000 891.44 963.42 2.9340 2.4363 3.1347 274.97 0.045656 18.342 0.057624 125.00 0.0080000 891.44 963.42 2.9340 2.4363 3.1347 274.97 0.045656 18.342 0.057624
229.38 1310.1 undefined 893.88 966.14 2.9389 125.00 0.0080000 893.88 966.14 2.9389 2.4396 3.1344 275.66 0.045287 18.371 0.057784 125.00 0.0080000 893.88 966.14 2.9389 2.4396 3.1344 275.66 0.045287 18.371 0.057784
230.38 1315.2 undefined 896.32 968.87 2.9438 125.00 0.0080000 896.32 968.87 2.9438 2.4429 3.1342 276.35 0.044923 18.399 0.057945 125.00 0.0080000 896.32 968.87 2.9438 2.4429 3.1342 276.35 0.044923 18.399 0.057945
231.38 1320.4 undefined 898.77 971.60 2.9486 125.00 0.0080000 898.77 971.60 2.9486 2.4462 3.1340 277.04 0.044562 18.427 0.058106 125.00 0.0080000 898.77 971.60 2.9486 2.4462 3.1340 277.04 0.044562 18.427 0.058106
232.38 1325.6 undefined 901.21 974.33 2.9535 125.00 0.0080000 901.21 974.33 2.9535 2.4496 3.1338 277.73 0.044206 18.456 0.058268 125.00 0.0080000 901.21 974.33 2.9535 2.4496 3.1338 277.73 0.044206 18.456 0.058268
233.38 1330.8 undefined 903.67 977.07 2.9583 125.00 0.0080000 903.67 977.07 2.9583 2.4529 3.1337 278.41 0.043854 18.484 0.058429 125.00 0.0080000 903.67 977.07 2.9583 2.4529 3.1337 278.41 0.043854 18.484 0.058429
234.38 1336.0 undefined 906.12 979.81 2.9631 125.00 0.0080000 906.12 979.81 2.9631 2.4562 3.1337 279.09 0.043505 18.512 0.058592 125.00 0.0080000 906.12 979.81 2.9631 2.4562 3.1337 279.09 0.043505 18.512 0.058592
235.38 1341.1 undefined 908.58 982.55 2.9680 125.00 0.0080000 908.58 982.55 2.9680 2.4595 3.1337 279.77 0.043161 18.541 0.058754 125.00 0.0080000 908.58 982.55 2.9680 2.4595 3.1337 279.77 0.043161 18.541 0.058754
236.38 1346.3 undefined 911.04 985.30 2.9728 125.00 0.0080000 911.04 985.30 2.9728 2.4629 3.1337 280.45 0.042820 18.569 0.058917 125.00 0.0080000 911.04 985.30 2.9728 2.4629 3.1337 280.45 0.042820 18.569 0.058917
237.38 1351.5 undefined 913.50 988.05 2.9776 125.00 0.0080000 913.50 988.05 2.9776 2.4662 3.1338 281.13 0.042484 18.597 0.059080 125.00 0.0080000 913.50 988.05 2.9776 2.4662 3.1338 281.13 0.042484 18.597 0.059080
238.38 1356.6 undefined 915.97 990.80 2.9825 125.00 0.0080000 915.97 990.80 2.9825 2.4695 3.1340 281.80 0.042151 18.625 0.059243 125.00 0.0080000 915.97 990.80 2.9825 2.4695 3.1340 281.80 0.042151 18.625 0.059243
239.38 1361.8 undefined 918.44 993.56 2.9873 125.00 0.0080000 918.44 993.56 2.9873 2.4729 3.1341 282.48 0.041821 18.653 0.059407 125.00 0.0080000 918.44 993.56 2.9873 2.4729 3.1341 282.48 0.041821 18.653 0.059407
240.38 1367.0 undefined 920.92 996.32 2.9921 125.00 0.0080000 920.92 996.32 2.9921 2.4762 3.1344 283.15 0.041496 18.681 0.059571 125.00 0.0080000 920.92 996.32 2.9921 2.4762 3.1344 283.15 0.041496 18.681 0.059571
241.38 1372.1 undefined 923.39 999.08 2.9969 125.00 0.0080000 923.39 999.08 2.9969 2.4795 3.1346 283.82 0.041173 18.709 0.059735 125.00 0.0080000 923.39 999.08 2.9969 2.4795 3.1346 283.82 0.041173 18.709 0.059735
242.38 1377.3 undefined 925.88 1001.8 3.0018 125.00 0.0080000 925.88 1001.8 3.0018 2.4829 3.1349 284.49 0.040855 18.737 0.059900 125.00 0.0080000 925.88 1001.8 3.0018 2.4829 3.1349 284.49 0.040855 18.737 0.059900
243.38 1382.5 undefined 928.36 1004.6 3.0066 125.00 0.0080000 928.36 1004.6 3.0066 2.4862 3.1353 285.16 0.040540 18.765 0.060065 125.00 0.0080000 928.36 1004.6 3.0066 2.4862 3.1353 285.16 0.040540 18.765 0.060065
244.38 1387.6 undefined 930.85 1007.4 3.0114 125.00 0.0080000 930.85 1007.4 3.0114 2.4896 3.1357 285.82 0.040228 18.793 0.060230 125.00 0.0080000 930.85 1007.4 3.0114 2.4896 3.1357 285.82 0.040228 18.793 0.060230
245.38 1392.8 undefined 933.34 1010.2 3.0162 125.00 0.0080000 933.34 1010.2 3.0162 2.4929 3.1361 286.49 0.039920 18.821 0.060395 125.00 0.0080000 933.34 1010.2 3.0162 2.4929 3.1361 286.49 0.039920 18.821 0.060395
246.38 1397.9 undefined 935.83 1012.9 3.0210 125.00 0.0080000 935.83 1012.9 3.0210 2.4962 3.1365 287.15 0.039615 18.849 0.060561 125.00 0.0080000 935.83 1012.9 3.0210 2.4962 3.1365 287.15 0.039615 18.849 0.060561
247.38 1403.1 undefined 938.33 1015.7 3.0258 125.00 0.0080000 938.33 1015.7 3.0258 2.4996 3.1370 287.81 0.039313 18.877 0.060727 125.00 0.0080000 938.33 1015.7 3.0258 2.4996 3.1370 287.81 0.039313 18.877 0.060727
248.38 1408.3 undefined 940.83 1018.5 3.0306 125.00 0.0080000 940.83 1018.5 3.0306 2.5029 3.1375 288.47 0.039014 18.904 0.060893 125.00 0.0080000 940.83 1018.5 3.0306 2.5029 3.1375 288.47 0.039014 18.904 0.060893
249.38 1413.4 undefined 943.34 1021.3 3.0354 125.00 0.0080000 943.34 1021.3 3.0354 2.5062 3.1381 289.13 0.038719 18.932 0.061060 125.00 0.0080000 943.34 1021.3 3.0354 2.5062 3.1381 289.13 0.038719 18.932 0.061060
250.38 1418.6 undefined 945.85 1024.1 3.0402 125.00 0.0080000 945.85 1024.1 3.0402 2.5096 3.1387 289.78 0.038427 18.960 0.061227 125.00 0.0080000 945.85 1024.1 3.0402 2.5096 3.1387 289.78 0.038427 18.960 0.061227
251.38 1423.7 undefined 948.36 1026.9 3.0450 125.00 0.0080000 948.36 1026.9 3.0450 2.5129 3.1393 290.44 0.038138 18.988 0.061394 125.00 0.0080000 948.36 1026.9 3.0450 2.5129 3.1393 290.44 0.038138 18.988 0.061394
252.38 1428.9 undefined 950.87 1029.7 3.0498 125.00 0.0080000 950.87 1029.7 3.0498 2.5163 3.1400 291.09 0.037852 19.015 0.061561 125.00 0.0080000 950.87 1029.7 3.0498 2.5163 3.1400 291.09 0.037852 19.015 0.061561
253.38 1434.0 undefined 953.39 1032.5 3.0546 125.00 0.0080000 953.39 1032.5 3.0546 2.5196 3.1407 291.75 0.037569 19.043 0.061728 125.00 0.0080000 953.39 1032.5 3.0546 2.5196 3.1407 291.75 0.037569 19.043 0.061728
254.38 1439.1 undefined 955.91 1035.3 3.0594 125.00 0.0080000 955.91 1035.3 3.0594 2.5229 3.1414 292.40 0.037288 19.070 0.061896 125.00 0.0080000 955.91 1035.3 3.0594 2.5229 3.1414 292.40 0.037288 19.070 0.061896
255.38 1444.3 undefined 958.44 1038.1 3.0641 125.00 0.0080000 958.44 1038.1 3.0641 2.5263 3.1422 293.04 0.037011 19.098 0.062064 125.00 0.0080000 958.44 1038.1 3.0641 2.5263 3.1422 293.04 0.037011 19.098 0.062064
256.38 1449.4 undefined 960.96 1040.9 3.0689 125.00 0.0080000 960.96 1040.9 3.0689 2.5296 3.1430 293.69 0.036737 19.126 0.062232 125.00 0.0080000 960.96 1040.9 3.0689 2.5296 3.1430 293.69 0.036737 19.126 0.062232
257.38 1454.6 undefined 963.49 1043.7 3.0737 125.00 0.0080000 963.49 1043.7 3.0737 2.5330 3.1438 294.34 0.036465 19.153 0.062400 125.00 0.0080000 963.49 1043.7 3.0737 2.5330 3.1438 294.34 0.036465 19.153 0.062400
258.38 1459.7 undefined 966.03 1046.5 3.0785 125.00 0.0080000 966.03 1046.5 3.0785 2.5363 3.1446 294.98 0.036197 19.180 0.062569 125.00 0.0080000 966.03 1046.5 3.0785 2.5363 3.1446 294.98 0.036197 19.180 0.062569
259.38 1464.8 undefined 968.57 1049.4 3.0832 125.00 0.0080000 968.57 1049.4 3.0832 2.5396 3.1455 295.63 0.035931 19.208 0.062738 125.00 0.0080000 968.57 1049.4 3.0832 2.5396 3.1455 295.63 0.035931 19.208 0.062738
260.38 1470.0 undefined 971.11 1052.2 3.0880 125.00 0.0080000 971.11 1052.2 3.0880 2.5430 3.1464 296.27 0.035668 19.235 0.062906 125.00 0.0080000 971.11 1052.2 3.0880 2.5430 3.1464 296.27 0.035668 19.235 0.062906
261.38 1475.1 undefined 973.65 1055.0 3.0928 125.00 0.0080000 973.65 1055.0 3.0928 2.5463 3.1474 296.91 0.035407 19.263 0.063075 125.00 0.0080000 973.65 1055.0 3.0928 2.5463 3.1474 296.91 0.035407 19.263 0.063075
262.38 1480.3 undefined 976.20 1057.8 3.0975 125.00 0.0080000 976.20 1057.8 3.0975 2.5497 3.1483 297.55 0.035149 19.290 0.063245 125.00 0.0080000 976.20 1057.8 3.0975 2.5497 3.1483 297.55 0.035149 19.290 0.063245
263.38 1485.4 undefined 978.75 1060.7 3.1023 125.00 0.0080000 978.75 1060.7 3.1023 2.5530 3.1493 298.18 0.034894 19.317 0.063414 125.00 0.0080000 978.75 1060.7 3.1023 2.5530 3.1493 298.18 0.034894 19.317 0.063414
264.38 1490.5 undefined 981.31 1063.5 3.1070 125.00 0.0080000 981.31 1063.5 3.1070 2.5563 3.1503 298.82 0.034641 19.345 0.063583 125.00 0.0080000 981.31 1063.5 3.1070 2.5563 3.1503 298.82 0.034641 19.345 0.063583
265.38 1495.6 undefined 983.87 1066.4 3.1118 125.00 0.0080000 983.87 1066.4 3.1118 2.5597 3.1514 299.46 0.034391 19.372 0.063752 125.00 0.0080000 983.87 1066.4 3.1118 2.5597 3.1514 299.46 0.034391 19.372 0.063752
266.38 1500.8 undefined 986.43 1069.2 3.1165 125.00 0.0080000 986.43 1069.2 3.1165 2.5630 3.1524 300.09 0.034144 19.399 0.063922 125.00 0.0080000 986.43 1069.2 3.1165 2.5630 3.1524 300.09 0.034144 19.399 0.063922
267.38 1505.9 undefined 988.99 1072.1 3.1213 125.00 0.0080000 988.99 1072.1 3.1213 2.5663 3.1535 300.72 0.033898 19.426 0.064091 125.00 0.0080000 988.99 1072.1 3.1213 2.5663 3.1535 300.72 0.033898 19.426 0.064091
268.38 1511.0 undefined 991.56 1074.9 3.1260 125.00 0.0080000 991.56 1074.9 3.1260 2.5697 3.1546 301.35 0.033656 19.453 0.064260 125.00 0.0080000 991.56 1074.9 3.1260 2.5697 3.1546 301.35 0.033656 19.453 0.064260
269.38 1516.1 undefined 994.13 1077.8 3.1308 125.00 0.0080000 994.13 1077.8 3.1308 2.5730 3.1558 301.98 0.033415 19.481 0.064430 125.00 0.0080000 994.13 1077.8 3.1308 2.5730 3.1558 301.98 0.033415 19.481 0.064430
270.38 1521.3 undefined 996.71 1080.6 3.1355 125.00 0.0080000 996.71 1080.6 3.1355 2.5763 3.1569 302.61 0.033177 19.508 0.064599 125.00 0.0080000 996.71 1080.6 3.1355 2.5763 3.1569 302.61 0.033177 19.508 0.064599
271.38 1526.4 undefined 999.28 1083.5 3.1403 125.00 0.0080000 999.28 1083.5 3.1403 2.5797 3.1581 303.23 0.032942 19.535 0.064767 125.00 0.0080000 999.28 1083.5 3.1403 2.5797 3.1581 303.23 0.032942 19.535 0.064767
272.38 1531.5 undefined 1001.9 1086.3 3.1450 125.00 0.0080000 1001.9 1086.3 3.1450 2.5830 3.1593 303.86 0.032709 19.562 0.064936 125.00 0.0080000 1001.9 1086.3 3.1450 2.5830 3.1593 303.86 0.032709 19.562 0.064936
273.38 1536.6 undefined 1004.4 1089.2 3.1497 125.00 0.0080000 1004.4 1089.2 3.1497 2.5863 3.1605 304.48 0.032478 19.589 0.065104 125.00 0.0080000 1004.4 1089.2 3.1497 2.5863 3.1605 304.48 0.032478 19.589 0.065104
274.38 1541.8 undefined 1007.0 1092.1 3.1545 125.00 0.0080000 1007.0 1092.1 3.1545 2.5896 3.1618 305.11 0.032249 19.616 0.065272 125.00 0.0080000 1007.0 1092.1 3.1545 2.5896 3.1618 305.11 0.032249 19.616 0.065272
275.38 1546.9 undefined 1009.6 1095.0 3.1592 125.00 0.0080000 1009.6 1095.0 3.1592 2.5930 3.1631 305.73 0.032022 19.643 0.065438 125.00 0.0080000 1009.6 1095.0 3.1592 2.5930 3.1631 305.73 0.032022 19.643 0.065438
276.38 1552.0 undefined 1012.2 1097.8 3.1639 125.00 0.0080000 1012.2 1097.8 3.1639 2.5963 3.1643 306.35 0.031798 19.670 0.065604 125.00 0.0080000 1012.2 1097.8 3.1639 2.5963 3.1643 306.35 0.031798 19.670 0.065604
277.38 1557.1 undefined 1014.8 1100.7 3.1686 125.00 0.0080000 1014.8 1100.7 3.1686 2.5996 3.1657 306.97 0.031576 19.696 0.065768 125.00 0.0080000 1014.8 1100.7 3.1686 2.5996 3.1657 306.97 0.031576 19.696 0.065768
278.38 1562.2 undefined 1017.4 1103.6 3.1734 125.00 0.0080000 1017.4 1103.6 3.1734 2.6029 3.1670 307.58 0.031356 19.723 0.065930 125.00 0.0080000 1017.4 1103.6 3.1734 2.6029 3.1670 307.58 0.031356 19.723 0.065930
279.38 1567.3 undefined 1020.0 1106.5 3.1781 125.00 0.0080000 1020.0 1106.5 3.1781 2.6063 3.1683 308.20 0.031138 19.750 0.066088 125.00 0.0080000 1020.0 1106.5 3.1781 2.6063 3.1683 308.20 0.031138 19.750 0.066088
280.38 1572.4 undefined 1022.6 1109.4 3.1828 125.00 0.0080000 1022.6 1109.4 3.1828 2.6096 3.1697 308.81 0.030922 19.777 0.066240 125.00 0.0080000 1022.6 1109.4 3.1828 2.6096 3.1697 308.81 0.030922 19.777 0.066240
281.38 1577.5 undefined 1025.2 1112.3 3.1875 125.00 0.0080000 1025.2 1112.3 3.1875 2.6129 3.1711 309.43 0.030708 19.804 0.066369 125.00 0.0080000 1025.2 1112.3 3.1875 2.6129 3.1711 309.43 0.030708 19.804 0.066369
282.38 1582.7 undefined 1027.9 1115.2 3.1922 125.00 0.0080000 1027.9 1115.2 3.1922 2.6162 3.1725 310.04 0.030496 19.830 0.066517 125.00 0.0080000 1027.9 1115.2 3.1922 2.6162 3.1725 310.04 0.030496 19.830 0.066517
283.38 1587.8 undefined 1030.5 1118.1 3.1969 125.00 0.0080000 1030.5 1118.1 3.1969 2.6195 3.1739 310.65 0.030287 19.857 0.066704 125.00 0.0080000 1030.5 1118.1 3.1969 2.6195 3.1739 310.65 0.030287 19.857 0.066704
284.38 1592.9 undefined 1033.1 1121.0 3.2016 125.00 0.0080000 1033.1 1121.0 3.2016 2.6228 3.1754 311.26 0.030079 19.884 0.066891 125.00 0.0080000 1033.1 1121.0 3.2016 2.6228 3.1754 311.26 0.030079 19.884 0.066891
285.38 1598.0 undefined 1035.7 1123.9 3.2063 125.00 0.0080000 1035.7 1123.9 3.2063 2.6261 3.1768 311.87 0.029873 19.910 0.067079 125.00 0.0080000 1035.7 1123.9 3.2063 2.6261 3.1768 311.87 0.029873 19.910 0.067079
286.38 1603.1 undefined 1038.4 1126.8 3.2110 125.00 0.0080000 1038.4 1126.8 3.2110 2.6295 3.1783 312.48 0.029669 19.937 0.067267 125.00 0.0080000 1038.4 1126.8 3.2110 2.6295 3.1783 312.48 0.029669 19.937 0.067267
287.38 1608.2 undefined 1041.0 1129.7 3.2157 125.00 0.0080000 1041.0 1129.7 3.2157 2.6328 3.1798 313.08 0.029467 19.963 0.067455 125.00 0.0080000 1041.0 1129.7 3.2157 2.6328 3.1798 313.08 0.029467 19.963 0.067455
288.38 1613.3 undefined 1043.6 1132.6 3.2204 125.00 0.0080000 1043.6 1132.6 3.2204 2.6361 3.1813 313.69 0.029267 19.990 0.067643 125.00 0.0080000 1043.6 1132.6 3.2204 2.6361 3.1813 313.69 0.029267 19.990 0.067643
289.38 1618.4 undefined 1046.3 1135.5 3.2251 125.00 0.0080000 1046.3 1135.5 3.2251 2.6394 3.1828 314.29 0.029069 20.016 0.067832 125.00 0.0080000 1046.3 1135.5 3.2251 2.6394 3.1828 314.29 0.029069 20.016 0.067832
290.38 1623.5 undefined 1048.9 1138.4 3.2298 125.00 0.0080000 1048.9 1138.4 3.2298 2.6427 3.1844 314.89 0.028872 20.043 0.068021 125.00 0.0080000 1048.9 1138.4 3.2298 2.6427 3.1844 314.89 0.028872 20.043 0.068021
291.38 1628.6 undefined 1051.5 1141.4 3.2345 125.00 0.0080000 1051.5 1141.4 3.2345 2.6460 3.1859 315.50 0.028678 20.069 0.068210 125.00 0.0080000 1051.5 1141.4 3.2345 2.6460 3.1859 315.50 0.028678 20.069 0.068210
292.38 1633.7 undefined 1054.2 1144.3 3.2392 125.00 0.0080000 1054.2 1144.3 3.2392 2.6493 3.1875 316.10 0.028485 20.096 0.068400 125.00 0.0080000 1054.2 1144.3 3.2392 2.6493 3.1875 316.10 0.028485 20.096 0.068400
293.38 1638.8 undefined 1056.8 1147.2 3.2439 125.00 0.0080000 1056.8 1147.2 3.2439 2.6526 3.1891 316.69 0.028294 20.122 0.068590 125.00 0.0080000 1056.8 1147.2 3.2439 2.6526 3.1891 316.69 0.028294 20.122 0.068590
294.38 1643.9 undefined 1059.5 1150.2 3.2486 125.00 0.0080000 1059.5 1150.2 3.2486 2.6559 3.1907 317.29 0.028105 20.149 0.068780 125.00 0.0080000 1059.5 1150.2 3.2486 2.6559 3.1907 317.29 0.028105 20.149 0.068780
295.38 1649.0 undefined 1062.2 1153.1 3.2532 125.00 0.0080000 1062.2 1153.1 3.2532 2.6592 3.1923 317.89 0.027917 20.175 0.068971 125.00 0.0080000 1062.2 1153.1 3.2532 2.6592 3.1923 317.89 0.027917 20.175 0.068971
296.38 1654.1 undefined 1064.8 1156.0 3.2579 125.00 0.0080000 1064.8 1156.0 3.2579 2.6624 3.1940 318.48 0.027731 20.201 0.069161 125.00 0.0080000 1064.8 1156.0 3.2579 2.6624 3.1940 318.48 0.027731 20.201 0.069161
297.38 1659.1 undefined 1067.5 1159.0 3.2626 125.00 0.0080000 1067.5 1159.0 3.2626 2.6657 3.1956 319.08 0.027547 20.227 0.069352 125.00 0.0080000 1067.5 1159.0 3.2626 2.6657 3.1956 319.08 0.027547 20.227 0.069352
298.38 1664.2 undefined 1070.1 1161.9 3.2673 125.00 0.0080000 1070.1 1161.9 3.2673 2.6690 3.1973 319.67 0.027364 20.254 0.069544 125.00 0.0080000 1070.1 1161.9 3.2673 2.6690 3.1973 319.67 0.027364 20.254 0.069544
299.38 1669.3 undefined 1072.8 1164.9 3.2719 125.00 0.0080000 1072.8 1164.9 3.2719 2.6723 3.1989 320.26 0.027183 20.280 0.069735 125.00 0.0080000 1072.8 1164.9 3.2719 2.6723 3.1989 320.26 0.027183 20.280 0.069735
300.38 1674.4 undefined 1075.5 1167.8 3.2766 125.00 0.0080000 1075.5 1167.8 3.2766 2.6756 3.2006 320.85 0.027004 20.306 0.069927 125.00 0.0080000 1075.5 1167.8 3.2766 2.6756 3.2006 320.85 0.027004 20.306 0.069927