Temperature (C) Pressure (psia) Quality (l+v) Internal Energy (l+v, kJ/kg) Enthalpy (l+v, kJ/kg) Entropy (l+v, J/g*K) Density (l, kg/m3) Volume (l, m3/kg) Internal Energy (l, kJ/kg) Enthalpy (l, kJ/kg) Entropy (l, J/g*K) Cv (l, J/g*K) Cp (l, J/g*K) Sound Spd. (l, m/s) Joule-Thomson (l, F/psia) Viscosity (l, uPa*s) Therm. Cond. (l, W/m*K) Density (v, kg/m3) Volume (v, m3/kg) Internal Energy (v, kJ/kg) Enthalpy (v, kJ/kg) Entropy (v, J/g*K) Cv (v, J/g*K) Cp (v, J/g*K) Sound Spd. (v, m/s) Joule-Thomson (v, F/psia) Viscosity (v, uPa*s) Therm. Cond. (v, W/m*K)
-187.62 2.4953e-08 6.4475e-11 -196.64 -196.64 -1.3959 733.13 0.0013640 -196.64 -196.64 -1.3959 1.3553 1.9158 2136.4 -0.0077592 10960. 0.20792 1.0669e-08 9.3732e+07 350.13 366.26 5.1858 0.69067 0.87923 143.28 6.1051 2.3259 0.0017061
-186.62 3.7339e-08 9.5334e-11 -194.73 -194.73 -1.3736 732.08 0.0013660 -194.73 -194.73 -1.3736 1.3539 1.9166 2129.6 -0.0077546 10073. 0.20765 1.5780e-08 6.3371e+07 350.82 367.14 5.1200 0.69462 0.88317 144.03 5.9178 2.3534 0.0017533
-185.62 5.5322e-08 1.3959e-10 -192.81 -192.81 -1.3516 731.04 0.0013679 -192.81 -192.81 -1.3516 1.3525 1.9174 2122.9 -0.0077498 9276.1 0.20737 2.3112e-08 4.3267e+07 351.52 368.02 5.0561 0.69857 0.88713 144.77 5.7383 2.3808 0.0018007
-184.62 8.1182e-08 2.0246e-10 -190.89 -190.89 -1.3298 730.00 0.0013699 -190.89 -190.89 -1.3298 1.3513 1.9182 2116.1 -0.0077448 8557.8 0.20708 3.3533e-08 2.9821e+07 352.22 368.91 4.9939 0.70253 0.89108 145.51 5.5662 2.4083 0.0018485
-183.62 1.1803e-07 2.9098e-10 -188.97 -188.97 -1.3083 728.96 0.0013718 -188.97 -188.97 -1.3083 1.3501 1.9191 2109.3 -0.0077395 7909.8 0.20678 4.8211e-08 2.0742e+07 352.92 369.81 4.9333 0.70648 0.89504 146.24 5.4011 2.4357 0.0018965
-182.62 1.7009e-07 4.1454e-10 -187.05 -187.05 -1.2869 727.92 0.0013738 -187.05 -187.05 -1.2869 1.3490 1.9201 2102.5 -0.0077340 7324.3 0.20647 6.8704e-08 1.4555e+07 353.63 370.70 4.8744 0.71043 0.89899 146.97 5.2426 2.4632 0.0019448
-181.62 2.4299e-07 5.8555e-10 -185.13 -185.13 -1.2658 726.88 0.0013757 -185.13 -185.13 -1.2658 1.3480 1.9210 2095.7 -0.0077283 6794.5 0.20616 9.7079e-08 1.0301e+07 354.35 371.60 4.8170 0.71438 0.90294 147.69 5.0904 2.4906 0.0019934
-180.62 3.4425e-07 8.2033e-10 -183.21 -183.21 -1.2450 725.85 0.0013777 -183.21 -183.21 -1.2450 1.3470 1.9220 2088.9 -0.0077225 6314.4 0.20584 1.3605e-07 7.3504e+06 355.06 372.51 4.7612 0.71833 0.90688 148.41 4.9442 2.5181 0.0020423
-179.62 4.8378e-07 1.1401e-09 -181.29 -181.29 -1.2243 724.81 0.0013797 -181.29 -181.29 -1.2243 1.3461 1.9231 2082.0 -0.0077164 5878.8 0.20551 1.8915e-07 5.2868e+06 355.78 373.42 4.7068 0.72227 0.91082 149.13 4.8038 2.5456 0.0020915
-178.62 6.7459e-07 1.5725e-09 -179.37 -179.37 -1.2038 723.78 0.0013816 -179.37 -179.37 -1.2038 1.3453 1.9241 2075.2 -0.0077102 5482.9 0.20517 2.6096e-07 3.8320e+06 356.51 374.33 4.6538 0.72620 0.91475 149.84 4.6688 2.5731 0.0021410
-177.62 9.3358e-07 2.1527e-09 -177.44 -177.44 -1.1836 722.75 0.0013836 -177.44 -177.44 -1.1836 1.3445 1.9252 2068.4 -0.0077039 5122.6 0.20483 3.5737e-07 2.7982e+06 357.23 375.25 4.6022 0.73012 0.91867 150.54 4.5390 2.6005 0.0021907
-176.62 1.2826e-06 2.9259e-09 -175.52 -175.52 -1.1635 721.72 0.0013856 -175.52 -175.52 -1.1635 1.3437 1.9263 2061.5 -0.0076973 4794.1 0.20447 4.8588e-07 2.0581e+06 357.97 376.17 4.5519 0.73403 0.92258 151.25 4.4142 2.6280 0.0022408
-175.62 1.7496e-06 3.9491e-09 -173.59 -173.59 -1.1437 720.69 0.0013876 -173.59 -173.59 -1.1437 1.3430 1.9274 2054.7 -0.0076907 4494.3 0.20411 6.5601e-07 1.5244e+06 358.70 377.09 4.5029 0.73792 0.92648 151.95 4.2941 2.6555 0.0022912
-174.62 2.3705e-06 5.2943e-09 -171.66 -171.66 -1.1240 719.66 0.0013895 -171.66 -171.66 -1.1240 1.3423 1.9286 2047.9 -0.0076838 4220.2 0.20375 8.7976e-07 1.1367e+06 359.44 378.02 4.4551 0.74181 0.93036 152.64 4.1784 2.6830 0.0023418
-173.62 3.1903e-06 7.0514e-09 -169.73 -169.73 -1.1045 718.64 0.0013915 -169.73 -169.73 -1.1045 1.3417 1.9298 2041.0 -0.0076769 3969.3 0.20338 1.1721e-06 8.5314e+05 360.19 378.95 4.4085 0.74568 0.93423 153.33 4.0671 2.7105 0.0023928
-172.62 4.2661e-06 9.3324e-09 -167.80 -167.80 -1.0852 717.61 0.0013935 -167.80 -167.80 -1.0852 1.3411 1.9310 2034.2 -0.0076698 3739.3 0.20300 1.5518e-06 6.4441e+05 360.93 379.89 4.3631 0.74953 0.93809 154.02 3.9599 2.7379 0.0024440
-171.62 5.6692e-06 1.2276e-08 -165.87 -165.87 -1.0661 716.58 0.0013955 -165.87 -165.87 -1.0661 1.3405 1.9322 2027.3 -0.0076625 3528.0 0.20261 2.0419e-06 4.8974e+05 361.69 380.83 4.3188 0.75337 0.94193 154.71 3.8566 2.7654 0.0024955
-170.62 7.4884e-06 1.6051e-08 -163.94 -163.94 -1.0472 715.56 0.0013975 -163.94 -163.94 -1.0472 1.3400 1.9334 2020.5 -0.0076552 3333.8 0.20222 2.6708e-06 3.7442e+05 362.44 381.77 4.2755 0.75720 0.94575 155.39 3.7570 2.7929 0.0025473
-169.62 9.8334e-06 2.0867e-08 -162.00 -162.00 -1.0284 714.54 0.0013995 -162.00 -162.00 -1.0284 1.3395 1.9347 2013.6 -0.0076477 3154.9 0.20182 3.4733e-06 2.8791e+05 363.20 382.72 4.2334 0.76100 0.94956 156.07 3.6609 2.8204 0.0025994
-168.62 1.2839e-05 2.6976e-08 -160.07 -160.07 -1.0098 713.52 0.0014015 -160.07 -160.07 -1.0098 1.3390 1.9359 2006.8 -0.0076401 2989.9 0.20141 4.4917e-06 2.2263e+05 363.96 383.67 4.1922 0.76479 0.95335 156.74 3.5683 2.8479 0.0026518
-167.62 1.6672e-05 3.4685e-08 -158.13 -158.13 -0.99134 712.49 0.0014035 -158.13 -158.13 -0.99134 1.3386 1.9372 2000.0 -0.0076323 2837.5 0.20100 5.7771e-06 1.7310e+05 364.73 384.63 4.1521 0.76856 0.95712 157.41 3.4790 2.8754 0.0027045
-166.62 2.1533e-05 4.4362e-08 -156.19 -156.19 -0.97306 711.47 0.0014055 -156.19 -156.19 -0.97306 1.3382 1.9385 1993.1 -0.0076245 2696.5 0.20058 7.3914e-06 1.3529e+05 365.50 385.59 4.1129 0.77232 0.96087 158.08 3.3927 2.9029 0.0027575
-165.62 2.7666e-05 5.6449e-08 -154.25 -154.25 -0.95494 710.45 0.0014075 -154.25 -154.25 -0.95494 1.3378 1.9398 1986.3 -0.0076165 2566.0 0.20016 9.4084e-06 1.0629e+05 366.27 386.55 4.0746 0.77605 0.96460 158.75 3.3095 2.9304 0.0028108
-164.62 3.5367e-05 7.1473e-08 -152.31 -152.31 -0.93698 709.44 0.0014096 -152.31 -152.31 -0.93698 1.3375 1.9411 1979.4 -0.0076084 2444.9 0.19973 1.1916e-05 83918. 367.05 387.52 4.0372 0.77976 0.96832 159.41 3.2291 2.9579 0.0028643
-163.62 4.4989e-05 9.0058e-08 -150.37 -150.37 -0.91917 708.42 0.0014116 -150.37 -150.37 -0.91917 1.3371 1.9424 1972.6 -0.0076002 2332.3 0.19930 1.5020e-05 66577. 367.83 388.49 4.0008 0.78346 0.97201 160.07 3.1514 2.9854 0.0029182
-162.62 5.6956e-05 1.1294e-07 -148.43 -148.43 -0.90151 707.40 0.0014136 -148.43 -148.43 -0.90151 1.3368 1.9437 1965.8 -0.0075919 2227.7 0.19886 1.8844e-05 53068. 368.62 389.46 3.9651 0.78713 0.97569 160.72 3.0764 3.0129 0.0029723
-161.62 7.1773e-05 1.4100e-07 -146.48 -146.48 -0.88400 706.38 0.0014157 -146.48 -146.48 -0.88400 1.3365 1.9451 1959.0 -0.0075834 2130.2 0.19841 2.3533e-05 42494. 369.41 390.44 3.9304 0.79079 0.97935 161.38 3.0038 3.0404 0.0030268
-160.62 9.0036e-05 1.7525e-07 -144.54 -144.54 -0.86663 705.37 0.0014177 -144.54 -144.54 -0.86663 1.3363 1.9465 1952.1 -0.0075748 2039.2 0.19796 2.9258e-05 34178. 370.20 391.42 3.8964 0.79443 0.98298 162.03 2.9337 3.0679 0.0030815
-159.62 0.00011245 2.1688e-07 -142.59 -142.59 -0.84940 704.35 0.0014197 -142.59 -142.59 -0.84940 1.3360 1.9478 1945.3 -0.0075661 1954.2 0.19751 3.6221e-05 27609. 371.00 392.40 3.8632 0.79805 0.98660 162.68 2.8658 3.0955 0.0031365
-158.62 0.00013985 2.6727e-07 -140.64 -140.64 -0.83231 703.34 0.0014218 -140.64 -140.64 -0.83231 1.3358 1.9492 1938.5 -0.0075573 1874.8 0.19705 4.4652e-05 22395. 371.80 393.39 3.8307 0.80164 0.99020 163.32 2.8002 3.1230 0.0031918
-157.62 0.00017320 3.2803e-07 -138.69 -138.69 -0.81536 702.32 0.0014238 -138.69 -138.69 -0.81536 1.3356 1.9506 1931.7 -0.0075484 1800.3 0.19658 5.4822e-05 18241. 372.60 394.38 3.7990 0.80522 0.99378 163.96 2.7367 3.1505 0.0032474
-156.62 0.00021364 4.0100e-07 -136.74 -136.74 -0.79854 701.31 0.0014259 -136.74 -136.74 -0.79854 1.3354 1.9520 1924.9 -0.0075393 1730.5 0.19611 6.7040e-05 14916. 373.41 395.38 3.7680 0.80878 0.99734 164.60 2.6752 3.1780 0.0033033
-155.62 0.00026248 4.8832e-07 -134.79 -134.79 -0.78185 700.30 0.0014280 -134.79 -134.79 -0.78185 1.3352 1.9534 1918.1 -0.0075302 1664.9 0.19564 8.1666e-05 12245. 374.22 396.38 3.7377 0.81232 1.0009 165.24 2.6157 3.2055 0.0033595
-154.62 0.00032125 5.9241e-07 -132.83 -132.83 -0.76530 699.29 0.0014300 -132.83 -132.83 -0.76530 1.3350 1.9548 1911.3 -0.0075209 1603.3 0.19516 9.9109e-05 10090. 375.03 397.38 3.7081 0.81585 1.0044 165.87 2.5580 3.2330 0.0034160
-153.62 0.00039171 7.1607e-07 -130.88 -130.88 -0.74886 698.27 0.0014321 -130.88 -130.88 -0.74887 1.3349 1.9563 1904.5 -0.0075114 1545.3 0.19468 0.00011984 8344.6 375.85 398.39 3.6792 0.81935 1.0079 166.50 2.5022 3.2606 0.0034727
-152.62 0.00047590 8.6245e-07 -128.92 -128.92 -0.73256 697.26 0.0014342 -128.92 -128.92 -0.73256 1.3348 1.9577 1897.8 -0.0075019 1490.6 0.19419 0.00014439 6925.9 376.67 399.40 3.6509 0.82284 1.0114 167.13 2.4481 3.2881 0.0035298
-151.62 0.00057613 1.0351e-06 -126.96 -126.96 -0.71638 696.25 0.0014363 -126.96 -126.96 -0.71638 1.3346 1.9592 1891.0 -0.0074922 1438.9 0.19370 0.00017336 5768.4 377.49 400.41 3.6232 0.82631 1.0149 167.76 2.3957 3.3156 0.0035872
-150.62 0.00069507 1.2382e-06 -125.00 -125.00 -0.70031 695.24 0.0014384 -125.00 -125.00 -0.70032 1.3345 1.9606 1884.2 -0.0074824 1390.2 0.19320 0.00020744 4820.7 378.32 401.42 3.5962 0.82976 1.0183 168.38 2.3448 3.3431 0.0036448
-149.62 0.00083574 1.4762e-06 -123.04 -123.04 -0.68437 694.23 0.0014404 -123.04 -123.04 -0.68438 1.3345 1.9621 1877.4 -0.0074724 1344.0 0.19270 0.00024740 4042.0 379.15 402.44 3.5697 0.83319 1.0218 169.00 2.2956 3.3706 0.0037027
-148.62 0.0010016 1.7544e-06 -121.08 -121.08 -0.66854 693.22 0.0014425 -121.08 -121.08 -0.66855 1.3344 1.9636 1870.7 -0.0074623 1300.3 0.19220 0.00029412 3400.0 379.99 403.47 3.5438 0.83661 1.0252 169.62 2.2478 3.3982 0.0037610
-147.62 0.0011965 2.0784e-06 -119.11 -119.11 -0.65283 692.21 0.0014447 -119.11 -119.11 -0.65284 1.3343 1.9651 1863.9 -0.0074521 1258.9 0.19169 0.00034856 2869.0 380.83 404.49 3.5185 0.84001 1.0286 170.24 2.2014 3.4257 0.0038195
-146.62 0.0014249 2.4547e-06 -117.15 -117.15 -0.63723 691.20 0.0014468 -117.15 -117.15 -0.63724 1.3343 1.9666 1857.2 -0.0074417 1219.6 0.19117 0.00041181 2428.3 381.67 405.52 3.4938 0.84340 1.0320 170.85 2.1565 3.4532 0.0038783
-145.62 0.0016917 2.8905e-06 -115.18 -115.18 -0.62174 690.19 0.0014489 -115.18 -115.18 -0.62175 1.3343 1.9682 1850.4 -0.0074312 1182.3 0.19066 0.00048510 2061.4 382.51 406.56 3.4695 0.84677 1.0353 171.46 2.1128 3.4807 0.0039374
-144.62 0.0020026 3.3937e-06 -113.21 -113.21 -0.60636 689.18 0.0014510 -113.21 -113.21 -0.60637 1.3343 1.9697 1843.7 -0.0074206 1146.8 0.19014 0.00056976 1755.1 383.36 407.59 3.4458 0.85012 1.0387 172.07 2.0705 3.5082 0.0039967
-143.62 0.0023637 3.9733e-06 -111.24 -111.24 -0.59108 688.17 0.0014531 -111.24 -111.24 -0.59110 1.3343 1.9713 1836.9 -0.0074098 1113.0 0.18962 0.00066731 1498.6 384.21 408.63 3.4226 0.85346 1.0420 172.68 2.0294 3.5358 0.0040564
-142.62 0.0027820 4.6390e-06 -109.27 -109.27 -0.57591 687.16 0.0014553 -109.27 -109.27 -0.57593 1.3343 1.9728 1830.2 -0.0073988 1080.8 0.18909 0.00077939 1283.1 385.07 409.68 3.3999 0.85679 1.0454 173.28 1.9896 3.5633 0.0041164
-141.62 0.0032653 5.4017e-06 -107.29 -107.29 -0.56085 686.15 0.0014574 -107.30 -107.30 -0.56087 1.3343 1.9744 1823.5 -0.0073878 1050.1 0.18856 0.00090784 1101.5 385.93 410.72 3.3777 0.86011 1.0487 173.88 1.9508 3.5908 0.0041766
-140.62 0.0038222 6.2730e-06 -105.32 -105.32 -0.54588 685.14 0.0014596 -105.32 -105.32 -0.54591 1.3344 1.9760 1816.7 -0.0073765 1020.7 0.18803 0.0010547 948.16 386.79 411.77 3.3560 0.86341 1.0520 174.48 1.9133 3.6183 0.0042372
-139.62 0.0044623 7.2662e-06 -103.34 -103.34 -0.53102 684.13 0.0014617 -103.34 -103.34 -0.53105 1.3344 1.9776 1810.0 -0.0073651 992.74 0.18749 0.0012221 818.26 387.65 412.83 3.3347 0.86670 1.0553 175.08 1.8768 3.6459 0.0042980
-138.62 0.0051963 8.3955e-06 -101.36 -101.36 -0.51625 683.12 0.0014639 -101.37 -101.37 -0.51629 1.3345 1.9792 1803.3 -0.0073536 965.97 0.18695 0.0014125 707.94 388.52 413.88 3.3139 0.86998 1.0586 175.67 1.8413 3.6734 0.0043592
-137.62 0.0060358 9.6765e-06 -99.381 -99.381 -0.50159 682.11 0.0014660 -99.386 -99.386 -0.50162 1.3346 1.9808 1796.6 -0.0073419 940.35 0.18641 0.0016287 614.00 389.39 414.94 3.2935 0.87325 1.0619 176.26 1.8069 3.7009 0.0044206
-136.62 0.0069938 1.1126e-05 -97.399 -97.399 -0.48701 681.10 0.0014682 -97.404 -97.404 -0.48705 1.3347 1.9825 1789.9 -0.0073301 915.81 0.18586 0.0018733 533.80 390.26 416.00 3.2735 0.87650 1.0651 176.85 1.7734 3.7284 0.0044823
-135.62 0.0080843 1.2763e-05 -95.415 -95.415 -0.47253 680.09 0.0014704 -95.421 -95.421 -0.47258 1.3348 1.9841 1783.2 -0.0073180 892.30 0.18531 0.0021497 465.17 391.14 417.07 3.2540 0.87975 1.0684 177.44 1.7409 3.7559 0.0045443
-134.62 0.0093230 1.4607e-05 -93.429 -93.429 -0.45814 679.08 0.0014726 -93.436 -93.436 -0.45820 1.3350 1.9858 1776.5 -0.0073059 869.75 0.18476 0.0024613 406.30 392.02 418.14 3.2348 0.88299 1.0716 178.02 1.7093 3.7834 0.0046066
-133.62 0.010727 1.6680e-05 -91.441 -91.441 -0.44385 678.07 0.0014748 -91.450 -91.449 -0.44391 1.3351 1.9875 1769.8 -0.0072935 848.11 0.18421 0.0028116 355.67 392.91 419.21 3.2161 0.88622 1.0749 178.61 1.6786 3.8109 0.0046691
-132.62 0.012315 1.9006e-05 -89.452 -89.451 -0.42964 677.06 0.0014770 -89.461 -89.461 -0.42971 1.3353 1.9892 1763.1 -0.0072810 827.32 0.18365 0.0032049 312.03 393.79 420.29 3.1977 0.88944 1.0781 179.19 1.6488 3.8385 0.0047320
-131.62 0.014106 2.1610e-05 -87.461 -87.460 -0.41552 676.04 0.0014792 -87.471 -87.471 -0.41560 1.3354 1.9909 1756.4 -0.0072684 807.34 0.18309 0.0036453 274.33 394.68 421.36 3.1798 0.89266 1.0813 179.76 1.6197 3.8660 0.0047951
-130.62 0.016124 2.4519e-05 -85.468 -85.467 -0.40149 675.03 0.0014814 -85.479 -85.479 -0.40157 1.3356 1.9926 1749.7 -0.0072555 788.12 0.18253 0.0041375 241.69 395.58 422.44 3.1622 0.89586 1.0846 180.34 1.5915 3.8935 0.0048586
-129.62 0.018392 2.7763e-05 -83.473 -83.472 -0.38754 674.02 0.0014836 -83.486 -83.486 -0.38763 1.3358 1.9944 1743.0 -0.0072425 769.63 0.18196 0.0046867 213.37 396.47 423.53 3.1450 0.89906 1.0878 180.91 1.5641 3.9210 0.0049223
-128.62 0.020935 3.1373e-05 -81.476 -81.475 -0.37367 673.01 0.0014859 -81.491 -81.490 -0.37378 1.3360 1.9961 1736.3 -0.0072294 751.83 0.18140 0.0052981 188.75 397.37 424.62 3.1281 0.90226 1.0910 181.48 1.5374 3.9485 0.0049863
-127.62 0.023783 3.5384e-05 -79.477 -79.476 -0.35989 672.00 0.0014881 -79.494 -79.493 -0.36001 1.3363 1.9979 1729.6 -0.0072160 734.67 0.18083 0.0059776 167.29 398.27 425.71 3.1116 0.90545 1.0942 182.05 1.5114 3.9760 0.0050506
-126.62 0.026966 3.9830e-05 -77.476 -77.474 -0.34619 670.98 0.0014904 -77.495 -77.495 -0.34632 1.3365 1.9997 1722.9 -0.0072025 718.14 0.18025 0.0067313 148.56 399.18 426.80 3.0954 0.90863 1.0974 182.62 1.4861 4.0035 0.0051152
-125.62 0.030515 4.4752e-05 -75.473 -75.471 -0.33256 669.97 0.0014926 -75.494 -75.494 -0.33272 1.3368 2.0015 1716.2 -0.0071888 702.18 0.17968 0.0075660 132.17 400.09 427.89 3.0795 0.91181 1.1006 183.18 1.4615 4.0310 0.0051800
-124.62 0.034467 5.0189e-05 -73.468 -73.466 -0.31902 668.95 0.0014949 -73.492 -73.492 -0.31919 1.3371 2.0033 1709.5 -0.0071749 686.79 0.17910 0.0084885 117.81 401.00 428.99 3.0640 0.91499 1.1038 183.74 1.4375 4.0584 0.0052452
-123.62 0.038859 5.6187e-05 -71.461 -71.459 -0.30555 667.94 0.0014971 -71.488 -71.487 -0.30574 1.3374 2.0051 1702.8 -0.0071609 671.93 0.17852 0.0095065 105.19 401.91 430.10 3.0488 0.91816 1.1070 184.30 1.4141 4.0859 0.0053106
-122.62 0.043731 6.2790e-05 -69.452 -69.450 -0.29216 666.92 0.0014994 -69.482 -69.481 -0.29237 1.3377 2.0070 1696.2 -0.0071466 657.57 0.17794 0.010628 94.092 402.83 431.20 3.0339 0.92134 1.1102 184.86 1.3913 4.1134 0.0053764
-121.62 0.049128 7.0050e-05 -67.441 -67.438 -0.27884 665.91 0.0015017 -67.474 -67.473 -0.27907 1.3380 2.0089 1689.5 -0.0071322 643.70 0.17736 0.011861 84.309 403.75 432.31 3.0193 0.92451 1.1134 185.41 1.3691 4.1409 0.0054424
-120.62 0.055096 7.8017e-05 -65.427 -65.424 -0.26560 664.89 0.0015040 -65.464 -65.463 -0.26585 1.3384 2.0107 1682.8 -0.0071176 630.28 0.17678 0.013215 75.669 404.67 433.42 3.0050 0.92767 1.1166 185.96 1.3475 4.1683 0.0055087
-119.62 0.061684 8.6748e-05 -63.412 -63.408 -0.25243 663.87 0.0015063 -63.452 -63.452 -0.25271 1.3387 2.0126 1676.1 -0.0071028 617.30 0.17619 0.014700 68.027 405.60 434.53 2.9909 0.93084 1.1198 186.51 1.3264 4.1958 0.0055752
-118.62 0.068946 9.6300e-05 -61.394 -61.390 -0.23932 662.86 0.0015086 -61.439 -61.438 -0.23963 1.3391 2.0146 1669.4 -0.0070878 604.74 0.17560 0.016325 61.255 406.53 435.64 2.9772 0.93401 1.1231 187.06 1.3058 4.2233 0.0056421
-117.62 0.076937 0.00010674 -59.373 -59.369 -0.22629 661.84 0.0015109 -59.423 -59.422 -0.22663 1.3395 2.0165 1662.8 -0.0070726 592.58 0.17501 0.018101 55.245 407.46 436.76 2.9638 0.93718 1.1263 187.60 1.2857 4.2507 0.0057092
-116.62 0.085718 0.00011812 -57.351 -57.346 -0.21333 660.82 0.0015133 -57.406 -57.405 -0.21370 1.3400 2.0184 1656.1 -0.0070573 580.80 0.17442 0.020040 49.901 408.39 437.88 2.9506 0.94035 1.1295 188.14 1.2660 4.2782 0.0057767
-115.62 0.095353 0.00013052 -55.326 -55.321 -0.20043 659.80 0.0015156 -55.386 -55.385 -0.20084 1.3404 2.0204 1649.4 -0.0070417 569.38 0.17383 0.022152 45.142 409.33 439.01 2.9377 0.94352 1.1327 188.68 1.2468 4.3056 0.0058444
-114.62 0.10591 0.00014401 -53.298 -53.293 -0.18760 658.78 0.0015180 -53.365 -53.364 -0.18805 1.3409 2.0224 1642.7 -0.0070260 558.32 0.17323 0.024451 40.898 410.27 440.13 2.9250 0.94669 1.1360 189.22 1.2281 4.3330 0.0059123
-113.62 0.11746 0.00015866 -51.268 -51.262 -0.17484 657.76 0.0015203 -51.342 -51.340 -0.17533 1.3413 2.0244 1636.0 -0.0070100 547.59 0.17264 0.026949 37.107 411.21 441.26 2.9126 0.94987 1.1392 189.75 1.2097 4.3604 0.0059806
-112.62 0.13008 0.00017455 -49.236 -49.229 -0.16213 656.73 0.0015227 -49.316 -49.315 -0.16267 1.3418 2.0264 1629.3 -0.0069938 537.18 0.17204 0.029661 33.715 412.16 442.39 2.9005 0.95305 1.1424 190.28 1.1918 4.3879 0.0060491
-111.62 0.14384 0.00019177 -47.200 -47.193 -0.14950 655.71 0.0015251 -47.289 -47.287 -0.15008 1.3424 2.0285 1622.7 -0.0069774 527.08 0.17144 0.032600 30.675 413.10 443.53 2.8885 0.95623 1.1457 190.81 1.1742 4.4153 0.0061180
-110.62 0.15884 0.00021040 -45.163 -45.155 -0.13692 654.69 0.0015274 -45.259 -45.258 -0.13755 1.3429 2.0305 1616.0 -0.0069609 517.28 0.17084 0.035781 27.948 414.06 444.66 2.8769 0.95942 1.1490 191.34 1.1570 4.4427 0.0061871
-109.62 0.17516 0.00023053 -43.122 -43.113 -0.12440 653.66 0.0015298 -43.228 -43.226 -0.12509 1.3435 2.0326 1609.3 -0.0069441 507.76 0.17024 0.039220 25.497 415.01 445.80 2.8654 0.96261 1.1522 191.86 1.1402 4.4701 0.0062564
-108.62 0.19290 0.00025225 -41.079 -41.069 -0.11194 652.64 0.0015322 -41.194 -41.192 -0.11269 1.3441 2.0347 1602.6 -0.0069271 498.51 0.16964 0.042933 23.292 415.96 446.94 2.8542 0.96581 1.1555 192.38 1.1236 4.4974 0.0063261
-107.62 0.21215 0.00027567 -39.033 -39.022 -0.099546 651.61 0.0015347 -39.158 -39.156 -0.10036 1.3447 2.0369 1595.9 -0.0069098 489.52 0.16903 0.046937 21.305 416.92 448.09 2.8433 0.96901 1.1588 192.90 1.1075 4.5248 0.0063960
-106.62 0.23301 0.00030088 -36.984 -36.972 -0.087204 650.58 0.0015371 -37.120 -37.118 -0.088082 1.3453 2.0390 1589.2 -0.0068924 480.79 0.16843 0.051250 19.512 417.88 449.23 2.8325 0.97222 1.1621 193.41 1.0916 4.5522 0.0064662
-105.62 0.25561 0.00032799 -34.932 -34.919 -0.074918 649.55 0.0015395 -35.080 -35.078 -0.075868 1.3460 2.0412 1582.6 -0.0068747 472.30 0.16782 0.055891 17.892 418.85 450.38 2.8220 0.97544 1.1655 193.93 1.0760 4.5795 0.0065367
-104.62 0.28004 0.00035711 -32.877 -32.862 -0.062687 648.52 0.0015420 -33.038 -33.035 -0.063714 1.3467 2.0434 1575.9 -0.0068569 464.04 0.16721 0.060878 16.426 419.81 451.53 2.8116 0.97867 1.1688 194.44 1.0608 4.6069 0.0066074
-103.62 0.30643 0.00038835 -30.818 -30.803 -0.050511 647.49 0.0015444 -30.994 -30.991 -0.051619 1.3474 2.0456 1569.2 -0.0068387 456.00 0.16660 0.066231 15.099 420.78 452.68 2.8015 0.98191 1.1722 194.94 1.0458 4.6342 0.0066785
-102.62 0.33490 0.00042184 -28.757 -28.740 -0.038387 646.46 0.0015469 -28.947 -28.944 -0.039582 1.3481 2.0478 1562.5 -0.0068204 448.18 0.16600 0.071971 13.894 421.75 453.84 2.7916 0.98516 1.1755 195.44 1.0310 4.6615 0.0067498
-101.62 0.36558 0.00045768 -26.693 -26.674 -0.026316 645.43 0.0015494 -26.898 -26.894 -0.027602 1.3489 2.0501 1555.8 -0.0068018 440.57 0.16539 0.078120 12.801 422.73 454.99 2.7818 0.98841 1.1789 195.95 1.0166 4.6888 0.0068213
-100.62 0.39862 0.00049602 -24.625 -24.604 -0.014295 644.39 0.0015519 -24.847 -24.843 -0.015678 1.3497 2.0524 1549.1 -0.0067830 433.16 0.16478 0.084699 11.807 423.70 456.15 2.7723 0.99168 1.1823 196.44 1.0024 4.7161 0.0068932
-99.625 0.43414 0.00053698 -22.554 -22.531 -0.0023245 643.36 0.0015544 -22.794 -22.789 -0.0038103 1.3505 2.0547 1542.4 -0.0067639 425.95 0.16416 0.091731 10.901 424.68 457.31 2.7630 0.99496 1.1858 196.94 0.98838 4.7434 0.0069653
-98.625 0.47230 0.00058070 -20.479 -20.455 0.0095972 642.32 0.0015569 -20.738 -20.733 0.0080027 1.3514 2.0570 1535.7 -0.0067447 418.92 0.16355 0.099240 10.077 425.66 458.48 2.7538 0.99825 1.1892 197.43 0.97464 4.7707 0.0070377
-97.625 0.51325 0.00062731 -18.401 -18.374 0.021471 641.28 0.0015594 -18.680 -18.674 0.019762 1.3522 2.0594 1529.0 -0.0067251 412.07 0.16294 0.10725 9.3239 426.65 459.64 2.7448 1.0016 1.1927 197.92 0.96112 4.7979 0.0071103
-96.625 0.55714 0.00067696 -16.319 -16.290 0.033298 640.24 0.0015619 -16.620 -16.614 0.031467 1.3531 2.0618 1522.3 -0.0067053 405.39 0.16233 0.11579 8.6365 427.63 460.81 2.7360 1.0049 1.1962 198.40 0.94783 4.8251 0.0071832
-95.625 0.60416 0.00072980 -14.233 -14.202 0.045079 639.20 0.0015645 -14.557 -14.550 0.043120 1.3540 2.0642 1515.7 -0.0066853 398.88 0.16171 0.12488 8.0078 428.62 461.98 2.7274 1.0082 1.1997 198.88 0.93475 4.8524 0.0072564
-94.625 0.65446 0.00078597 -12.144 -12.111 0.056815 638.16 0.0015670 -12.491 -12.484 0.054721 1.3550 2.0667 1509.0 -0.0066650 392.53 0.16110 0.13455 7.4323 429.61 463.15 2.7189 1.0116 1.2032 199.36 0.92188 4.8796 0.0073299
-93.625 0.70822 0.00084565 -10.051 -10.015 0.068507 637.12 0.0015696 -10.424 -10.416 0.066271 1.3560 2.0691 1502.3 -0.0066444 386.34 0.16048 0.14482 6.9050 430.60 464.32 2.7107 1.0149 1.2068 199.83 0.90921 4.9068 0.0074036
-92.625 0.76564 0.00090897 -7.9536 -7.9145 0.080156 636.07 0.0015722 -8.3535 -8.3452 0.077771 1.3570 2.0716 1495.6 -0.0066236 380.31 0.15987 0.15573 6.4212 431.60 465.49 2.7025 1.0183 1.2104 200.30 0.89673 4.9340 0.0074776
-91.625 0.82689 0.00097612 -5.8524 -5.8102 0.091763 635.02 0.0015747 -6.2808 -6.2719 0.089220 1.3580 2.0742 1488.9 -0.0066025 374.41 0.15925 0.16731 5.9769 432.59 466.67 2.6946 1.0217 1.2140 200.77 0.88445 4.9611 0.0075518
-90.625 0.89218 0.0010473 -3.7471 -3.7016 0.10333 633.98 0.0015773 -4.2056 -4.1959 0.10062 1.3591 2.0767 1482.2 -0.0065811 368.66 0.15864 0.17958 5.5685 433.59 467.84 2.6868 1.0251 1.2177 201.24 0.87236 4.9883 0.0076263
-89.625 0.96172 0.0011226 -1.6376 -1.5885 0.11486 632.93 0.0015800 -2.1279 -2.1174 0.11197 1.3602 2.0793 1475.5 -0.0065595 363.05 0.15802 0.19258 5.1928 434.59 469.02 2.6791 1.0285 1.2213 201.70 0.86045 5.0154 0.0077011
-88.625 1.0357 0.0012022 0.47622 0.52912 0.12634 631.88 0.0015826 -0.047516 -0.036215 0.12328 1.3613 2.0819 1468.8 -0.0065375 357.56 0.15740 0.20633 4.8466 435.59 470.20 2.6717 1.0320 1.2250 202.15 0.84873 5.0425 0.0077761
-87.625 1.1144 0.0012864 2.5945 2.6514 0.13779 630.83 0.0015852 2.0355 2.0476 0.13454 1.3625 2.0846 1462.1 -0.0065153 352.21 0.15679 0.22087 4.5276 436.60 471.39 2.6643 1.0354 1.2288 202.61 0.83718 5.0696 0.0078514
-86.625 1.1979 0.0013753 4.7172 4.7784 0.14920 629.77 0.0015879 4.1211 4.1342 0.14575 1.3637 2.0873 1455.4 -0.0064928 346.98 0.15617 0.23623 4.2331 437.61 472.57 2.6571 1.0389 1.2325 203.06 0.82580 5.0967 0.0079270
-85.625 1.2866 0.0014691 6.8446 6.9103 0.16058 628.72 0.0015905 6.2094 6.2235 0.15691 1.3649 2.0900 1448.8 -0.0064701 341.87 0.15555 0.25245 3.9612 438.61 473.75 2.6501 1.0424 1.2363 203.50 0.81460 5.1237 0.0080028
-84.625 1.3806 0.0015680 8.9767 9.0472 0.17192 627.66 0.0015932 8.3004 8.3155 0.16803 1.3661 2.0927 1442.1 -0.0064470 336.87 0.15494 0.26956 3.7097 439.63 474.94 2.6432 1.0460 1.2402 203.95 0.80356 5.1508 0.0080789
-83.625 1.4803 0.0016721 11.114 11.189 0.18322 626.60 0.0015959 10.394 10.410 0.17911 1.3674 2.0955 1435.4 -0.0064236 331.99 0.15432 0.28760 3.4771 440.64 476.13 2.6364 1.0495 1.2440 204.38 0.79269 5.1778 0.0081553
-82.625 1.5858 0.0017818 13.255 13.336 0.19449 625.54 0.0015986 12.491 12.508 0.19014 1.3687 2.0983 1428.7 -0.0063999 327.22 0.15370 0.30659 3.2616 441.65 477.31 2.6298 1.0531 1.2479 204.82 0.78199 5.2048 0.0082319
-81.625 1.6975 0.0018972 15.402 15.489 0.20573 624.48 0.0016013 14.590 14.609 0.20113 1.3700 2.1012 1422.0 -0.0063759 322.55 0.15309 0.32659 3.0619 442.67 478.50 2.6233 1.0567 1.2519 205.25 0.77144 5.2318 0.0083088
-80.625 1.8155 0.0020185 17.554 17.647 0.21694 623.42 0.0016041 16.692 16.712 0.21208 1.3714 2.1041 1415.4 -0.0063516 317.99 0.15247 0.34763 2.8766 443.69 479.70 2.6169 1.0603 1.2558 205.67 0.76106 5.2587 0.0083860
-79.625 1.9402 0.0021460 19.711 19.810 0.22811 622.36 0.0016068 18.797 18.819 0.22299 1.3728 2.1070 1408.7 -0.0063270 313.52 0.15186 0.36974 2.7046 444.71 480.89 2.6106 1.0639 1.2598 206.10 0.75083 5.2857 0.0084634
-78.625 2.0718 0.0022798 21.874 21.979 0.23926 621.29 0.0016096 20.905 20.928 0.23385 1.3742 2.1099 1402.0 -0.0063021 309.15 0.15124 0.39296 2.5448 445.73 482.08 2.6045 1.0676 1.2639 206.51 0.74076 5.3126 0.0085411
-77.625 2.2107 0.0024202 24.041 24.154 0.25037 620.22 0.0016123 23.016 23.040 0.24468 1.3757 2.1129 1395.3 -0.0062768 304.88 0.15062 0.41735 2.3961 446.75 483.27 2.5985 1.0712 1.2680 206.93 0.73084 5.3395 0.0086190
-76.625 2.3571 0.0025674 26.215 26.335 0.26146 619.15 0.0016151 25.130 25.156 0.25546 1.3772 2.1159 1388.7 -0.0062512 300.69 0.15001 0.44292 2.2577 447.78 484.47 2.5926 1.0749 1.2721 207.34 0.72107 5.3664 0.0086972
-75.625 2.5113 0.0027216 28.394 28.522 0.27252 618.08 0.0016179 27.247 27.275 0.26620 1.3787 2.1190 1382.0 -0.0062253 296.59 0.14939 0.46974 2.1288 448.81 485.67 2.5869 1.0787 1.2762 207.74 0.71146 5.3933 0.0087757
-74.625 2.6736 0.0028831 30.579 30.715 0.28355 617.01 0.0016207 29.366 29.396 0.27691 1.3802 2.1221 1375.4 -0.0061990 292.58 0.14878 0.49783 2.0087 449.83 486.86 2.5812 1.0824 1.2804 208.14 0.70200 5.4201 0.0088544
-73.625 2.8444 0.0030522 32.769 32.915 0.29456 615.93 0.0016236 31.489 31.521 0.28758 1.3818 2.1252 1368.7 -0.0061724 288.65 0.14816 0.52725 1.8966 450.86 488.06 2.5757 1.0862 1.2847 208.54 0.69268 5.4469 0.0089334
-72.625 3.0240 0.0032290 34.966 35.120 0.30554 614.85 0.0016264 33.615 33.649 0.29821 1.3834 2.1284 1362.0 -0.0061454 284.81 0.14755 0.55804 1.7920 451.90 489.26 2.5703 1.0900 1.2889 208.93 0.68351 5.4737 0.0090126
-71.625 3.2127 0.0034138 37.169 37.333 0.31650 613.78 0.0016293 35.745 35.781 0.30880 1.3851 2.1316 1355.4 -0.0061181 281.03 0.14694 0.59024 1.6942 452.93 490.46 2.5650 1.0938 1.2932 209.32 0.67448 5.5005 0.0090922
-70.625 3.4108 0.0036069 39.378 39.552 0.32743 612.69 0.0016321 37.877 37.915 0.31935 1.3867 2.1349 1348.7 -0.0060904 277.34 0.14632 0.62390 1.6028 453.96 491.66 2.5598 1.0976 1.2976 209.70 0.66560 5.5273 0.0091720
-69.625 3.6187 0.0038085 41.593 41.778 0.33835 611.61 0.0016350 40.013 40.053 0.32987 1.3884 2.1382 1342.1 -0.0060624 273.72 0.14571 0.65906 1.5173 455.00 492.86 2.5547 1.1015 1.3020 210.08 0.65687 5.5540 0.0092520
-68.625 3.8367 0.0040188 43.815 44.011 0.34923 610.53 0.0016379 42.152 42.195 0.34036 1.3902 2.1415 1335.5 -0.0060339 270.17 0.14510 0.69577 1.4372 456.04 494.06 2.5497 1.1054 1.3064 210.45 0.64827 5.5807 0.0093324
-67.625 4.0652 0.0042382 46.043 46.251 0.36010 609.44 0.0016409 44.294 44.340 0.35080 1.3919 2.1449 1328.8 -0.0060051 266.69 0.14449 0.73408 1.3622 457.08 495.26 2.5448 1.1093 1.3109 210.82 0.63981 5.6074 0.0094130
-66.625 4.3046 0.0044670 48.278 48.498 0.37095 608.35 0.0016438 46.439 46.488 0.36122 1.3937 2.1483 1322.2 -0.0059760 263.28 0.14388 0.77404 1.2919 458.12 496.46 2.5400 1.1133 1.3154 211.18 0.63150 5.6341 0.0094939
-65.625 4.5551 0.0047053 50.520 50.753 0.38178 607.26 0.0016467 48.588 48.640 0.37160 1.3955 2.1518 1315.6 -0.0059464 259.93 0.14327 0.81570 1.2259 459.16 497.67 2.5353 1.1172 1.3200 211.54 0.62332 5.6608 0.0095750
-64.625 4.8173 0.0049534 52.769 53.015 0.39259 606.16 0.0016497 50.740 50.795 0.38195 1.3974 2.1553 1308.9 -0.0059164 256.65 0.14266 0.85910 1.1640 460.21 498.87 2.5307 1.1212 1.3246 211.89 0.61527 5.6874 0.0096564
-63.625 5.0915 0.0052117 55.024 55.284 0.40338 605.07 0.0016527 52.896 52.954 0.39226 1.3993 2.1588 1302.3 -0.0058861 253.42 0.14205 0.90429 1.1058 461.25 500.07 2.5262 1.1252 1.3293 212.24 0.60736 5.7140 0.0097382
-62.625 5.3781 0.0054804 57.287 57.562 0.41416 603.97 0.0016557 55.055 55.117 0.40254 1.4012 2.1624 1295.7 -0.0058553 250.26 0.14144 0.95134 1.0511 462.30 501.28 2.5218 1.1293 1.3340 212.58 0.59958 5.7406 0.0098201
-61.625 5.6774 0.0057599 59.557 59.847 0.42491 602.87 0.0016587 57.218 57.283 0.41279 1.4031 2.1660 1289.1 -0.0058241 247.16 0.14084 1.0003 0.99972 463.35 502.48 2.5175 1.1333 1.3387 212.92 0.59194 5.7672 0.0099024
-60.625 5.9899 0.0060503 61.835 62.141 0.43566 601.77 0.0016618 59.385 59.453 0.42301 1.4051 2.1697 1282.5 -0.0057925 244.12 0.14023 1.0512 0.95131 464.40 503.68 2.5133 1.1374 1.3435 213.26 0.58442 5.7938 0.0099850
-59.625 6.3160 0.0063520 64.120 64.443 0.44638 600.66 0.0016648 61.554 61.627 0.43320 1.4071 2.1734 1275.9 -0.0057605 241.13 0.13962 1.1041 0.90573 465.45 504.89 2.5091 1.1415 1.3483 213.58 0.57704 5.8203 0.010068
-58.625 6.6561 0.0066653 66.413 66.753 0.45709 599.55 0.0016679 63.728 63.805 0.44335 1.4091 2.1772 1269.3 -0.0057280 238.19 0.13902 1.1591 0.86277 466.50 506.09 2.5051 1.1457 1.3532 213.90 0.56978 5.8468 0.010151
-57.625 7.0107 0.0069905 68.713 69.071 0.46779 598.44 0.0016710 65.905 65.986 0.45348 1.4111 2.1810 1262.7 -0.0056951 235.31 0.13842 1.2161 0.82228 467.55 507.30 2.5011 1.1498 1.3581 214.22 0.56265 5.8733 0.010234
-56.625 7.3801 0.0073278 71.021 71.398 0.47848 597.33 0.0016741 68.086 68.172 0.46358 1.4132 2.1848 1256.1 -0.0056617 232.48 0.13781 1.2754 0.78408 468.60 508.50 2.4972 1.1540 1.3631 214.53 0.55564 5.8998 0.010318
-55.625 7.7648 0.0076777 73.338 73.734 0.48915 596.22 0.0016772 70.271 70.361 0.47364 1.4153 2.1887 1249.5 -0.0056279 229.69 0.13721 1.3369 0.74802 469.66 509.71 2.4934 1.1582 1.3681 214.84 0.54875 5.9263 0.010402
-54.625 8.1652 0.0080404 75.662 76.079 0.49981 595.10 0.0016804 72.460 72.554 0.48368 1.4174 2.1927 1242.9 -0.0055937 226.96 0.13661 1.4006 0.71396 470.72 510.91 2.4897 1.1624 1.3731 215.14 0.54199 5.9527 0.010486
-53.625 8.5819 0.0084162 77.995 78.433 0.51046 593.98 0.0016836 74.652 74.752 0.49369 1.4196 2.1967 1236.3 -0.0055589 224.27 0.13601 1.4667 0.68178 471.77 512.11 2.4860 1.1667 1.3782 215.43 0.53535 5.9792 0.010571
-52.625 9.0151 0.0088055 80.336 80.796 0.52110 592.86 0.0016867 76.849 76.954 0.50368 1.4218 2.2007 1229.8 -0.0055237 221.63 0.13541 1.5353 0.65136 472.83 513.32 2.4824 1.1710 1.3834 215.72 0.52882 6.0056 0.010656
-51.625 9.4655 0.0092085 82.685 83.168 0.53173 591.73 0.0016900 79.049 79.159 0.51363 1.4240 2.2048 1223.2 -0.0054880 219.04 0.13482 1.6062 0.62258 473.89 514.52 2.4789 1.1752 1.3886 216.00 0.52241 6.0320 0.010741
-50.625 9.9335 0.0096257 85.043 85.550 0.54235 590.60 0.0016932 81.253 81.369 0.52356 1.4262 2.2089 1216.6 -0.0054519 216.48 0.13422 1.6797 0.59534 474.95 515.73 2.4755 1.1796 1.3938 216.28 0.51612 6.0584 0.010827
-49.625 10.419 0.010057 87.410 87.942 0.55296 589.47 0.0016964 83.462 83.584 0.53347 1.4285 2.2131 1210.1 -0.0054152 213.98 0.13363 1.7558 0.56954 476.01 516.93 2.4722 1.1839 1.3991 216.55 0.50994 6.0848 0.010913
-48.625 10.924 0.010504 89.785 90.343 0.56357 588.34 0.0016997 85.674 85.802 0.54334 1.4308 2.2173 1203.5 -0.0053780 211.51 0.13303 1.8345 0.54510 477.07 518.13 2.4689 1.1883 1.4044 216.82 0.50387 6.1112 0.010999
-47.625 11.448 0.010965 92.170 92.754 0.57416 587.20 0.0017030 87.891 88.025 0.55319 1.4331 2.2216 1196.9 -0.0053403 209.08 0.13244 1.9159 0.52194 478.14 519.33 2.4657 1.1927 1.4098 217.08 0.49792 6.1375 0.011085
-46.625 11.991 0.011442 94.563 95.176 0.58475 586.06 0.0017063 90.111 90.252 0.56302 1.4354 2.2259 1190.4 -0.0053020 206.69 0.13185 2.0001 0.49997 479.20 520.53 2.4625 1.1971 1.4153 217.33 0.49207 6.1639 0.011172
-45.625 12.554 0.011935 96.966 97.607 0.59534 584.92 0.0017096 92.336 92.484 0.57282 1.4378 2.2303 1183.8 -0.0052633 204.34 0.13126 2.0872 0.47912 480.27 521.74 2.4594 1.2015 1.4207 217.58 0.48633 6.1902 0.011259
-44.625 13.137 0.012444 99.378 100.05 0.60592 583.77 0.0017130 94.565 94.720 0.58260 1.4402 2.2347 1177.3 -0.0052240 202.03 0.13067 2.1771 0.45933 481.33 522.94 2.4564 1.2060 1.4263 217.82 0.48069 6.2165 0.011347
-43.625 13.741 0.012969 101.80 102.50 0.61649 582.62 0.0017164 96.799 96.961 0.59235 1.4426 2.2392 1170.7 -0.0051841 199.75 0.13008 2.2700 0.44053 482.40 524.14 2.4535 1.2104 1.4319 218.05 0.47516 6.2429 0.011435
-42.625 14.367 0.013511 104.23 104.96 0.62706 581.47 0.0017198 99.036 99.207 0.60208 1.4450 2.2437 1164.2 -0.0051437 197.51 0.12949 2.3659 0.42267 483.46 525.33 2.4506 1.2149 1.4375 218.28 0.46973 6.2692 0.011523
-41.625 15.015 0.014071 106.67 107.44 0.63762 580.32 0.0017232 101.28 101.46 0.61179 1.4475 2.2483 1157.7 -0.0051027 195.30 0.12891 2.4649 0.40569 484.53 526.53 2.4478 1.2195 1.4432 218.50 0.46440 6.2955 0.011612
-40.625 15.686 0.014648 109.12 109.92 0.64818 579.16 0.0017266 103.52 103.71 0.62147 1.4500 2.2529 1151.1 -0.0050611 193.13 0.12832 2.5671 0.38954 485.60 527.73 2.4450 1.2240 1.4489 218.72 0.45917 6.3218 0.011701
-39.625 16.380 0.015243 111.58 112.42 0.65874 578.00 0.0017301 105.78 105.97 0.63113 1.4525 2.2576 1144.6 -0.0050189 190.99 0.12774 2.6725 0.37418 486.67 528.93 2.4423 1.2286 1.4547 218.93 0.45403 6.3481 0.011790
-38.625 17.097 0.015857 114.05 114.93 0.66930 576.83 0.0017336 108.03 108.24 0.64077 1.4550 2.2623 1138.0 -0.0049761 188.88 0.12716 2.7813 0.35955 487.74 530.12 2.4397 1.2332 1.4606 219.13 0.44900 6.3744 0.011880
-37.625 17.838 0.016489 116.53 117.44 0.67985 575.66 0.0017371 110.29 110.51 0.65039 1.4576 2.2671 1131.5 -0.0049327 186.81 0.12658 2.8934 0.34562 488.81 531.32 2.4371 1.2378 1.4665 219.33 0.44405 6.4007 0.011970
-36.625 18.604 0.017141 119.02 119.97 0.69040 574.49 0.0017407 112.56 112.78 0.65999 1.4602 2.2719 1125.0 -0.0048887 184.76 0.12600 3.0089 0.33235 489.88 532.51 2.4346 1.2424 1.4724 219.52 0.43920 6.4270 0.012060
-35.625 19.395 0.017812 121.52 122.52 0.70096 573.32 0.0017442 114.83 115.06 0.66956 1.4628 2.2768 1118.5 -0.0048440 182.75 0.12542 3.1280 0.31969 490.95 533.70 2.4321 1.2471 1.4784 219.70 0.43444 6.4533 0.012151
-34.625 20.212 0.018502 124.04 125.07 0.71151 572.14 0.0017478 117.10 117.34 0.67912 1.4654 2.2818 1111.9 -0.0047987 180.76 0.12485 3.2506 0.30763 492.02 534.89 2.4297 1.2517 1.4845 219.88 0.42977 6.4797 0.012243
-33.625 21.056 0.019214 126.56 127.63 0.72206 570.96 0.0017514 119.38 119.63 0.68865 1.4681 2.2868 1105.4 -0.0047527 178.80 0.12427 3.3770 0.29612 493.09 536.08 2.4273 1.2564 1.4906 220.05 0.42519 6.5060 0.012334
-32.625 21.926 0.019946 129.09 130.21 0.73261 569.77 0.0017551 121.66 121.93 0.69817 1.4708 2.2918 1098.9 -0.0047061 176.87 0.12370 3.5071 0.28514 494.17 537.27 2.4250 1.2611 1.4968 220.21 0.42070 6.5323 0.012426
-31.625 22.823 0.020699 131.64 132.80 0.74317 568.58 0.0017588 123.95 124.23 0.70767 1.4735 2.2970 1092.3 -0.0046587 174.97 0.12313 3.6410 0.27465 495.24 538.46 2.4227 1.2659 1.5031 220.36 0.41629 6.5587 0.012519
-30.625 23.749 0.021474 134.19 135.40 0.75372 567.39 0.0017625 126.24 126.53 0.71714 1.4762 2.3021 1085.8 -0.0046107 173.09 0.12256 3.7787 0.26464 496.31 539.64 2.4205 1.2706 1.5094 220.51 0.41196 6.5850 0.012612
-29.625 24.703 0.022271 136.76 138.02 0.76428 566.19 0.0017662 128.54 128.84 0.72660 1.4790 2.3074 1079.3 -0.0045619 171.24 0.12200 3.9205 0.25507 497.38 540.83 2.4184 1.2754 1.5157 220.65 0.40772 6.6114 0.012706
-28.625 25.687 0.023090 139.33 140.64 0.77484 564.99 0.0017699 130.84 131.16 0.73604 1.4818 2.3126 1072.8 -0.0045124 169.42 0.12143 4.0663 0.24592 498.46 542.01 2.4162 1.2802 1.5222 220.79 0.40356 6.6378 0.012800
-27.625 26.700 0.023932 141.92 143.28 0.78540 563.78 0.0017737 133.15 133.48 0.74547 1.4846 2.3180 1066.2 -0.0044621 167.62 0.12087 4.2163 0.23717 499.53 543.19 2.4142 1.2850 1.5286 220.91 0.39947 6.6642 0.012894
-26.625 27.743 0.024798 144.52 145.94 0.79597 562.57 0.0017775 135.47 135.81 0.75487 1.4874 2.3234 1059.7 -0.0044111 165.84 0.12031 4.3705 0.22881 500.60 544.37 2.4122 1.2899 1.5352 221.03 0.39547 6.6906 0.012989
-25.625 28.817 0.025687 147.13 148.60 0.80654 561.36 0.0017814 137.78 138.14 0.76426 1.4902 2.3289 1053.2 -0.0043593 164.09 0.11975 4.5290 0.22080 501.68 545.55 2.4102 1.2947 1.5418 221.14 0.39154 6.7171 0.013084
-24.625 29.923 0.026601 149.75 151.28 0.81711 560.14 0.0017853 140.11 140.48 0.77363 1.4931 2.3344 1046.7 -0.0043067 162.36 0.11919 4.6918 0.21314 502.75 546.72 2.4083 1.2996 1.5485 221.25 0.38768 6.7436 0.013180
-23.625 31.061 0.027539 152.39 153.97 0.82769 558.92 0.0017892 142.44 142.82 0.78298 1.4960 2.3400 1040.1 -0.0042533 160.65 0.11863 4.8592 0.20580 503.82 547.90 2.4064 1.3045 1.5552 221.35 0.38391 6.7701 0.013277
-22.625 32.232 0.028503 155.03 156.68 0.83827 557.69 0.0017931 144.77 145.17 0.79232 1.4990 2.3457 1033.6 -0.0041990 158.97 0.11807 5.0311 0.19877 504.90 549.07 2.4045 1.3095 1.5621 221.44 0.38020 6.7967 0.013374
-21.625 33.435 0.029492 157.69 159.40 0.84886 556.46 0.0017971 147.11 147.52 0.80164 1.5019 2.3514 1027.1 -0.0041439 157.30 0.11752 5.2076 0.19203 505.97 550.24 2.4027 1.3144 1.5690 221.52 0.37656 6.8232 0.013471
-20.625 34.673 0.030508 160.36 162.13 0.85946 555.23 0.0018011 149.45 149.88 0.81095 1.5049 2.3572 1020.6 -0.0040879 155.66 0.11697 5.3889 0.18557 507.04 551.40 2.4010 1.3194 1.5759 221.59 0.37300 6.8499 0.013569
-19.625 35.946 0.031550 163.05 164.88 0.87006 553.99 0.0018051 151.80 152.25 0.82024 1.5079 2.3630 1014.0 -0.0040311 154.04 0.11642 5.5750 0.17937 508.11 552.57 2.3992 1.3244 1.5829 221.66 0.36950 6.8765 0.013668
-18.625 37.253 0.032620 165.74 167.64 0.88067 552.74 0.0018092 154.16 154.62 0.82952 1.5109 2.3689 1007.5 -0.0039733 152.44 0.11587 5.7660 0.17343 509.19 553.73 2.3976 1.3294 1.5901 221.72 0.36608 6.9032 0.013767
-17.625 38.596 0.033717 168.45 170.42 0.89128 551.49 0.0018133 156.52 157.00 0.83878 1.5140 2.3749 1001.0 -0.0039145 150.86 0.11532 5.9621 0.16773 510.26 554.89 2.3959 1.3345 1.5972 221.77 0.36272 6.9300 0.013867
-16.625 39.976 0.034843 171.17 173.21 0.90191 550.24 0.0018174 158.89 159.39 0.84803 1.5171 2.3810 994.44 -0.0038549 149.29 0.11478 6.1632 0.16225 511.33 556.05 2.3943 1.3395 1.6045 221.81 0.35942 6.9568 0.013968
-15.625 41.392 0.035997 173.90 176.01 0.91254 548.98 0.0018216 161.26 161.78 0.85726 1.5202 2.3871 987.91 -0.0037942 147.75 0.11423 6.3696 0.15700 512.40 557.20 2.3927 1.3446 1.6119 221.85 0.35619 6.9836 0.014069
-14.625 42.846 0.037181 176.64 178.83 0.92318 547.71 0.0018258 163.64 164.18 0.86649 1.5233 2.3933 981.37 -0.0037325 146.22 0.11369 6.5812 0.15195 513.47 558.36 2.3912 1.3497 1.6193 221.87 0.35302 7.0105 0.014170
-13.625 44.338 0.038394 179.40 181.67 0.93382 546.44 0.0018300 166.02 166.58 0.87569 1.5264 2.3996 974.83 -0.0036698 144.72 0.11315 6.7983 0.14710 514.54 559.51 2.3897 1.3549 1.6268 221.89 0.34992 7.0375 0.014273
-12.625 45.870 0.039638 182.17 184.52 0.94448 545.17 0.0018343 168.41 168.99 0.88489 1.5296 2.4059 968.29 -0.0036061 143.23 0.11261 7.0208 0.14243 515.61 560.65 2.3883 1.3600 1.6344 221.90 0.34688 7.0646 0.014376
-11.625 47.440 0.040914 184.96 187.38 0.95514 543.89 0.0018386 170.81 171.41 0.89407 1.5328 2.4124 961.75 -0.0035413 141.76 0.11208 7.2490 0.13795 516.68 561.80 2.3868 1.3652 1.6421 221.91 0.34389 7.0917 0.014479
-10.625 49.051 0.042221 187.75 190.26 0.96582 542.60 0.0018430 173.21 173.83 0.90324 1.5360 2.4189 955.20 -0.0034753 140.30 0.11154 7.4829 0.13364 517.75 562.94 2.3854 1.3704 1.6498 221.90 0.34097 7.1188 0.014584
-9.6250 50.703 0.043560 190.56 193.15 0.97650 541.31 0.0018474 175.61 176.26 0.91240 1.5393 2.4255 948.65 -0.0034082 138.86 0.11101 7.7226 0.12949 518.81 564.08 2.3841 1.3757 1.6577 221.88 0.33810 7.1461 0.014689
-8.6250 52.396 0.044932 193.39 196.06 0.98720 540.02 0.0018518 178.03 178.70 0.92154 1.5426 2.4321 942.10 -0.0033400 137.44 0.11048 7.9683 0.12550 519.88 565.21 2.3827 1.3809 1.6657 221.86 0.33529 7.1734 0.014795
-7.6250 54.131 0.046337 196.22 198.99 0.99790 538.72 0.0018563 180.45 181.14 0.93068 1.5459 2.4389 935.55 -0.0032705 136.03 0.10995 8.2200 0.12165 520.94 566.35 2.3814 1.3862 1.6737 221.83 0.33254 7.2008 0.014902
-6.6250 55.909 0.047777 199.08 201.93 1.0086 537.41 0.0018608 182.87 183.59 0.93980 1.5492 2.4457 928.99 -0.0031998 134.64 0.10942 8.4779 0.11795 522.01 567.48 2.3801 1.3915 1.6819 221.79 0.32984 7.2284 0.015009
-5.6250 57.730 0.049252 201.94 204.89 1.0193 536.10 0.0018653 185.30 186.05 0.94892 1.5525 2.4526 922.43 -0.0031279 133.27 0.10889 8.7420 0.11439 523.07 568.60 2.3789 1.3969 1.6902 221.74 0.32720 7.2560 0.015117
-4.6250 59.595 0.050762 204.82 207.86 1.0301 534.78 0.0018699 187.74 188.51 0.95802 1.5559 2.4596 915.87 -0.0030546 131.91 0.10837 9.0126 0.11096 524.13 569.72 2.3777 1.4022 1.6985 221.68 0.32461 7.2837 0.015226
-3.6250 61.505 0.052309 207.71 210.85 1.0408 533.45 0.0018746 190.19 190.98 0.96711 1.5593 2.4667 909.30 -0.0029800 130.56 0.10785 9.2896 0.10765 525.19 570.84 2.3765 1.4076 1.7070 221.62 0.32207 7.3115 0.015336
-2.6250 63.461 0.053892 210.62 213.86 1.0516 532.12 0.0018793 192.64 193.46 0.97620 1.5627 2.4739 902.73 -0.0029041 129.23 0.10733 9.5733 0.10446 526.25 571.96 2.3753 1.4131 1.7156 221.54 0.31958 7.3394 0.015447
-1.6250 65.462 0.055513 213.54 216.88 1.0624 530.78 0.0018840 195.10 195.95 0.98527 1.5662 2.4811 896.16 -0.0028267 127.91 0.10681 9.8638 0.10138 527.31 573.07 2.3742 1.4185 1.7243 221.45 0.31715 7.3674 0.015559
-0.62500 67.510 0.057173 216.47 219.92 1.0732 529.44 0.0018888 197.56 198.44 0.99434 1.5696 2.4885 889.58 -0.0027478 126.61 0.10629 10.161 0.098414 528.37 574.18 2.3731 1.4240 1.7331 221.36 0.31476 7.3956 0.015671
0.37500 69.606 0.058871 219.42 222.98 1.0840 528.09 0.0018936 200.03 200.94 1.0034 1.5731 2.4960 883.00 -0.0026675 125.32 0.10578 10.466 0.095552 529.42 575.28 2.3720 1.4295 1.7421 221.26 0.31242 7.4239 0.015785
1.3750 71.749 0.060610 222.38 226.05 1.0948 526.73 0.0018985 202.51 203.45 1.0124 1.5767 2.5035 876.42 -0.0025856 124.04 0.10527 10.777 0.092790 530.48 576.38 2.3709 1.4350 1.7512 221.14 0.31013 7.4523 0.015899
2.3750 73.941 0.062389 225.36 229.14 1.1056 525.37 0.0019034 204.99 205.96 1.0215 1.5802 2.5112 869.83 -0.0025022 122.78 0.10476 11.096 0.090123 531.53 577.47 2.3699 1.4406 1.7604 221.02 0.30789 7.4808 0.016015
3.3750 76.183 0.064210 228.36 232.25 1.1165 523.99 0.0019084 207.48 208.48 1.0305 1.5838 2.5190 863.24 -0.0024171 121.53 0.10425 11.422 0.087549 532.58 578.56 2.3688 1.4462 1.7697 220.89 0.30569 7.5095 0.016131
4.3750 78.475 0.066074 231.36 235.37 1.1273 522.62 0.0019134 209.98 211.01 1.0395 1.5874 2.5268 856.64 -0.0023303 120.29 0.10374 11.756 0.085062 533.63 579.65 2.3678 1.4518 1.7792 220.75 0.30354 7.5384 0.016249
5.3750 80.817 0.067980 234.39 238.51 1.1382 521.23 0.0019185 212.48 213.55 1.0486 1.5910 2.5348 850.04 -0.0022417 119.06 0.10324 12.098 0.082660 534.67 580.73 2.3669 1.4575 1.7888 220.60 0.30144 7.5674 0.016368
6.3750 83.211 0.069931 237.42 241.67 1.1491 519.84 0.0019237 215.00 216.10 1.0576 1.5946 2.5429 843.43 -0.0021514 117.85 0.10273 12.447 0.080340 535.72 581.81 2.3659 1.4632 1.7986 220.44 0.29938 7.5966 0.016487
7.3750 85.657 0.071928 240.48 244.85 1.1600 518.44 0.0019289 217.51 218.65 1.0666 1.5983 2.5511 836.82 -0.0020593 116.65 0.10223 12.805 0.078096 536.76 582.88 2.3650 1.4689 1.8085 220.27 0.29736 7.6259 0.016608
8.3750 88.156 0.073970 243.54 248.05 1.1709 517.03 0.0019341 220.04 221.22 1.0756 1.6020 2.5595 830.20 -0.0019652 115.46 0.10173 13.170 0.075928 537.80 583.95 2.3640 1.4746 1.8186 220.08 0.29538 7.6555 0.016730
9.3750 90.708 0.076059 246.63 251.26 1.1818 515.62 0.0019394 222.57 223.79 1.0846 1.6057 2.5679 823.58 -0.0018691 114.28 0.10124 13.545 0.073830 538.84 585.01 2.3631 1.4804 1.8288 219.89 0.29345 7.6852 0.016853
10.375 93.315 0.078197 249.73 254.49 1.1928 514.19 0.0019448 225.11 226.37 1.0936 1.6095 2.5765 816.96 -0.0017710 113.11 0.10074 13.927 0.071802 539.87 586.07 2.3622 1.4863 1.8392 219.69 0.29156 7.7151 0.016978
11.375 95.977 0.080383 252.84 257.74 1.2037 512.76 0.0019502 227.66 228.95 1.1025 1.6132 2.5852 810.32 -0.0016708 111.95 0.10025 14.319 0.069840 540.90 587.12 2.3614 1.4921 1.8498 219.48 0.28971 7.7452 0.017103
12.375 98.694 0.082620 255.97 261.01 1.2147 511.32 0.0019557 230.22 231.55 1.1115 1.6170 2.5940 803.68 -0.0015685 110.80 0.099756 14.719 0.067941 541.93 588.17 2.3605 1.4980 1.8605 219.26 0.28790 7.7756 0.017230
13.375 101.47 0.084908 259.12 264.30 1.2257 509.87 0.0019613 232.78 234.15 1.1205 1.6208 2.6030 797.04 -0.0014639 109.67 0.099267 15.128 0.066103 542.96 589.21 2.3597 1.5040 1.8715 219.03 0.28612 7.8061 0.017359
14.375 104.30 0.087249 262.28 267.61 1.2367 508.42 0.0019669 235.35 236.77 1.1295 1.6247 2.6121 790.39 -0.0013569 108.54 0.098779 15.547 0.064323 543.99 590.24 2.3588 1.5099 1.8826 218.79 0.28439 7.8369 0.017488
15.375 107.19 0.089643 265.46 270.93 1.2478 506.95 0.0019726 237.93 239.39 1.1384 1.6286 2.6214 783.73 -0.0012476 107.43 0.098294 15.974 0.062600 545.01 591.27 2.3580 1.5159 1.8940 218.53 0.28270 7.8680 0.017619
16.375 110.13 0.092093 268.65 274.28 1.2588 505.48 0.0019783 240.52 242.02 1.1474 1.6324 2.6308 777.07 -0.0011357 106.32 0.097810 16.412 0.060931 546.03 592.29 2.3572 1.5220 1.9055 218.27 0.28104 7.8993 0.017752
17.375 113.14 0.094598 271.86 277.64 1.2699 504.00 0.0019841 243.11 244.66 1.1564 1.6364 2.6403 770.40 -0.0010213 105.22 0.097328 16.859 0.059314 547.04 593.31 2.3564 1.5281 1.9172 217.99 0.27942 7.9308 0.017886
18.375 116.21 0.097161 275.09 281.03 1.2810 502.50 0.0019900 245.72 247.31 1.1653 1.6403 2.6501 763.72 -0.00090422 104.14 0.096848 17.317 0.057747 548.05 594.32 2.3557 1.5342 1.9292 217.71 0.27783 7.9626 0.018021
19.375 119.33 0.099782 278.33 284.43 1.2921 501.00 0.0019960 248.33 249.97 1.1743 1.6443 2.6599 757.04 -0.00078435 103.06 0.096371 17.785 0.056228 549.06 595.33 2.3549 1.5404 1.9414 217.41 0.27628 7.9947 0.018159
20.375 122.52 0.10246 281.60 287.85 1.3032 499.49 0.0020020 250.95 252.64 1.1832 1.6483 2.6700 750.35 -0.00066161 101.99 0.095895 18.263 0.054756 550.07 596.32 2.3541 1.5466 1.9538 217.10 0.27477 8.0272 0.018297
21.375 125.77 0.10521 284.87 291.30 1.3144 497.97 0.0020082 253.57 255.32 1.1922 1.6523 2.6802 743.64 -0.00053589 100.93 0.095420 18.752 0.053328 551.07 597.31 2.3534 1.5528 1.9665 216.78 0.27329 8.0599 0.018438
22.375 129.08 0.10801 288.17 294.76 1.3255 496.43 0.0020144 256.21 258.00 1.2012 1.6563 2.6906 736.94 -0.00040708 99.877 0.094948 19.252 0.051943 552.07 598.30 2.3526 1.5591 1.9795 216.45 0.27184 8.0929 0.018580
23.375 132.46 0.11089 291.48 298.24 1.3367 494.89 0.0020206 258.86 260.70 1.2101 1.6604 2.7012 730.22 -0.00027505 98.834 0.094478 19.763 0.050600 553.06 599.27 2.3519 1.5655 1.9927 216.11 0.27043 8.1263 0.018724
24.375 135.90 0.11382 294.81 301.75 1.3479 493.34 0.0020270 261.51 263.41 1.2191 1.6645 2.7120 723.49 -0.00013968 97.800 0.094009 20.285 0.049297 554.05 600.24 2.3512 1.5718 2.0061 215.75 0.26906 8.1600 0.018870
25.375 139.41 0.11683 298.15 305.27 1.3591 491.77 0.0020335 264.17 266.13 1.2280 1.6686 2.7230 716.76 -8.3775e-07 96.773 0.093543 20.820 0.048032 555.03 601.20 2.3504 1.5783 2.0199 215.39 0.26771 8.1941 0.019017
26.375 142.98 0.11991 301.52 308.82 1.3704 490.20 0.0020400 266.84 268.85 1.2370 1.6728 2.7342 710.01 0.00014161 95.755 0.093078 21.366 0.046804 556.01 602.15 2.3497 1.5847 2.0340 215.01 0.26640 8.2286 0.019167
27.375 146.62 0.12305 304.90 312.39 1.3817 488.61 0.0020466 269.52 271.59 1.2459 1.6770 2.7456 703.26 0.00028782 94.745 0.092615 21.924 0.045612 556.99 603.10 2.3490 1.5913 2.0484 214.62 0.26512 8.2634 0.019319
28.375 150.33 0.12627 308.30 315.97 1.3930 487.01 0.0020533 272.21 274.34 1.2549 1.6812 2.7573 696.49 0.00043793 93.742 0.092154 22.495 0.044454 557.96 604.03 2.3483 1.5978 2.0631 214.21 0.26387 8.2987 0.019472
29.375 154.10 0.12957 311.71 319.58 1.4043 485.40 0.0020601 274.91 277.10 1.2638 1.6854 2.7691 689.72 0.00059212 92.747 0.091695 23.079 0.043329 558.92 604.96 2.3476 1.6044 2.0781 213.80 0.26265 8.3344 0.019628
30.375 157.94 0.13295 315.15 323.21 1.4156 483.78 0.0020671 277.62 279.87 1.2728 1.6897 2.7813 682.93 0.00075055 91.760 0.091238 23.676 0.042237 559.88 605.88 2.3469 1.6111 2.0935 213.37 0.26147 8.3705 0.019786
31.375 161.86 0.13640 318.60 326.87 1.4270 482.15 0.0020741 280.34 282.66 1.2818 1.6939 2.7936 676.13 0.00091340 90.779 0.090782 24.287 0.041175 560.84 606.79 2.3462 1.6178 2.1092 212.93 0.26031 8.4071 0.019947
32.375 165.84 0.13994 322.07 330.54 1.4383 480.50 0.0020812 283.07 285.45 1.2908 1.6983 2.8063 669.32 0.0010809 89.806 0.090328 24.911 0.040143 561.79 607.69 2.3455 1.6246 2.1254 212.48 0.25919 8.4442 0.020110
33.375 169.90 0.14356 325.56 334.24 1.4498 478.83 0.0020884 285.81 288.26 1.2997 1.7026 2.8192 662.50 0.0012532 88.840 0.089876 25.549 0.039140 562.73 608.58 2.3448 1.6314 2.1419 212.01 0.25809 8.4818 0.020275
34.375 174.02 0.14727 329.07 337.96 1.4612 477.16 0.0020957 288.56 291.07 1.3087 1.7070 2.8324 655.67 0.0014305 87.880 0.089426 26.202 0.038164 563.67 609.46 2.3440 1.6383 2.1589 211.53 0.25702 8.5199 0.020443
35.375 178.22 0.15106 332.60 341.70 1.4726 475.47 0.0021032 291.32 293.90 1.3177 1.7114 2.8459 648.82 0.0016131 86.927 0.088977 26.870 0.037216 564.60 610.33 2.3433 1.6452 2.1763 211.04 0.25599 8.5586 0.020613
36.375 182.50 0.15495 336.15 345.47 1.4841 473.77 0.0021107 294.09 296.74 1.3267 1.7158 2.8597 641.96 0.0018012 85.980 0.088531 27.553 0.036293 565.52 611.19 2.3426 1.6522 2.1942 210.53 0.25498 8.5978 0.020786
37.375 186.84 0.15894 339.71 349.26 1.4956 472.05 0.0021184 296.87 299.60 1.3357 1.7203 2.8739 635.08 0.0019950 85.040 0.088085 28.252 0.035395 566.44 612.04 2.3419 1.6592 2.2125 210.01 0.25400 8.6376 0.020962
38.375 191.27 0.16302 343.30 353.07 1.5071 470.31 0.0021262 299.66 302.46 1.3447 1.7248 2.8884 628.19 0.0021949 84.105 0.087642 28.967 0.034522 567.35 612.88 2.3411 1.6663 2.2314 209.47 0.25305 8.6780 0.021141
39.375 195.77 0.16721 346.90 356.90 1.5187 468.56 0.0021342 302.46 305.34 1.3537 1.7293 2.9033 621.29 0.0024011 83.177 0.087200 29.699 0.033671 568.26 613.70 2.3404 1.6734 2.2508 208.92 0.25213 8.7190 0.021323
40.375 200.34 0.17150 350.53 360.76 1.5303 466.80 0.0021423 305.27 308.23 1.3627 1.7339 2.9185 614.37 0.0026140 82.254 0.086760 30.447 0.032844 569.15 614.52 2.3396 1.6806 2.2708 208.36 0.25123 8.7608 0.021508
41.375 205.00 0.17589 354.17 364.64 1.5419 465.01 0.0021505 308.10 311.14 1.3718 1.7385 2.9342 607.43 0.0028338 81.338 0.086322 31.214 0.032037 570.04 615.32 2.3389 1.6879 2.2913 207.78 0.25037 8.8032 0.021696
42.375 209.73 0.18040 357.84 368.55 1.5535 463.21 0.0021588 310.94 314.06 1.3808 1.7432 2.9502 600.47 0.0030609 80.426 0.085885 31.998 0.031252 570.92 616.11 2.3381 1.6952 2.3125 207.19 0.24953 8.8463 0.021888
43.375 214.54 0.18503 361.52 372.48 1.5652 461.40 0.0021673 313.79 316.99 1.3899 1.7478 2.9667 593.50 0.0032957 79.520 0.085449 32.800 0.030488 571.79 616.88 2.3373 1.7027 2.3344 206.58 0.24871 8.8902 0.022084
44.375 219.43 0.18978 365.23 376.44 1.5769 459.56 0.0021760 316.65 319.94 1.3989 1.7525 2.9837 586.51 0.0035386 78.619 0.085015 33.622 0.029742 572.65 617.65 2.3365 1.7101 2.3569 205.96 0.24793 8.9349 0.022283
45.375 224.41 0.19465 368.96 380.42 1.5886 457.71 0.0021848 319.52 322.90 1.4080 1.7573 3.0012 579.50 0.0037900 77.723 0.084583 34.463 0.029016 573.50 618.40 2.3357 1.7177 2.3802 205.32 0.24717 8.9805 0.022485
46.375 229.46 0.19964 372.71 384.42 1.6003 455.83 0.0021938 322.41 325.88 1.4171 1.7621 3.0192 572.46 0.0040504 76.832 0.084152 35.325 0.028308 574.34 619.13 2.3349 1.7253 2.4042 204.67 0.24644 9.0269 0.022692
47.375 234.60 0.20478 376.47 388.46 1.6121 453.94 0.0022029 325.31 328.87 1.4262 1.7669 3.0377 565.41 0.0043202 75.946 0.083723 36.208 0.027618 575.17 619.85 2.3340 1.7329 2.4291 204.00 0.24573 9.0742 0.022903
48.375 239.83 0.21005 380.27 392.51 1.6239 452.03 0.0022123 328.22 331.88 1.4353 1.7718 3.0569 558.34 0.0046000 75.064 0.083295 37.112 0.026945 576.00 620.55 2.3332 1.7407 2.4548 203.31 0.24505 9.1224 0.023119
49.375 245.13 0.21547 384.08 396.60 1.6358 450.09 0.0022218 331.15 334.90 1.4445 1.7767 3.0766 551.24 0.0048904 74.186 0.082868 38.039 0.026289 576.81 621.24 2.3323 1.7485 2.4815 202.61 0.24440 9.1716 0.023339
50.375 250.53 0.22103 387.91 400.71 1.6476 448.13 0.0022315 334.09 337.94 1.4536 1.7817 3.0970 544.13 0.0051920 73.313 0.082442 38.989 0.025648 577.61 621.91 2.3314 1.7564 2.5092 201.89 0.24377 9.2219 0.023564
51.375 256.01 0.22676 391.77 404.85 1.6595 446.15 0.0022414 337.04 341.00 1.4628 1.7867 3.1181 536.98 0.0055054 72.443 0.082018 39.962 0.025024 578.39 622.56 2.3304 1.7644 2.5379 201.16 0.24317 9.2733 0.023794
52.375 261.57 0.23265 395.65 409.01 1.6715 444.15 0.0022515 340.01 344.07 1.4720 1.7918 3.1400 529.82 0.0058313 71.577 0.081595 40.961 0.024414 579.17 623.20 2.3295 1.7724 2.5677 200.41 0.24260 9.3258 0.024029
53.375 267.23 0.23870 399.55 413.20 1.6835 442.12 0.0022618 343.00 347.17 1.4812 1.7969 3.1627 522.62 0.0061705 70.715 0.081174 41.985 0.023818 579.93 623.81 2.3285 1.7805 2.5987 199.63 0.24205 9.3795 0.024270
54.375 272.97 0.24494 403.48 417.42 1.6955 440.06 0.0022724 346.00 350.28 1.4904 1.8021 3.1862 515.40 0.0065239 69.856 0.080753 43.036 0.023237 580.68 624.41 2.3274 1.7887 2.6310 198.85 0.24154 9.4344 0.024516
55.375 278.81 0.25137 407.43 421.67 1.7075 437.98 0.0022832 349.02 353.40 1.4997 1.8073 3.2106 508.15 0.0068923 69.001 0.080334 44.114 0.022669 581.41 624.99 2.3264 1.7969 2.6646 198.04 0.24105 9.4907 0.024769
56.375 284.74 0.25799 411.41 425.95 1.7196 435.87 0.0022943 352.05 356.55 1.5090 1.8126 3.2360 500.87 0.0072767 68.148 0.079915 45.221 0.022114 582.13 625.54 2.3253 1.8052 2.6998 197.22 0.24059 9.5484 0.025028
57.375 290.76 0.26481 415.40 430.25 1.7317 433.73 0.0023056 355.10 359.72 1.5183 1.8179 3.2624 493.56 0.0076782 67.299 0.079498 46.358 0.021571 582.83 626.07 2.3241 1.8136 2.7365 196.37 0.24016 9.6075 0.025294
58.375 296.87 0.27185 419.43 434.59 1.7439 431.56 0.0023172 358.17 362.91 1.5276 1.8233 3.2900 486.22 0.0080980 66.451 0.079082 47.525 0.021041 583.52 626.58 2.3230 1.8220 2.7749 195.51 0.23976 9.6682 0.025568
59.375 303.08 0.27912 423.48 438.96 1.7560 429.36 0.0023290 361.25 366.12 1.5370 1.8288 3.3188 478.84 0.0085373 65.606 0.078666 48.726 0.020523 584.18 627.07 2.3218 1.8305 2.8152 194.63 0.23939 9.7305 0.025849
60.375 309.38 0.28663 427.55 443.35 1.7683 427.13 0.0023412 364.36 369.35 1.5464 1.8343 3.3489 471.43 0.0089976 64.763 0.078251 49.960 0.020016 584.83 627.53 2.3205 1.8391 2.8576 193.73 0.23905 9.7945 0.026138
61.375 315.78 0.29439 431.65 447.78 1.7806 424.87 0.0023537 367.48 372.60 1.5558 1.8400 3.3805 463.99 0.0094803 63.922 0.077838 51.229 0.019520 585.46 627.96 2.3192 1.8479 2.9022 192.82 0.23873 9.8603 0.026436
62.375 322.28 0.30242 435.78 452.24 1.7929 422.56 0.0023665 370.62 375.88 1.5653 1.8457 3.4136 456.50 0.0099871 63.083 0.077425 52.535 0.019035 586.07 628.37 2.3178 1.8567 2.9492 191.88 0.23845 9.9281 0.026744
63.375 328.88 0.31073 439.93 456.73 1.8052 420.22 0.0023797 373.79 379.18 1.5748 1.8514 3.4483 448.97 0.010520 62.244 0.077012 53.879 0.018560 586.66 628.74 2.3164 1.8656 2.9989 190.92 0.23819 9.9979 0.027061
64.375 335.58 0.31934 444.12 461.25 1.8176 417.85 0.0023932 376.97 382.51 1.5844 1.8573 3.4850 441.40 0.011081 61.407 0.076600 55.265 0.018095 587.22 629.09 2.3149 1.8747 3.0517 189.95 0.23796 10.070 0.027389
65.375 342.38 0.32827 448.33 465.81 1.8301 415.42 0.0024072 380.18 385.86 1.5939 1.8633 3.5236 433.79 0.011672 60.570 0.076189 56.692 0.017639 587.76 629.40 2.3133 1.8839 3.1077 188.95 0.23775 10.144 0.027729
66.375 349.28 0.33754 452.56 470.40 1.8426 412.96 0.0024215 383.41 389.25 1.6036 1.8693 3.5645 426.12 0.012296 59.733 0.075779 58.165 0.017193 588.28 629.68 2.3117 1.8933 3.1674 187.93 0.23757 10.221 0.028080
67.375 356.28 0.34718 456.83 475.03 1.8552 410.45 0.0024363 386.67 392.65 1.6133 1.8755 3.6078 418.41 0.012956 58.897 0.075368 59.684 0.016755 588.76 629.92 2.3100 1.9030 3.2311 186.89 0.23740 10.300 0.028446
68.375 363.40 0.35720 461.13 479.69 1.8678 407.89 0.0024516 389.95 396.09 1.6230 1.8818 3.6537 410.64 0.013655 58.059 0.074959 61.253 0.016326 589.22 630.13 2.3082 1.9129 3.2994 185.83 0.23724 10.382 0.028825
69.375 370.61 0.36763 465.46 484.39 1.8804 405.28 0.0024674 393.26 399.57 1.6328 1.8882 3.7027 402.81 0.014396 57.221 0.074549 62.875 0.015905 589.65 630.29 2.3064 1.9231 3.3727 184.74 0.23710 10.467 0.029221
70.375 377.94 0.37852 469.82 489.12 1.8931 402.62 0.0024838 396.60 403.07 1.6426 1.8947 3.7550 394.92 0.015183 56.381 0.074141 64.552 0.015491 590.04 630.41 2.3044 1.9336 3.4518 183.63 0.23697 10.555 0.029633
71.375 385.37 0.38989 474.21 493.90 1.9059 399.89 0.0025007 399.96 406.61 1.6525 1.9014 3.8109 386.97 0.016021 55.540 0.073732 66.288 0.015086 590.40 630.49 2.3024 1.9444 3.5371 182.50 0.23684 10.647 0.030064
72.375 392.92 0.40178 478.64 498.71 1.9187 397.11 0.0025182 403.36 410.18 1.6625 1.9083 3.8711 378.95 0.016915 54.696 0.073324 68.087 0.014687 590.73 630.51 2.3002 1.9556 3.6297 181.34 0.23671 10.743 0.030515
73.375 400.57 0.41424 483.10 503.56 1.9316 394.26 0.0025364 406.79 413.80 1.6726 1.9153 3.9359 370.85 0.017871 53.848 0.072917 69.953 0.014295 591.01 630.49 2.2979 1.9673 3.7303 180.16 0.23658 10.842 0.030989
74.375 408.34 0.42731 487.60 508.45 1.9446 391.34 0.0025553 410.26 417.45 1.6827 1.9226 4.0060 362.67 0.018894 52.997 0.072510 71.890 0.013910 591.25 630.41 2.2955 1.9793 3.8401 178.95 0.23643 10.946 0.031488
75.375 416.23 0.44107 492.13 513.39 1.9576 388.34 0.0025751 413.76 421.15 1.6930 1.9301 4.0822 354.41 0.019993 52.142 0.072104 73.904 0.013531 591.44 630.27 2.2930 1.9919 3.9604 177.71 0.23627 11.054 0.032014
76.375 424.23 0.45557 496.70 518.37 1.9707 385.26 0.0025957 417.31 424.90 1.7033 1.9378 4.1654 346.06 0.021177 51.281 0.071699 76.001 0.013158 591.59 630.07 2.2903 2.0050 4.0927 176.44 0.23609 11.168 0.032570
77.375 432.35 0.47089 501.31 523.39 1.9839 382.09 0.0026172 420.89 428.70 1.7137 1.9459 4.2565 337.60 0.022455 50.414 0.071295 78.187 0.012790 591.68 629.80 2.2874 2.0186 4.2389 175.15 0.23588 11.287 0.033161
78.375 440.59 0.48712 505.96 528.47 1.9971 378.83 0.0026397 424.53 432.54 1.7243 1.9543 4.3570 329.05 0.023838 49.539 0.070893 80.469 0.012427 591.71 629.46 2.2844 2.0328 4.4012 173.82 0.23563 11.412 0.033789
79.375 448.95 0.50438 510.66 533.59 2.0105 375.46 0.0026634 428.21 436.45 1.7349 1.9631 4.4684 320.38 0.025341 48.657 0.070494 82.856 0.012069 591.68 629.04 2.2812 2.0475 4.5824 172.46 0.23535 11.544 0.034461
80.375 457.44 0.52278 515.40 538.76 2.0239 371.97 0.0026884 431.94 440.42 1.7457 1.9723 4.5928 311.58 0.026980 47.764 0.070099 85.359 0.011715 591.58 628.53 2.2778 2.0630 4.7859 171.07 0.23501 11.684 0.035181
81.375 466.05 0.54248 520.18 543.99 2.0374 368.36 0.0027147 435.74 444.46 1.7567 1.9820 4.7327 302.66 0.028773 46.860 0.069708 87.988 0.011365 591.40 627.92 2.2742 2.0791 5.0161 169.64 0.23461 11.832 0.035957
82.375 474.79 0.56366 525.02 549.27 2.0510 364.61 0.0027427 439.60 448.58 1.7678 1.9924 4.8914 293.60 0.030744 45.942 0.069323 90.757 0.011018 591.14 627.21 2.2703 2.0959 5.2786 168.17 0.23413 11.989 0.036797
83.375 483.66 0.58656 529.91 554.61 2.0647 360.70 0.0027724 443.53 452.78 1.7791 2.0034 5.0731 284.38 0.032920 45.010 0.068948 93.681 0.010674 590.79 626.38 2.2661 2.1136 5.5807 166.67 0.23357 12.157 0.037711
84.375 492.67 0.61145 534.85 560.01 2.0786 356.61 0.0028041 447.54 457.07 1.7907 2.0153 5.2834 275.00 0.035335 44.059 0.068586 96.781 0.010333 590.33 625.42 2.2616 2.1321 5.9321 165.13 0.23290 12.338 0.038713
85.375 501.81 0.63871 539.85 565.48 2.0926 352.33 0.0028382 451.65 461.47 1.8025 2.0281 5.5302 265.44 0.038030 43.088 0.068241 100.08 0.0099920 589.74 624.31 2.2567 2.1517 6.3459 163.54 0.23209 12.532 0.039819
86.375 511.09 0.66879 544.92 571.02 2.1067 347.82 0.0028751 455.85 465.98 1.8145 2.0420 5.8240 255.69 0.041058 42.092 0.067923 103.61 0.0096520 589.03 623.04 2.2514 2.1723 6.8405 161.91 0.23112 12.743 0.041051
87.375 520.51 0.70233 550.05 576.64 2.1209 343.04 0.0029151 460.18 470.64 1.8269 2.0574 6.1803 245.72 0.044485 41.066 0.067640 107.40 0.0093114 588.15 621.56 2.2456 2.1943 7.4422 160.23 0.22995 12.973 0.042436
88.375 530.07 0.74018 555.27 582.34 2.1354 337.95 0.0029590 464.64 475.45 1.8397 2.0745 6.6221 235.52 0.048397 40.005 0.067412 111.50 0.0089689 587.08 619.86 2.2392 2.2178 8.1900 158.49 0.22854 13.226 0.044014
89.375 539.79 0.78355 560.57 588.13 2.1500 332.48 0.0030077 469.27 480.46 1.8530 2.0936 7.1851 225.04 0.052906 38.901 0.067265 115.97 0.0086228 585.79 617.88 2.2321 2.2433 9.1445 156.69 0.22681 13.508 0.045839
90.375 549.66 0.83423 565.96 594.03 2.1649 326.55 0.0030623 474.10 485.71 1.8669 2.1156 7.9284 214.26 0.058166 37.742 0.067243 120.91 0.0082708 584.22 615.56 2.2241 2.2711 10.405 154.82 0.22467 13.825 0.047992
91.375 559.68 0.89502 571.47 600.05 2.1800 320.03 0.0031247 479.19 491.25 1.8815 2.1412 8.9568 203.11 0.064389 36.514 0.067421 126.43 0.0079097 582.29 612.82 2.2150 2.3019 12.146 152.85 0.22200 14.189 0.050600
92.375 569.87 0.97067 577.11 606.22 2.1955 312.73 0.0031976 484.62 497.18 1.8972 2.1718 10.475 191.54 0.071885 35.195 0.067931 132.72 0.0075346 579.91 609.51 2.2045 2.3370 14.705 150.75 0.21862 14.618 0.053877
93.375 577.85 undefined 580.57 610.08 2.2049 135.00 0.0074074 580.57 610.08 2.2049 2.3315 14.472 150.91 0.21488 14.804 0.054056 135.00 0.0074074 580.57 610.08 2.2049 2.3315 14.472 150.91 0.21488 14.804 0.054056
94.375 584.65 undefined 582.89 612.75 2.2112 135.00 0.0074074 582.89 612.75 2.2112 2.3072 12.900 152.21 0.21131 14.848 0.052716 135.00 0.0074074 582.89 612.75 2.2112 2.3072 12.900 152.21 0.21131 14.848 0.052716
95.375 591.39 undefined 585.18 615.39 2.2175 135.00 0.0074074 585.18 615.39 2.2175 2.2860 11.691 153.50 0.20781 14.901 0.051633 135.00 0.0074074 585.18 615.39 2.2175 2.2860 11.691 153.50 0.20781 14.901 0.051633
96.375 598.08 undefined 587.46 618.01 2.2236 135.00 0.0074074 587.46 618.01 2.2236 2.2675 10.733 154.79 0.20437 14.973 0.050730 135.00 0.0074074 587.46 618.01 2.2236 2.2675 10.733 154.79 0.20437 14.973 0.050730
97.375 604.73 undefined 589.72 620.60 2.2298 135.00 0.0074074 589.72 620.60 2.2298 2.2514 9.9540 156.06 0.20098 14.994 0.050020 135.00 0.0074074 589.72 620.60 2.2298 2.2514 9.9540 156.06 0.20098 14.994 0.050020
98.375 611.33 undefined 591.96 623.19 2.2358 135.00 0.0074074 591.96 623.19 2.2358 2.2375 9.3089 157.32 0.19765 14.996 0.049438 135.00 0.0074074 591.96 623.19 2.2358 2.2375 9.3089 157.32 0.19765 14.996 0.049438
99.375 617.91 undefined 594.19 625.75 2.2418 135.00 0.0074074 594.19 625.75 2.2418 2.2256 8.7653 158.57 0.19439 15.013 0.048933 135.00 0.0074074 594.19 625.75 2.2418 2.2256 8.7653 158.57 0.19439 15.013 0.048933
100.38 624.44 undefined 596.42 628.31 2.2477 135.00 0.0074074 596.42 628.31 2.2477 2.2152 8.3008 159.80 0.19119 15.039 0.048496 135.00 0.0074074 596.42 628.31 2.2477 2.2152 8.3008 159.80 0.19119 15.039 0.048496
101.38 630.95 undefined 598.63 630.85 2.2537 135.00 0.0074074 598.63 630.85 2.2537 2.2063 7.8991 161.02 0.18805 15.068 0.048116 135.00 0.0074074 598.63 630.85 2.2537 2.2063 7.8991 161.02 0.18805 15.068 0.048116
102.38 637.44 undefined 600.83 633.38 2.2595 135.00 0.0074074 600.83 633.38 2.2595 2.1986 7.5482 162.23 0.18497 15.099 0.047787 135.00 0.0074074 600.83 633.38 2.2595 2.1986 7.5482 162.23 0.18497 15.099 0.047787
103.38 643.90 undefined 603.02 635.91 2.2654 135.00 0.0074074 603.02 635.91 2.2654 2.1920 7.2388 163.43 0.18196 15.131 0.047500 135.00 0.0074074 603.02 635.91 2.2654 2.1920 7.2388 163.43 0.18196 15.131 0.047500
104.38 650.33 undefined 605.21 638.43 2.2712 135.00 0.0074074 605.21 638.43 2.2712 2.1862 6.9639 164.62 0.17902 15.164 0.047249 135.00 0.0074074 605.21 638.43 2.2712 2.1862 6.9639 164.62 0.17902 15.164 0.047249
105.38 656.75 undefined 607.40 640.94 2.2770 135.00 0.0074074 607.40 640.94 2.2770 2.1812 6.7180 165.80 0.17613 15.197 0.047031 135.00 0.0074074 607.40 640.94 2.2770 2.1812 6.7180 165.80 0.17613 15.197 0.047031
106.38 663.14 undefined 609.58 643.44 2.2827 135.00 0.0074074 609.58 643.44 2.2827 2.1769 6.4967 166.96 0.17332 15.230 0.046840 135.00 0.0074074 609.58 643.44 2.2827 2.1769 6.4967 166.96 0.17332 15.230 0.046840
107.38 669.52 undefined 611.75 645.94 2.2884 135.00 0.0074074 611.75 645.94 2.2884 2.1731 6.2964 168.12 0.17056 15.264 0.046674 135.00 0.0074074 611.75 645.94 2.2884 2.1731 6.2964 168.12 0.17056 15.264 0.046674
108.38 675.87 undefined 613.92 648.44 2.2941 135.00 0.0074074 613.92 648.44 2.2941 2.1699 6.1143 169.27 0.16787 15.297 0.046530 135.00 0.0074074 613.92 648.44 2.2941 2.1699 6.1143 169.27 0.16787 15.297 0.046530
109.38 682.21 undefined 616.09 650.93 2.2998 135.00 0.0074074 616.09 650.93 2.2998 2.1671 5.9480 170.42 0.16524 15.330 0.046405 135.00 0.0074074 616.09 650.93 2.2998 2.1671 5.9480 170.42 0.16524 15.330 0.046405
110.38 688.54 undefined 618.26 653.42 2.3055 135.00 0.0074074 618.26 653.42 2.3055 2.1647 5.7956 171.55 0.16267 15.363 0.046297 135.00 0.0074074 618.26 653.42 2.3055 2.1647 5.7956 171.55 0.16267 15.363 0.046297
111.38 694.85 undefined 620.42 655.91 2.3111 135.00 0.0074074 620.42 655.91 2.3111 2.1626 5.6553 172.68 0.16016 15.396 0.046205 135.00 0.0074074 620.42 655.91 2.3111 2.1626 5.6553 172.68 0.16016 15.396 0.046205
112.38 701.14 undefined 622.58 658.39 2.3167 135.00 0.0074074 622.58 658.39 2.3167 2.1609 5.5259 173.80 0.15771 15.429 0.046128 135.00 0.0074074 622.58 658.39 2.3167 2.1609 5.5259 173.80 0.15771 15.429 0.046128
113.38 707.42 undefined 624.74 660.87 2.3223 135.00 0.0074074 624.74 660.87 2.3223 2.1594 5.4061 174.91 0.15531 15.462 0.046063 135.00 0.0074074 624.74 660.87 2.3223 2.1594 5.4061 174.91 0.15531 15.462 0.046063
114.38 713.69 undefined 626.90 663.35 2.3279 135.00 0.0074074 626.90 663.35 2.3279 2.1582 5.2949 176.02 0.15297 15.495 0.046011 135.00 0.0074074 626.90 663.35 2.3279 2.1582 5.2949 176.02 0.15297 15.495 0.046011
115.38 719.94 undefined 629.06 665.83 2.3334 135.00 0.0074074 629.06 665.83 2.3334 2.1573 5.1915 177.12 0.15068 15.528 0.045969 135.00 0.0074074 629.06 665.83 2.3334 2.1573 5.1915 177.12 0.15068 15.528 0.045969
116.38 726.18 undefined 631.21 668.30 2.3390 135.00 0.0074074 631.21 668.30 2.3390 2.1565 5.0950 178.22 0.14845 15.560 0.045937 135.00 0.0074074 631.21 668.30 2.3390 2.1565 5.0950 178.22 0.14845 15.560 0.045937
117.38 732.41 undefined 633.37 670.78 2.3445 135.00 0.0074074 633.37 670.78 2.3445 2.1560 5.0049 179.31 0.14626 15.593 0.045914 135.00 0.0074074 633.37 670.78 2.3445 2.1560 5.0049 179.31 0.14626 15.593 0.045914
118.38 738.63 undefined 635.53 673.25 2.3500 135.00 0.0074074 635.53 673.25 2.3500 2.1557 4.9205 180.39 0.14412 15.626 0.045900 135.00 0.0074074 635.53 673.25 2.3500 2.1557 4.9205 180.39 0.14412 15.626 0.045900
119.38 744.84 undefined 637.68 675.72 2.3555 135.00 0.0074074 637.68 675.72 2.3555 2.1555 4.8414 181.47 0.14203 15.659 0.045894 135.00 0.0074074 637.68 675.72 2.3555 2.1555 4.8414 181.47 0.14203 15.659 0.045894
120.38 751.03 undefined 639.84 678.19 2.3610 135.00 0.0074074 639.84 678.19 2.3610 2.1556 4.7671 182.54 0.13998 15.691 0.045895 135.00 0.0074074 639.84 678.19 2.3610 2.1556 4.7671 182.54 0.13998 15.691 0.045895
121.38 757.22 undefined 641.99 680.67 2.3665 135.00 0.0074074 641.99 680.67 2.3665 2.1558 4.6971 183.60 0.13798 15.724 0.045902 135.00 0.0074074 641.99 680.67 2.3665 2.1558 4.6971 183.60 0.13798 15.724 0.045902
122.38 763.40 undefined 644.15 683.14 2.3719 135.00 0.0074074 644.15 683.14 2.3719 2.1561 4.6312 184.66 0.13603 15.756 0.045917 135.00 0.0074074 644.15 683.14 2.3719 2.1561 4.6312 184.66 0.13603 15.756 0.045917
123.38 769.56 undefined 646.31 685.61 2.3774 135.00 0.0074074 646.31 685.61 2.3774 2.1566 4.5690 185.72 0.13411 15.789 0.045937 135.00 0.0074074 646.31 685.61 2.3774 2.1566 4.5690 185.72 0.13411 15.789 0.045937
124.38 775.72 undefined 648.46 688.08 2.3828 135.00 0.0074074 648.46 688.08 2.3828 2.1572 4.5102 186.77 0.13224 15.821 0.045963 135.00 0.0074074 648.46 688.08 2.3828 2.1572 4.5102 186.77 0.13224 15.821 0.045963
125.38 781.87 undefined 650.62 690.55 2.3882 135.00 0.0074074 650.62 690.55 2.3882 2.1579 4.4545 187.81 0.13040 15.854 0.045993 135.00 0.0074074 650.62 690.55 2.3882 2.1579 4.4545 187.81 0.13040 15.854 0.045993
126.38 788.01 undefined 652.78 693.02 2.3936 135.00 0.0074074 652.78 693.02 2.3936 2.1588 4.4018 188.85 0.12861 15.886 0.046029 135.00 0.0074074 652.78 693.02 2.3936 2.1588 4.4018 188.85 0.12861 15.886 0.046029
127.38 794.14 undefined 654.94 695.50 2.3990 135.00 0.0074074 654.94 695.50 2.3990 2.1597 4.3518 189.88 0.12685 15.919 0.046070 135.00 0.0074074 654.94 695.50 2.3990 2.1597 4.3518 189.88 0.12685 15.919 0.046070
128.38 800.26 undefined 657.10 697.97 2.4044 135.00 0.0074074 657.10 697.97 2.4044 2.1608 4.3044 190.91 0.12513 15.951 0.046115 135.00 0.0074074 657.10 697.97 2.4044 2.1608 4.3044 190.91 0.12513 15.951 0.046115
129.38 806.38 undefined 659.26 700.44 2.4098 135.00 0.0074074 659.26 700.44 2.4098 2.1620 4.2593 191.93 0.12344 15.983 0.046164 135.00 0.0074074 659.26 700.44 2.4098 2.1620 4.2593 191.93 0.12344 15.983 0.046164
130.38 812.49 undefined 661.42 702.92 2.4152 135.00 0.0074074 661.42 702.92 2.4152 2.1633 4.2164 192.95 0.12179 16.015 0.046216 135.00 0.0074074 661.42 702.92 2.4152 2.1633 4.2164 192.95 0.12179 16.015 0.046216
131.38 818.59 undefined 663.59 705.39 2.4205 135.00 0.0074074 663.59 705.39 2.4205 2.1646 4.1755 193.97 0.12017 16.047 0.046273 135.00 0.0074074 663.59 705.39 2.4205 2.1646 4.1755 193.97 0.12017 16.047 0.046273
132.38 824.68 undefined 665.75 707.87 2.4259 135.00 0.0074074 665.75 707.87 2.4259 2.1661 4.1366 194.97 0.11858 16.080 0.046333 135.00 0.0074074 665.75 707.87 2.4259 2.1661 4.1366 194.97 0.11858 16.080 0.046333
133.38 830.77 undefined 667.92 710.35 2.4312 135.00 0.0074074 667.92 710.35 2.4312 2.1676 4.0994 195.98 0.11703 16.112 0.046396 135.00 0.0074074 667.92 710.35 2.4312 2.1676 4.0994 195.98 0.11703 16.112 0.046396
134.38 836.85 undefined 670.09 712.83 2.4365 135.00 0.0074074 670.09 712.83 2.4365 2.1692 4.0640 196.98 0.11550 16.144 0.046463 135.00 0.0074074 670.09 712.83 2.4365 2.1692 4.0640 196.98 0.11550 16.144 0.046463
135.38 842.92 undefined 672.26 715.31 2.4419 135.00 0.0074074 672.26 715.31 2.4419 2.1709 4.0301 197.97 0.11401 16.176 0.046532 135.00 0.0074074 672.26 715.31 2.4419 2.1709 4.0301 197.97 0.11401 16.176 0.046532
136.38 848.98 undefined 674.43 717.79 2.4472 135.00 0.0074074 674.43 717.79 2.4472 2.1727 3.9977 198.96 0.11254 16.208 0.046604 135.00 0.0074074 674.43 717.79 2.4472 2.1727 3.9977 198.96 0.11254 16.208 0.046604
137.38 855.04 undefined 676.60 720.27 2.4525 135.00 0.0074074 676.60 720.27 2.4525 2.1745 3.9667 199.95 0.11111 16.240 0.046679 135.00 0.0074074 676.60 720.27 2.4525 2.1745 3.9667 199.95 0.11111 16.240 0.046679
138.38 861.10 undefined 678.78 722.76 2.4578 135.00 0.0074074 678.78 722.76 2.4578 2.1764 3.9371 200.93 0.10970 16.272 0.046757 135.00 0.0074074 678.78 722.76 2.4578 2.1764 3.9371 200.93 0.10970 16.272 0.046757
139.38 867.14 undefined 680.96 725.24 2.4630 135.00 0.0074074 680.96 725.24 2.4630 2.1783 3.9087 201.90 0.10831 16.303 0.046837 135.00 0.0074074 680.96 725.24 2.4630 2.1783 3.9087 201.90 0.10831 16.303 0.046837
140.38 873.19 undefined 683.13 727.73 2.4683 135.00 0.0074074 683.13 727.73 2.4683 2.1803 3.8815 202.87 0.10696 16.335 0.046919 135.00 0.0074074 683.13 727.73 2.4683 2.1803 3.8815 202.87 0.10696 16.335 0.046919
141.38 879.22 undefined 685.32 730.22 2.4736 135.00 0.0074074 685.32 730.22 2.4736 2.1824 3.8553 203.84 0.10563 16.367 0.047004 135.00 0.0074074 685.32 730.22 2.4736 2.1824 3.8553 203.84 0.10563 16.367 0.047004
142.38 885.25 undefined 687.50 732.71 2.4788 135.00 0.0074074 687.50 732.71 2.4788 2.1845 3.8303 204.81 0.10432 16.399 0.047090 135.00 0.0074074 687.50 732.71 2.4788 2.1845 3.8303 204.81 0.10432 16.399 0.047090
143.38 891.28 undefined 689.68 735.20 2.4841 135.00 0.0074074 689.68 735.20 2.4841 2.1867 3.8062 205.76 0.10304 16.430 0.047179 135.00 0.0074074 689.68 735.20 2.4841 2.1867 3.8062 205.76 0.10304 16.430 0.047179
144.38 897.29 undefined 691.87 737.70 2.4893 135.00 0.0074074 691.87 737.70 2.4893 2.1889 3.7831 206.72 0.10178 16.462 0.047270 135.00 0.0074074 691.87 737.70 2.4893 2.1889 3.7831 206.72 0.10178 16.462 0.047270
145.38 903.31 undefined 694.06 740.20 2.4946 135.00 0.0074074 694.06 740.20 2.4946 2.1911 3.7609 207.67 0.10055 16.494 0.047363 135.00 0.0074074 694.06 740.20 2.4946 2.1911 3.7609 207.67 0.10055 16.494 0.047363
146.38 909.32 undefined 696.25 742.70 2.4998 135.00 0.0074074 696.25 742.70 2.4998 2.1934 3.7396 208.62 0.099337 16.525 0.047457 135.00 0.0074074 696.25 742.70 2.4998 2.1934 3.7396 208.62 0.099337 16.525 0.047457
147.38 915.32 undefined 698.45 745.20 2.5050 135.00 0.0074074 698.45 745.20 2.5050 2.1957 3.7190 209.56 0.098147 16.557 0.047554 135.00 0.0074074 698.45 745.20 2.5050 2.1957 3.7190 209.56 0.098147 16.557 0.047554
148.38 921.32 undefined 700.65 747.70 2.5103 135.00 0.0074074 700.65 747.70 2.5103 2.1981 3.6993 210.50 0.096978 16.588 0.047652 135.00 0.0074074 700.65 747.70 2.5103 2.1981 3.6993 210.50 0.096978 16.588 0.047652
149.38 927.31 undefined 702.85 750.21 2.5155 135.00 0.0074074 702.85 750.21 2.5155 2.2005 3.6802 211.43 0.095829 16.620 0.047751 135.00 0.0074074 702.85 750.21 2.5155 2.2005 3.6802 211.43 0.095829 16.620 0.047751
150.38 933.30 undefined 705.05 752.71 2.5207 135.00 0.0074074 705.05 752.71 2.5207 2.2030 3.6619 212.36 0.094702 16.651 0.047853 135.00 0.0074074 705.05 752.71 2.5207 2.2030 3.6619 212.36 0.094702 16.651 0.047853
151.38 939.28 undefined 707.25 755.22 2.5259 135.00 0.0074074 707.25 755.22 2.5259 2.2054 3.6443 213.29 0.093594 16.682 0.047955 135.00 0.0074074 707.25 755.22 2.5259 2.2054 3.6443 213.29 0.093594 16.682 0.047955
152.38 945.26 undefined 709.46 757.73 2.5311 135.00 0.0074074 709.46 757.73 2.5311 2.2079 3.6273 214.22 0.092505 16.714 0.048060 135.00 0.0074074 709.46 757.73 2.5311 2.2079 3.6273 214.22 0.092505 16.714 0.048060
153.38 951.24 undefined 711.67 760.25 2.5363 135.00 0.0074074 711.67 760.25 2.5363 2.2105 3.6109 215.14 0.091435 16.745 0.048165 135.00 0.0074074 711.67 760.25 2.5363 2.2105 3.6109 215.14 0.091435 16.745 0.048165
154.38 957.20 undefined 713.88 762.77 2.5414 135.00 0.0074074 713.88 762.77 2.5414 2.2130 3.5950 216.05 0.090384 16.776 0.048272 135.00 0.0074074 713.88 762.77 2.5414 2.2130 3.5950 216.05 0.090384 16.776 0.048272
155.38 963.17 undefined 716.09 765.28 2.5466 135.00 0.0074074 716.09 765.28 2.5466 2.2156 3.5798 216.96 0.089350 16.807 0.048381 135.00 0.0074074 716.09 765.28 2.5466 2.2156 3.5798 216.96 0.089350 16.807 0.048381
156.38 969.13 undefined 718.31 767.81 2.5518 135.00 0.0074074 718.31 767.81 2.5518 2.2183 3.5651 217.87 0.088334 16.838 0.048491 135.00 0.0074074 718.31 767.81 2.5518 2.2183 3.5651 217.87 0.088334 16.838 0.048491
157.38 975.09 undefined 720.53 770.33 2.5569 135.00 0.0074074 720.53 770.33 2.5569 2.2209 3.5509 218.78 0.087336 16.870 0.048601 135.00 0.0074074 720.53 770.33 2.5569 2.2209 3.5509 218.78 0.087336 16.870 0.048601
158.38 981.04 undefined 722.75 772.86 2.5621 135.00 0.0074074 722.75 772.86 2.5621 2.2236 3.5372 219.68 0.086354 16.901 0.048714 135.00 0.0074074 722.75 772.86 2.5621 2.2236 3.5372 219.68 0.086354 16.901 0.048714
159.38 986.99 undefined 724.98 775.38 2.5672 135.00 0.0074074 724.98 775.38 2.5672 2.2263 3.5239 220.58 0.085388 16.932 0.048827 135.00 0.0074074 724.98 775.38 2.5672 2.2263 3.5239 220.58 0.085388 16.932 0.048827
160.38 992.93 undefined 727.20 777.92 2.5724 135.00 0.0074074 727.20 777.92 2.5724 2.2290 3.5111 221.47 0.084439 16.963 0.048941 135.00 0.0074074 727.20 777.92 2.5724 2.2290 3.5111 221.47 0.084439 16.963 0.048941
161.38 998.87 undefined 729.44 780.45 2.5775 135.00 0.0074074 729.44 780.45 2.5775 2.2317 3.4988 222.36 0.083505 16.994 0.049057 135.00 0.0074074 729.44 780.45 2.5775 2.2317 3.4988 222.36 0.083505 16.994 0.049057
162.38 1004.8 undefined 731.67 782.99 2.5827 135.00 0.0074074 731.67 782.99 2.5827 2.2345 3.4868 223.25 0.082586 17.025 0.049174 135.00 0.0074074 731.67 782.99 2.5827 2.2345 3.4868 223.25 0.082586 17.025 0.049174
163.38 1010.7 undefined 733.90 785.52 2.5878 135.00 0.0074074 733.90 785.52 2.5878 2.2373 3.4753 224.14 0.081683 17.055 0.049292 135.00 0.0074074 733.90 785.52 2.5878 2.2373 3.4753 224.14 0.081683 17.055 0.049292
164.38 1016.7 undefined 736.14 788.07 2.5929 135.00 0.0074074 736.14 788.07 2.5929 2.2401 3.4642 225.02 0.080794 17.086 0.049410 135.00 0.0074074 736.14 788.07 2.5929 2.2401 3.4642 225.02 0.080794 17.086 0.049410
165.38 1022.6 undefined 738.38 790.61 2.5980 135.00 0.0074074 738.38 790.61 2.5980 2.2429 3.4534 225.90 0.079919 17.117 0.049530 135.00 0.0074074 738.38 790.61 2.5980 2.2429 3.4534 225.90 0.079919 17.117 0.049530
166.38 1028.5 undefined 740.63 793.16 2.6031 135.00 0.0074074 740.63 793.16 2.6031 2.2457 3.4430 226.77 0.079058 17.148 0.049651 135.00 0.0074074 740.63 793.16 2.6031 2.2457 3.4430 226.77 0.079058 17.148 0.049651
167.38 1034.4 undefined 742.88 795.71 2.6082 135.00 0.0074074 742.88 795.71 2.6082 2.2486 3.4329 227.64 0.078211 17.179 0.049772 135.00 0.0074074 742.88 795.71 2.6082 2.2486 3.4329 227.64 0.078211 17.179 0.049772
168.38 1040.3 undefined 745.13 798.26 2.6133 135.00 0.0074074 745.13 798.26 2.6133 2.2514 3.4232 228.51 0.077377 17.209 0.049895 135.00 0.0074074 745.13 798.26 2.6133 2.2514 3.4232 228.51 0.077377 17.209 0.049895
169.38 1046.3 undefined 747.38 800.81 2.6184 135.00 0.0074074 747.38 800.81 2.6184 2.2543 3.4137 229.38 0.076557 17.240 0.050019 135.00 0.0074074 747.38 800.81 2.6184 2.2543 3.4137 229.38 0.076557 17.240 0.050019
170.38 1052.2 undefined 749.63 803.37 2.6235 135.00 0.0074074 749.63 803.37 2.6235 2.2572 3.4046 230.24 0.075749 17.271 0.050143 135.00 0.0074074 749.63 803.37 2.6235 2.2572 3.4046 230.24 0.075749 17.271 0.050143
171.38 1058.1 undefined 751.89 805.93 2.6286 135.00 0.0074074 751.89 805.93 2.6286 2.2601 3.3958 231.10 0.074953 17.301 0.050268 135.00 0.0074074 751.89 805.93 2.6286 2.2601 3.3958 231.10 0.074953 17.301 0.050268
172.38 1064.0 undefined 754.15 808.49 2.6337 135.00 0.0074074 754.15 808.49 2.6337 2.2630 3.3873 231.95 0.074170 17.332 0.050394 135.00 0.0074074 754.15 808.49 2.6337 2.2630 3.3873 231.95 0.074170 17.332 0.050394
173.38 1069.9 undefined 756.42 811.06 2.6388 135.00 0.0074074 756.42 811.06 2.6388 2.2660 3.3790 232.81 0.073399 17.362 0.050521 135.00 0.0074074 756.42 811.06 2.6388 2.2660 3.3790 232.81 0.073399 17.362 0.050521
174.38 1075.7 undefined 758.69 813.63 2.6439 135.00 0.0074074 758.69 813.63 2.6439 2.2689 3.3711 233.66 0.072640 17.393 0.050649 135.00 0.0074074 758.69 813.63 2.6439 2.2689 3.3711 233.66 0.072640 17.393 0.050649
175.38 1081.6 undefined 760.96 816.20 2.6489 135.00 0.0074074 760.96 816.20 2.6489 2.2719 3.3633 234.50 0.071892 17.423 0.050777 135.00 0.0074074 760.96 816.20 2.6489 2.2719 3.3633 234.50 0.071892 17.423 0.050777
176.38 1087.5 undefined 763.23 818.77 2.6540 135.00 0.0074074 763.23 818.77 2.6540 2.2749 3.3559 235.35 0.071155 17.454 0.050907 135.00 0.0074074 763.23 818.77 2.6540 2.2749 3.3559 235.35 0.071155 17.454 0.050907
177.38 1093.4 undefined 765.51 821.35 2.6590 135.00 0.0074074 765.51 821.35 2.6590 2.2779 3.3486 236.19 0.070430 17.484 0.051037 135.00 0.0074074 765.51 821.35 2.6590 2.2779 3.3486 236.19 0.070430 17.484 0.051037
178.38 1099.3 undefined 767.79 823.93 2.6641 135.00 0.0074074 767.79 823.93 2.6641 2.2809 3.3416 237.03 0.069715 17.514 0.051168 135.00 0.0074074 767.79 823.93 2.6641 2.2809 3.3416 237.03 0.069715 17.514 0.051168
179.38 1105.2 undefined 770.07 826.51 2.6691 135.00 0.0074074 770.07 826.51 2.6691 2.2839 3.3349 237.86 0.069011 17.544 0.051299 135.00 0.0074074 770.07 826.51 2.6691 2.2839 3.3349 237.86 0.069011 17.544 0.051299
180.38 1111.0 undefined 772.35 829.10 2.6742 135.00 0.0074074 772.35 829.10 2.6742 2.2869 3.3283 238.69 0.068317 17.575 0.051431 135.00 0.0074074 772.35 829.10 2.6742 2.2869 3.3283 238.69 0.068317 17.575 0.051431
181.38 1116.9 undefined 774.64 831.68 2.6792 135.00 0.0074074 774.64 831.68 2.6792 2.2900 3.3220 239.52 0.067634 17.605 0.051564 135.00 0.0074074 774.64 831.68 2.6792 2.2900 3.3220 239.52 0.067634 17.605 0.051564
182.38 1122.8 undefined 776.93 834.28 2.6843 135.00 0.0074074 776.93 834.28 2.6843 2.2930 3.3159 240.35 0.066960 17.635 0.051698 135.00 0.0074074 776.93 834.28 2.6843 2.2930 3.3159 240.35 0.066960 17.635 0.051698
183.38 1128.6 undefined 779.23 836.87 2.6893 135.00 0.0074074 779.23 836.87 2.6893 2.2961 3.3100 241.18 0.066296 17.665 0.051832 135.00 0.0074074 779.23 836.87 2.6893 2.2961 3.3100 241.18 0.066296 17.665 0.051832
184.38 1134.5 undefined 781.53 839.47 2.6943 135.00 0.0074074 781.53 839.47 2.6943 2.2991 3.3042 242.00 0.065642 17.695 0.051967 135.00 0.0074074 781.53 839.47 2.6943 2.2991 3.3042 242.00 0.065642 17.695 0.051967
185.38 1140.3 undefined 783.83 842.07 2.6993 135.00 0.0074074 783.83 842.07 2.6993 2.3022 3.2987 242.82 0.064997 17.725 0.052102 135.00 0.0074074 783.83 842.07 2.6993 2.3022 3.2987 242.82 0.064997 17.725 0.052102
186.38 1146.2 undefined 786.13 844.67 2.7044 135.00 0.0074074 786.13 844.67 2.7044 2.3053 3.2933 243.63 0.064362 17.755 0.052239 135.00 0.0074074 786.13 844.67 2.7044 2.3053 3.2933 243.63 0.064362 17.755 0.052239
187.38 1152.0 undefined 788.44 847.27 2.7094 135.00 0.0074074 788.44 847.27 2.7094 2.3084 3.2881 244.45 0.063735 17.785 0.052375 135.00 0.0074074 788.44 847.27 2.7094 2.3084 3.2881 244.45 0.063735 17.785 0.052375
188.38 1157.9 undefined 790.75 849.88 2.7144 135.00 0.0074074 790.75 849.88 2.7144 2.3115 3.2831 245.26 0.063117 17.815 0.052513 135.00 0.0074074 790.75 849.88 2.7144 2.3115 3.2831 245.26 0.063117 17.815 0.052513
189.38 1163.7 undefined 793.06 852.49 2.7194 135.00 0.0074074 793.06 852.49 2.7194 2.3146 3.2783 246.07 0.062508 17.845 0.052651 135.00 0.0074074 793.06 852.49 2.7194 2.3146 3.2783 246.07 0.062508 17.845 0.052651
190.38 1169.6 undefined 795.38 855.11 2.7244 135.00 0.0074074 795.38 855.11 2.7244 2.3177 3.2736 246.87 0.061907 17.875 0.052789 135.00 0.0074074 795.38 855.11 2.7244 2.3177 3.2736 246.87 0.061907 17.875 0.052789
191.38 1175.4 undefined 797.70 857.73 2.7294 135.00 0.0074074 797.70 857.73 2.7294 2.3208 3.2691 247.67 0.061315 17.905 0.052929 135.00 0.0074074 797.70 857.73 2.7294 2.3208 3.2691 247.67 0.061315 17.905 0.052929
192.38 1181.3 undefined 800.02 860.35 2.7344 135.00 0.0074074 800.02 860.35 2.7344 2.3240 3.2647 248.47 0.060731 17.935 0.053068 135.00 0.0074074 800.02 860.35 2.7344 2.3240 3.2647 248.47 0.060731 17.935 0.053068
193.38 1187.1 undefined 802.34 862.97 2.7394 135.00 0.0074074 802.34 862.97 2.7394 2.3271 3.2605 249.27 0.060155 17.965 0.053209 135.00 0.0074074 802.34 862.97 2.7394 2.3271 3.2605 249.27 0.060155 17.965 0.053209
194.38 1192.9 undefined 804.67 865.60 2.7444 135.00 0.0074074 804.67 865.60 2.7444 2.3302 3.2564 250.07 0.059587 17.994 0.053350 135.00 0.0074074 804.67 865.60 2.7444 2.3302 3.2564 250.07 0.059587 17.994 0.053350
195.38 1198.7 undefined 807.00 868.23 2.7494 135.00 0.0074074 807.00 868.23 2.7494 2.3334 3.2525 250.86 0.059027 18.024 0.053491 135.00 0.0074074 807.00 868.23 2.7494 2.3334 3.2525 250.86 0.059027 18.024 0.053491
196.38 1204.6 undefined 809.34 870.86 2.7543 135.00 0.0074074 809.34 870.86 2.7543 2.3365 3.2487 251.65 0.058474 18.054 0.053633 135.00 0.0074074 809.34 870.86 2.7543 2.3365 3.2487 251.65 0.058474 18.054 0.053633
197.38 1210.4 undefined 811.68 873.49 2.7593 135.00 0.0074074 811.68 873.49 2.7593 2.3397 3.2450 252.44 0.057928 18.083 0.053775 135.00 0.0074074 811.68 873.49 2.7593 2.3397 3.2450 252.44 0.057928 18.083 0.053775
198.38 1216.2 undefined 814.02 876.13 2.7643 135.00 0.0074074 814.02 876.13 2.7643 2.3429 3.2415 253.23 0.057390 18.113 0.053918 135.00 0.0074074 814.02 876.13 2.7643 2.3429 3.2415 253.23 0.057390 18.113 0.053918
199.38 1222.0 undefined 816.36 878.77 2.7692 135.00 0.0074074 816.36 878.77 2.7692 2.3461 3.2381 254.01 0.056860 18.142 0.054062 135.00 0.0074074 816.36 878.77 2.7692 2.3461 3.2381 254.01 0.056860 18.142 0.054062
200.38 1227.9 undefined 818.71 881.42 2.7742 135.00 0.0074074 818.71 881.42 2.7742 2.3492 3.2348 254.79 0.056336 18.172 0.054206 135.00 0.0074074 818.71 881.42 2.7742 2.3492 3.2348 254.79 0.056336 18.172 0.054206
201.38 1233.7 undefined 821.06 884.07 2.7792 135.00 0.0074074 821.06 884.07 2.7792 2.3524 3.2316 255.57 0.055819 18.201 0.054351 135.00 0.0074074 821.06 884.07 2.7792 2.3524 3.2316 255.57 0.055819 18.201 0.054351
202.38 1239.5 undefined 823.42 886.72 2.7841 135.00 0.0074074 823.42 886.72 2.7841 2.3556 3.2286 256.35 0.055309 18.231 0.054496 135.00 0.0074074 823.42 886.72 2.7841 2.3556 3.2286 256.35 0.055309 18.231 0.054496
203.38 1245.3 undefined 825.77 889.37 2.7891 135.00 0.0074074 825.77 889.37 2.7891 2.3588 3.2257 257.12 0.054806 18.260 0.054641 135.00 0.0074074 825.77 889.37 2.7891 2.3588 3.2257 257.12 0.054806 18.260 0.054641
204.38 1251.1 undefined 828.13 892.03 2.7940 135.00 0.0074074 828.13 892.03 2.7940 2.3620 3.2228 257.89 0.054309 18.290 0.054787 135.00 0.0074074 828.13 892.03 2.7940 2.3620 3.2228 257.89 0.054309 18.290 0.054787
205.38 1256.9 undefined 830.50 894.69 2.7990 135.00 0.0074074 830.50 894.69 2.7990 2.3652 3.2201 258.66 0.053819 18.319 0.054934 135.00 0.0074074 830.50 894.69 2.7990 2.3652 3.2201 258.66 0.053819 18.319 0.054934
206.38 1262.7 undefined 832.86 897.35 2.8039 135.00 0.0074074 832.86 897.35 2.8039 2.3685 3.2175 259.43 0.053335 18.348 0.055081 135.00 0.0074074 832.86 897.35 2.8039 2.3685 3.2175 259.43 0.053335 18.348 0.055081
207.38 1268.5 undefined 835.23 900.02 2.8088 135.00 0.0074074 835.23 900.02 2.8088 2.3717 3.2150 260.20 0.052857 18.378 0.055228 135.00 0.0074074 835.23 900.02 2.8088 2.3717 3.2150 260.20 0.052857 18.378 0.055228
208.38 1274.3 undefined 837.61 902.69 2.8138 135.00 0.0074074 837.61 902.69 2.8138 2.3749 3.2126 260.96 0.052386 18.407 0.055376 135.00 0.0074074 837.61 902.69 2.8138 2.3749 3.2126 260.96 0.052386 18.407 0.055376
209.38 1280.1 undefined 839.98 905.36 2.8187 135.00 0.0074074 839.98 905.36 2.8187 2.3781 3.2103 261.72 0.051920 18.436 0.055525 135.00 0.0074074 839.98 905.36 2.8187 2.3781 3.2103 261.72 0.051920 18.436 0.055525
210.38 1285.9 undefined 842.36 908.04 2.8236 135.00 0.0074074 842.36 908.04 2.8236 2.3814 3.2081 262.48 0.051460 18.465 0.055673 135.00 0.0074074 842.36 908.04 2.8236 2.3814 3.2081 262.48 0.051460 18.465 0.055673
211.38 1291.7 undefined 844.75 910.71 2.8286 135.00 0.0074074 844.75 910.71 2.8286 2.3846 3.2060 263.24 0.051007 18.494 0.055823 135.00 0.0074074 844.75 910.71 2.8286 2.3846 3.2060 263.24 0.051007 18.494 0.055823
212.38 1297.4 undefined 847.13 913.40 2.8335 135.00 0.0074074 847.13 913.40 2.8335 2.3878 3.2039 263.99 0.050558 18.523 0.055972 135.00 0.0074074 847.13 913.40 2.8335 2.3878 3.2039 263.99 0.050558 18.523 0.055972
213.38 1303.2 undefined 849.52 916.08 2.8384 135.00 0.0074074 849.52 916.08 2.8384 2.3911 3.2020 264.74 0.050116 18.552 0.056122 135.00 0.0074074 849.52 916.08 2.8384 2.3911 3.2020 264.74 0.050116 18.552 0.056122
214.38 1309.0 undefined 851.91 918.77 2.8433 135.00 0.0074074 851.91 918.77 2.8433 2.3943 3.2002 265.49 0.049679 18.581 0.056273 135.00 0.0074074 851.91 918.77 2.8433 2.3943 3.2002 265.49 0.049679 18.581 0.056273
215.38 1314.8 undefined 854.31 921.46 2.8482 135.00 0.0074074 854.31 921.46 2.8482 2.3976 3.1984 266.24 0.049247 18.610 0.056424 135.00 0.0074074 854.31 921.46 2.8482 2.3976 3.1984 266.24 0.049247 18.610 0.056424
216.38 1320.6 undefined 856.71 924.15 2.8531 135.00 0.0074074 856.71 924.15 2.8531 2.4008 3.1967 266.99 0.048821 18.639 0.056575 135.00 0.0074074 856.71 924.15 2.8531 2.4008 3.1967 266.99 0.048821 18.639 0.056575
217.38 1326.3 undefined 859.11 926.85 2.8580 135.00 0.0074074 859.11 926.85 2.8580 2.4041 3.1951 267.73 0.048400 18.668 0.056727 135.00 0.0074074 859.11 926.85 2.8580 2.4041 3.1951 267.73 0.048400 18.668 0.056727
218.38 1332.1 undefined 861.52 929.55 2.8629 135.00 0.0074074 861.52 929.55 2.8629 2.4074 3.1936 268.47 0.047984 18.697 0.056879 135.00 0.0074074 861.52 929.55 2.8629 2.4074 3.1936 268.47 0.047984 18.697 0.056879
219.38 1337.9 undefined 863.93 932.26 2.8678 135.00 0.0074074 863.93 932.26 2.8678 2.4106 3.1921 269.21 0.047574 18.726 0.057032 135.00 0.0074074 863.93 932.26 2.8678 2.4106 3.1921 269.21 0.047574 18.726 0.057032
220.38 1343.7 undefined 866.34 934.96 2.8727 135.00 0.0074074 866.34 934.96 2.8727 2.4139 3.1908 269.95 0.047168 18.755 0.057185 135.00 0.0074074 866.34 934.96 2.8727 2.4139 3.1908 269.95 0.047168 18.755 0.057185
221.38 1349.4 undefined 868.75 937.67 2.8776 135.00 0.0074074 868.75 937.67 2.8776 2.4172 3.1895 270.69 0.046767 18.784 0.057338 135.00 0.0074074 868.75 937.67 2.8776 2.4172 3.1895 270.69 0.046767 18.784 0.057338
222.38 1355.2 undefined 871.17 940.39 2.8825 135.00 0.0074074 871.17 940.39 2.8825 2.4204 3.1882 271.42 0.046371 18.812 0.057492 135.00 0.0074074 871.17 940.39 2.8825 2.4204 3.1882 271.42 0.046371 18.812 0.057492
223.38 1361.0 undefined 873.60 943.10 2.8874 135.00 0.0074074 873.60 943.10 2.8874 2.4237 3.1871 272.15 0.045980 18.841 0.057646 135.00 0.0074074 873.60 943.10 2.8874 2.4237 3.1871 272.15 0.045980 18.841 0.057646
224.38 1366.7 undefined 876.02 945.82 2.8923 135.00 0.0074074 876.02 945.82 2.8923 2.4270 3.1860 272.88 0.045593 18.870 0.057801 135.00 0.0074074 876.02 945.82 2.8923 2.4270 3.1860 272.88 0.045593 18.870 0.057801
225.38 1372.5 undefined 878.45 948.54 2.8971 135.00 0.0074074 878.45 948.54 2.8971 2.4303 3.1850 273.61 0.045211 18.898 0.057956 135.00 0.0074074 878.45 948.54 2.8971 2.4303 3.1850 273.61 0.045211 18.898 0.057956
226.38 1378.2 undefined 880.88 951.27 2.9020 135.00 0.0074074 880.88 951.27 2.9020 2.4336 3.1840 274.34 0.044834 18.927 0.058111 135.00 0.0074074 880.88 951.27 2.9020 2.4336 3.1840 274.34 0.044834 18.927 0.058111
227.38 1384.0 undefined 883.32 954.00 2.9069 135.00 0.0074074 883.32 954.00 2.9069 2.4368 3.1831 275.06 0.044461 18.956 0.058267 135.00 0.0074074 883.32 954.00 2.9069 2.4368 3.1831 275.06 0.044461 18.956 0.058267
228.38 1389.7 undefined 885.75 956.73 2.9117 135.00 0.0074074 885.75 956.73 2.9117 2.4401 3.1823 275.78 0.044092 18.984 0.058423 135.00 0.0074074 885.75 956.73 2.9117 2.4401 3.1823 275.78 0.044092 18.984 0.058423
229.38 1395.5 undefined 888.20 959.47 2.9166 135.00 0.0074074 888.20 959.47 2.9166 2.4434 3.1815 276.50 0.043728 19.013 0.058579 135.00 0.0074074 888.20 959.47 2.9166 2.4434 3.1815 276.50 0.043728 19.013 0.058579
230.38 1401.2 undefined 890.64 962.21 2.9215 135.00 0.0074074 890.64 962.21 2.9215 2.4467 3.1808 277.22 0.043368 19.041 0.058736 135.00 0.0074074 890.64 962.21 2.9215 2.4467 3.1808 277.22 0.043368 19.041 0.058736
231.38 1407.0 undefined 893.09 964.95 2.9263 135.00 0.0074074 893.09 964.95 2.9263 2.4500 3.1802 277.94 0.043012 19.070 0.058893 135.00 0.0074074 893.09 964.95 2.9263 2.4500 3.1802 277.94 0.043012 19.070 0.058893
232.38 1412.7 undefined 895.54 967.69 2.9312 135.00 0.0074074 895.54 967.69 2.9312 2.4533 3.1796 278.65 0.042660 19.098 0.059051 135.00 0.0074074 895.54 967.69 2.9312 2.4533 3.1796 278.65 0.042660 19.098 0.059051
233.38 1418.5 undefined 898.00 970.44 2.9360 135.00 0.0074074 898.00 970.44 2.9360 2.4566 3.1790 279.37 0.042312 19.126 0.059208 135.00 0.0074074 898.00 970.44 2.9360 2.4566 3.1790 279.37 0.042312 19.126 0.059208
234.38 1424.2 undefined 900.46 973.19 2.9409 135.00 0.0074074 900.46 973.19 2.9409 2.4599 3.1785 280.08 0.041968 19.155 0.059367 135.00 0.0074074 900.46 973.19 2.9409 2.4599 3.1785 280.08 0.041968 19.155 0.059367
235.38 1430.0 undefined 902.92 975.95 2.9457 135.00 0.0074074 902.92 975.95 2.9457 2.4632 3.1781 280.79 0.041629 19.183 0.059525 135.00 0.0074074 902.92 975.95 2.9457 2.4632 3.1781 280.79 0.041629 19.183 0.059525
236.38 1435.7 undefined 905.38 978.71 2.9506 135.00 0.0074074 905.38 978.71 2.9506 2.4665 3.1778 281.49 0.041293 19.211 0.059684 135.00 0.0074074 905.38 978.71 2.9506 2.4665 3.1778 281.49 0.041293 19.211 0.059684
237.38 1441.4 undefined 907.85 981.47 2.9554 135.00 0.0074074 907.85 981.47 2.9554 2.4698 3.1774 282.20 0.040961 19.240 0.059843 135.00 0.0074074 907.85 981.47 2.9554 2.4698 3.1774 282.20 0.040961 19.240 0.059843
238.38 1447.2 undefined 910.32 984.23 2.9602 135.00 0.0074074 910.32 984.23 2.9602 2.4731 3.1772 282.90 0.040632 19.268 0.060002 135.00 0.0074074 910.32 984.23 2.9602 2.4731 3.1772 282.90 0.040632 19.268 0.060002
239.38 1452.9 undefined 912.80 987.00 2.9651 135.00 0.0074074 912.80 987.00 2.9651 2.4764 3.1769 283.61 0.040308 19.296 0.060162 135.00 0.0074074 912.80 987.00 2.9651 2.4764 3.1769 283.61 0.040308 19.296 0.060162
240.38 1458.6 undefined 915.27 989.77 2.9699 135.00 0.0074074 915.27 989.77 2.9699 2.4798 3.1768 284.31 0.039986 19.324 0.060322 135.00 0.0074074 915.27 989.77 2.9699 2.4798 3.1768 284.31 0.039986 19.324 0.060322
241.38 1464.4 undefined 917.76 992.54 2.9747 135.00 0.0074074 917.76 992.54 2.9747 2.4831 3.1766 285.01 0.039669 19.352 0.060483 135.00 0.0074074 917.76 992.54 2.9747 2.4831 3.1766 285.01 0.039669 19.352 0.060483
242.38 1470.1 undefined 920.24 995.32 2.9796 135.00 0.0074074 920.24 995.32 2.9796 2.4864 3.1766 285.70 0.039355 19.380 0.060643 135.00 0.0074074 920.24 995.32 2.9796 2.4864 3.1766 285.70 0.039355 19.380 0.060643
243.38 1475.8 undefined 922.73 998.10 2.9844 135.00 0.0074074 922.73 998.10 2.9844 2.4897 3.1765 286.40 0.039045 19.408 0.060804 135.00 0.0074074 922.73 998.10 2.9844 2.4897 3.1765 286.40 0.039045 19.408 0.060804
244.38 1481.5 undefined 925.22 1000.9 2.9892 135.00 0.0074074 925.22 1000.9 2.9892 2.4930 3.1765 287.09 0.038738 19.436 0.060965 135.00 0.0074074 925.22 1000.9 2.9892 2.4930 3.1765 287.09 0.038738 19.436 0.060965
245.38 1487.3 undefined 927.71 1003.7 2.9940 135.00 0.0074074 927.71 1003.7 2.9940 2.4963 3.1766 287.78 0.038434 19.464 0.061127 135.00 0.0074074 927.71 1003.7 2.9940 2.4963 3.1766 287.78 0.038434 19.464 0.061127
246.38 1493.0 undefined 930.21 1006.5 2.9988 135.00 0.0074074 930.21 1006.5 2.9988 2.4996 3.1767 288.47 0.038134 19.492 0.061289 135.00 0.0074074 930.21 1006.5 2.9988 2.4996 3.1767 288.47 0.038134 19.492 0.061289
247.38 1498.7 undefined 932.71 1009.3 3.0036 135.00 0.0074074 932.71 1009.3 3.0036 2.5029 3.1768 289.16 0.037836 19.520 0.061451 135.00 0.0074074 932.71 1009.3 3.0036 2.5029 3.1768 289.16 0.037836 19.520 0.061451
248.38 1504.4 undefined 935.22 1012.1 3.0084 135.00 0.0074074 935.22 1012.1 3.0084 2.5063 3.1770 289.85 0.037543 19.548 0.061613 135.00 0.0074074 935.22 1012.1 3.0084 2.5063 3.1770 289.85 0.037543 19.548 0.061613
249.38 1510.1 undefined 937.73 1014.9 3.0132 135.00 0.0074074 937.73 1014.9 3.0132 2.5096 3.1772 290.53 0.037252 19.576 0.061776 135.00 0.0074074 937.73 1014.9 3.0132 2.5096 3.1772 290.53 0.037252 19.576 0.061776
250.38 1515.8 undefined 940.24 1017.7 3.0180 135.00 0.0074074 940.24 1017.7 3.0180 2.5129 3.1775 291.22 0.036964 19.604 0.061939 135.00 0.0074074 940.24 1017.7 3.0180 2.5129 3.1775 291.22 0.036964 19.604 0.061939
251.38 1521.6 undefined 942.75 1020.5 3.0228 135.00 0.0074074 942.75 1020.5 3.0228 2.5162 3.1778 291.90 0.036680 19.632 0.062102 135.00 0.0074074 942.75 1020.5 3.0228 2.5162 3.1778 291.90 0.036680 19.632 0.062102
252.38 1527.3 undefined 945.27 1023.3 3.0276 135.00 0.0074074 945.27 1023.3 3.0276 2.5195 3.1781 292.58 0.036399 19.659 0.062265 135.00 0.0074074 945.27 1023.3 3.0276 2.5195 3.1781 292.58 0.036399 19.659 0.062265
253.38 1533.0 undefined 947.79 1026.1 3.0324 135.00 0.0074074 947.79 1026.1 3.0324 2.5228 3.1785 293.26 0.036120 19.687 0.062429 135.00 0.0074074 947.79 1026.1 3.0324 2.5228 3.1785 293.26 0.036120 19.687 0.062429
254.38 1538.7 undefined 950.32 1028.9 3.0372 135.00 0.0074074 950.32 1028.9 3.0372 2.5262 3.1789 293.94 0.035845 19.715 0.062592 135.00 0.0074074 950.32 1028.9 3.0372 2.5262 3.1789 293.94 0.035845 19.715 0.062592
255.38 1544.4 undefined 952.84 1031.7 3.0420 135.00 0.0074074 952.84 1031.7 3.0420 2.5295 3.1794 294.61 0.035572 19.742 0.062756 135.00 0.0074074 952.84 1031.7 3.0420 2.5295 3.1794 294.61 0.035572 19.742 0.062756
256.38 1550.1 undefined 955.37 1034.5 3.0468 135.00 0.0074074 955.37 1034.5 3.0468 2.5328 3.1799 295.29 0.035303 19.770 0.062920 135.00 0.0074074 955.37 1034.5 3.0468 2.5328 3.1799 295.29 0.035303 19.770 0.062920
257.38 1555.8 undefined 957.91 1037.4 3.0516 135.00 0.0074074 957.91 1037.4 3.0516 2.5361 3.1804 295.96 0.035036 19.798 0.063085 135.00 0.0074074 957.91 1037.4 3.0516 2.5361 3.1804 295.96 0.035036 19.798 0.063085
258.38 1561.5 undefined 960.45 1040.2 3.0564 135.00 0.0074074 960.45 1040.2 3.0564 2.5394 3.1809 296.63 0.034772 19.825 0.063249 135.00 0.0074074 960.45 1040.2 3.0564 2.5394 3.1809 296.63 0.034772 19.825 0.063249
259.38 1567.2 undefined 962.99 1043.0 3.0611 135.00 0.0074074 962.99 1043.0 3.0611 2.5428 3.1815 297.30 0.034511 19.853 0.063414 135.00 0.0074074 962.99 1043.0 3.0611 2.5428 3.1815 297.30 0.034511 19.853 0.063414
260.38 1572.9 undefined 965.53 1045.9 3.0659 135.00 0.0074074 965.53 1045.9 3.0659 2.5461 3.1821 297.97 0.034252 19.880 0.063579 135.00 0.0074074 965.53 1045.9 3.0659 2.5461 3.1821 297.97 0.034252 19.880 0.063579
261.38 1578.6 undefined 968.08 1048.7 3.0707 135.00 0.0074074 968.08 1048.7 3.0707 2.5494 3.1828 298.63 0.033996 19.908 0.063744 135.00 0.0074074 968.08 1048.7 3.0707 2.5494 3.1828 298.63 0.033996 19.908 0.063744
262.38 1584.3 undefined 970.63 1051.5 3.0754 135.00 0.0074074 970.63 1051.5 3.0754 2.5527 3.1834 299.30 0.033743 19.935 0.063909 135.00 0.0074074 970.63 1051.5 3.0754 2.5527 3.1834 299.30 0.033743 19.935 0.063909
263.38 1590.0 undefined 973.19 1054.4 3.0802 135.00 0.0074074 973.19 1054.4 3.0802 2.5560 3.1842 299.96 0.033492 19.962 0.064074 135.00 0.0074074 973.19 1054.4 3.0802 2.5560 3.1842 299.96 0.033492 19.962 0.064074
264.38 1595.7 undefined 975.74 1057.2 3.0850 135.00 0.0074074 975.74 1057.2 3.0850 2.5593 3.1849 300.63 0.033244 19.990 0.064239 135.00 0.0074074 975.74 1057.2 3.0850 2.5593 3.1849 300.63 0.033244 19.990 0.064239
265.38 1601.4 undefined 978.30 1060.1 3.0897 135.00 0.0074074 978.30 1060.1 3.0897 2.5627 3.1857 301.29 0.032999 20.017 0.064404 135.00 0.0074074 978.30 1060.1 3.0897 2.5627 3.1857 301.29 0.032999 20.017 0.064404
266.38 1607.1 undefined 980.87 1062.9 3.0945 135.00 0.0074074 980.87 1062.9 3.0945 2.5660 3.1865 301.95 0.032756 20.044 0.064569 135.00 0.0074074 980.87 1062.9 3.0945 2.5660 3.1865 301.95 0.032756 20.044 0.064569
267.38 1612.7 undefined 983.44 1065.8 3.0992 135.00 0.0074074 983.44 1065.8 3.0992 2.5693 3.1873 302.60 0.032515 20.072 0.064734 135.00 0.0074074 983.44 1065.8 3.0992 2.5693 3.1873 302.60 0.032515 20.072 0.064734
268.38 1618.4 undefined 986.01 1068.7 3.1040 135.00 0.0074074 986.01 1068.7 3.1040 2.5726 3.1881 303.26 0.032277 20.099 0.064899 135.00 0.0074074 986.01 1068.7 3.1040 2.5726 3.1881 303.26 0.032277 20.099 0.064899
269.38 1624.1 undefined 988.58 1071.5 3.1087 135.00 0.0074074 988.58 1071.5 3.1087 2.5759 3.1890 303.91 0.032041 20.126 0.065064 135.00 0.0074074 988.58 1071.5 3.1087 2.5759 3.1890 303.91 0.032041 20.126 0.065064
270.38 1629.8 undefined 991.16 1074.4 3.1135 135.00 0.0074074 991.16 1074.4 3.1135 2.5792 3.1899 304.57 0.031808 20.153 0.065229 135.00 0.0074074 991.16 1074.4 3.1135 2.5792 3.1899 304.57 0.031808 20.153 0.065229
271.38 1635.5 undefined 993.74 1077.3 3.1182 135.00 0.0074074 993.74 1077.3 3.1182 2.5825 3.1909 305.22 0.031577 20.181 0.065393 135.00 0.0074074 993.74 1077.3 3.1182 2.5825 3.1909 305.22 0.031577 20.181 0.065393
272.38 1641.2 undefined 996.32 1080.1 3.1230 135.00 0.0074074 996.32 1080.1 3.1230 2.5859 3.1918 305.87 0.031348 20.208 0.065557 135.00 0.0074074 996.32 1080.1 3.1230 2.5859 3.1918 305.87 0.031348 20.208 0.065557
273.38 1646.9 undefined 998.91 1083.0 3.1277 135.00 0.0074074 998.91 1083.0 3.1277 2.5892 3.1928 306.52 0.031122 20.235 0.065721 135.00 0.0074074 998.91 1083.0 3.1277 2.5892 3.1928 306.52 0.031122 20.235 0.065721
274.38 1652.5 undefined 1001.5 1085.9 3.1325 135.00 0.0074074 1001.5 1085.9 3.1325 2.5925 3.1938 307.17 0.030898 20.262 0.065884 135.00 0.0074074 1001.5 1085.9 3.1325 2.5925 3.1938 307.17 0.030898 20.262 0.065884
275.38 1658.2 undefined 1004.1 1088.8 3.1372 135.00 0.0074074 1004.1 1088.8 3.1372 2.5958 3.1949 307.81 0.030676 20.289 0.066045 135.00 0.0074074 1004.1 1088.8 3.1372 2.5958 3.1949 307.81 0.030676 20.289 0.066045
276.38 1663.9 undefined 1006.7 1091.7 3.1419 135.00 0.0074074 1006.7 1091.7 3.1419 2.5991 3.1959 308.46 0.030456 20.316 0.066206 135.00 0.0074074 1006.7 1091.7 3.1419 2.5991 3.1959 308.46 0.030456 20.316 0.066206
277.38 1669.6 undefined 1009.3 1094.6 3.1466 135.00 0.0074074 1009.3 1094.6 3.1466 2.6024 3.1970 309.10 0.030238 20.343 0.066365 135.00 0.0074074 1009.3 1094.6 3.1466 2.6024 3.1970 309.10 0.030238 20.343 0.066365
278.38 1675.2 undefined 1011.9 1097.5 3.1514 135.00 0.0074074 1011.9 1097.5 3.1514 2.6057 3.1981 309.74 0.030023 20.370 0.066521 135.00 0.0074074 1011.9 1097.5 3.1514 2.6057 3.1981 309.74 0.030023 20.370 0.066521
279.38 1680.9 undefined 1014.5 1100.4 3.1561 135.00 0.0074074 1014.5 1100.4 3.1561 2.6090 3.1992 310.38 0.029809 20.397 0.066674 135.00 0.0074074 1014.5 1100.4 3.1561 2.6090 3.1992 310.38 0.029809 20.397 0.066674
280.38 1686.6 undefined 1017.1 1103.3 3.1608 135.00 0.0074074 1017.1 1103.3 3.1608 2.6123 3.2004 311.02 0.029598 20.423 0.066818 135.00 0.0074074 1017.1 1103.3 3.1608 2.6123 3.2004 311.02 0.029598 20.423 0.066818
281.38 1692.3 undefined 1019.7 1106.2 3.1655 135.00 0.0074074 1019.7 1106.2 3.1655 2.6156 3.2015 311.66 0.029388 20.450 0.066938 135.00 0.0074074 1019.7 1106.2 3.1655 2.6156 3.2015 311.66 0.029388 20.450 0.066938
282.38 1697.9 undefined 1022.3 1109.1 3.1702 135.00 0.0074074 1022.3 1109.1 3.1702 2.6189 3.2027 312.30 0.029181 20.477 0.067077 135.00 0.0074074 1022.3 1109.1 3.1702 2.6189 3.2027 312.30 0.029181 20.477 0.067077
283.38 1703.6 undefined 1025.0 1112.0 3.1750 135.00 0.0074074 1025.0 1112.0 3.1750 2.6222 3.2039 312.93 0.028976 20.504 0.067262 135.00 0.0074074 1025.0 1112.0 3.1750 2.6222 3.2039 312.93 0.028976 20.504 0.067262
284.38 1709.3 undefined 1027.6 1114.9 3.1797 135.00 0.0074074 1027.6 1114.9 3.1797 2.6255 3.2052 313.57 0.028772 20.531 0.067446 135.00 0.0074074 1027.6 1114.9 3.1797 2.6255 3.2052 313.57 0.028772 20.531 0.067446
285.38 1714.9 undefined 1030.2 1117.8 3.1844 135.00 0.0074074 1030.2 1117.8 3.1844 2.6288 3.2064 314.20 0.028571 20.557 0.067631 135.00 0.0074074 1030.2 1117.8 3.1844 2.6288 3.2064 314.20 0.028571 20.557 0.067631
286.38 1720.6 undefined 1032.8 1120.7 3.1891 135.00 0.0074074 1032.8 1120.7 3.1891 2.6321 3.2077 314.83 0.028371 20.584 0.067817 135.00 0.0074074 1032.8 1120.7 3.1891 2.6321 3.2077 314.83 0.028371 20.584 0.067817
287.38 1726.2 undefined 1035.5 1123.6 3.1938 135.00 0.0074074 1035.5 1123.6 3.1938 2.6354 3.2090 315.46 0.028174 20.611 0.068002 135.00 0.0074074 1035.5 1123.6 3.1938 2.6354 3.2090 315.46 0.028174 20.611 0.068002
288.38 1731.9 undefined 1038.1 1126.6 3.1985 135.00 0.0074074 1038.1 1126.6 3.1985 2.6387 3.2103 316.09 0.027978 20.637 0.068188 135.00 0.0074074 1038.1 1126.6 3.1985 2.6387 3.2103 316.09 0.027978 20.637 0.068188
289.38 1737.6 undefined 1040.8 1129.5 3.2032 135.00 0.0074074 1040.8 1129.5 3.2032 2.6420 3.2116 316.72 0.027784 20.664 0.068374 135.00 0.0074074 1040.8 1129.5 3.2032 2.6420 3.2116 316.72 0.027784 20.664 0.068374
290.38 1743.2 undefined 1043.4 1132.4 3.2079 135.00 0.0074074 1043.4 1132.4 3.2079 2.6453 3.2130 317.34 0.027592 20.690 0.068561 135.00 0.0074074 1043.4 1132.4 3.2079 2.6453 3.2130 317.34 0.027592 20.690 0.068561
291.38 1748.9 undefined 1046.1 1135.4 3.2126 135.00 0.0074074 1046.1 1135.4 3.2126 2.6485 3.2143 317.97 0.027402 20.717 0.068748 135.00 0.0074074 1046.1 1135.4 3.2126 2.6485 3.2143 317.97 0.027402 20.717 0.068748
292.38 1754.5 undefined 1048.7 1138.3 3.2173 135.00 0.0074074 1048.7 1138.3 3.2173 2.6518 3.2157 318.59 0.027213 20.743 0.068935 135.00 0.0074074 1048.7 1138.3 3.2173 2.6518 3.2157 318.59 0.027213 20.743 0.068935
293.38 1760.2 undefined 1051.4 1141.3 3.2220 135.00 0.0074074 1051.4 1141.3 3.2220 2.6551 3.2171 319.21 0.027027 20.770 0.069122 135.00 0.0074074 1051.4 1141.3 3.2220 2.6551 3.2171 319.21 0.027027 20.770 0.069122
294.38 1765.9 undefined 1054.0 1144.2 3.2266 135.00 0.0074074 1054.0 1144.2 3.2266 2.6584 3.2186 319.84 0.026842 20.796 0.069309 135.00 0.0074074 1054.0 1144.2 3.2266 2.6584 3.2186 319.84 0.026842 20.796 0.069309
295.38 1771.5 undefined 1056.7 1147.1 3.2313 135.00 0.0074074 1056.7 1147.1 3.2313 2.6617 3.2200 320.46 0.026658 20.823 0.069497 135.00 0.0074074 1056.7 1147.1 3.2313 2.6617 3.2200 320.46 0.026658 20.823 0.069497
296.38 1777.2 undefined 1059.3 1150.1 3.2360 135.00 0.0074074 1059.3 1150.1 3.2360 2.6649 3.2214 321.07 0.026477 20.849 0.069686 135.00 0.0074074 1059.3 1150.1 3.2360 2.6649 3.2214 321.07 0.026477 20.849 0.069686
297.38 1782.8 undefined 1062.0 1153.1 3.2407 135.00 0.0074074 1062.0 1153.1 3.2407 2.6682 3.2229 321.69 0.026297 20.875 0.069874 135.00 0.0074074 1062.0 1153.1 3.2407 2.6682 3.2229 321.69 0.026297 20.875 0.069874
298.38 1788.5 undefined 1064.7 1156.0 3.2454 135.00 0.0074074 1064.7 1156.0 3.2454 2.6715 3.2244 322.31 0.026118 20.902 0.070063 135.00 0.0074074 1064.7 1156.0 3.2454 2.6715 3.2244 322.31 0.026118 20.902 0.070063
299.38 1794.1 undefined 1067.3 1159.0 3.2500 135.00 0.0074074 1067.3 1159.0 3.2500 2.6748 3.2259 322.92 0.025942 20.928 0.070252 135.00 0.0074074 1067.3 1159.0 3.2500 2.6748 3.2259 322.92 0.025942 20.928 0.070252
300.38 1799.8 undefined 1070.0 1161.9 3.2547 135.00 0.0074074 1070.0 1161.9 3.2547 2.6780 3.2274 323.54 0.025767 20.954 0.070441 135.00 0.0074074 1070.0 1161.9 3.2547 2.6780 3.2274 323.54 0.025767 20.954 0.070441