Temperature (C) Pressure (psia) Quality (l+v) Internal Energy (l+v, kJ/kg) Enthalpy (l+v, kJ/kg) Entropy (l+v, J/g*K) Density (l, kg/m3) Volume (l, m3/kg) Internal Energy (l, kJ/kg) Enthalpy (l, kJ/kg) Entropy (l, J/g*K) Cv (l, J/g*K) Cp (l, J/g*K) Sound Spd. (l, m/s) Joule-Thomson (l, F/psia) Viscosity (l, uPa*s) Therm. Cond. (l, W/m*K) Density (v, kg/m3) Volume (v, m3/kg) Internal Energy (v, kJ/kg) Enthalpy (v, kJ/kg) Entropy (v, J/g*K) Cv (v, J/g*K) Cp (v, J/g*K) Sound Spd. (v, m/s) Joule-Thomson (v, F/psia) Viscosity (v, uPa*s) Therm. Cond. (v, W/m*K)
-187.62 2.4953e-08 5.4278e-11 -196.64 -196.64 -1.3959 733.13 0.0013640 -196.64 -196.64 -1.3959 1.3553 1.9158 2136.4 -0.0077592 10960. 0.20792 1.0669e-08 9.3732e+07 350.13 366.26 5.1858 0.69067 0.87923 143.28 6.1051 2.3259 0.0017061
-186.62 3.7339e-08 8.0251e-11 -194.73 -194.73 -1.3736 732.08 0.0013660 -194.73 -194.73 -1.3736 1.3539 1.9166 2129.6 -0.0077546 10073. 0.20765 1.5780e-08 6.3371e+07 350.82 367.14 5.1200 0.69462 0.88317 144.03 5.9178 2.3534 0.0017533
-185.62 5.5322e-08 1.1750e-10 -192.81 -192.81 -1.3516 731.04 0.0013679 -192.81 -192.81 -1.3516 1.3525 1.9174 2122.9 -0.0077498 9276.1 0.20737 2.3112e-08 4.3267e+07 351.52 368.02 5.0561 0.69857 0.88713 144.77 5.7383 2.3808 0.0018007
-184.62 8.1182e-08 1.7041e-10 -190.89 -190.89 -1.3298 730.00 0.0013699 -190.89 -190.89 -1.3298 1.3513 1.9182 2116.1 -0.0077448 8557.8 0.20708 3.3533e-08 2.9821e+07 352.22 368.91 4.9939 0.70253 0.89108 145.51 5.5662 2.4083 0.0018485
-183.62 1.1803e-07 2.4490e-10 -188.97 -188.97 -1.3083 728.96 0.0013718 -188.97 -188.97 -1.3083 1.3501 1.9191 2109.3 -0.0077395 7909.8 0.20678 4.8211e-08 2.0742e+07 352.92 369.81 4.9333 0.70648 0.89504 146.24 5.4011 2.4357 0.0018965
-182.62 1.7009e-07 3.4887e-10 -187.05 -187.05 -1.2869 727.92 0.0013738 -187.05 -187.05 -1.2869 1.3490 1.9201 2102.5 -0.0077340 7324.3 0.20647 6.8704e-08 1.4555e+07 353.63 370.70 4.8744 0.71043 0.89899 146.97 5.2426 2.4632 0.0019448
-181.62 2.4299e-07 4.9276e-10 -185.13 -185.13 -1.2658 726.88 0.0013757 -185.13 -185.13 -1.2658 1.3480 1.9210 2095.7 -0.0077283 6794.5 0.20616 9.7079e-08 1.0301e+07 354.35 371.60 4.8170 0.71438 0.90294 147.69 5.0904 2.4906 0.0019934
-180.62 3.4425e-07 6.9029e-10 -183.21 -183.21 -1.2450 725.85 0.0013777 -183.21 -183.21 -1.2450 1.3470 1.9220 2088.9 -0.0077225 6314.4 0.20584 1.3605e-07 7.3504e+06 355.06 372.51 4.7612 0.71833 0.90688 148.41 4.9442 2.5181 0.0020423
-179.62 4.8378e-07 9.5935e-10 -181.29 -181.29 -1.2243 724.81 0.0013797 -181.29 -181.29 -1.2243 1.3461 1.9231 2082.0 -0.0077164 5878.8 0.20551 1.8915e-07 5.2868e+06 355.78 373.42 4.7068 0.72227 0.91082 149.13 4.8038 2.5456 0.0020915
-178.62 6.7459e-07 1.3231e-09 -179.37 -179.37 -1.2038 723.78 0.0013816 -179.37 -179.37 -1.2038 1.3453 1.9241 2075.2 -0.0077102 5482.9 0.20517 2.6096e-07 3.8320e+06 356.51 374.33 4.6538 0.72620 0.91475 149.84 4.6688 2.5731 0.0021410
-177.62 9.3358e-07 1.8111e-09 -177.44 -177.44 -1.1836 722.75 0.0013836 -177.44 -177.44 -1.1836 1.3445 1.9252 2068.4 -0.0077039 5122.6 0.20483 3.5737e-07 2.7982e+06 357.23 375.25 4.6022 0.73012 0.91867 150.54 4.5390 2.6005 0.0021907
-176.62 1.2826e-06 2.4615e-09 -175.52 -175.52 -1.1635 721.72 0.0013856 -175.52 -175.52 -1.1635 1.3437 1.9263 2061.5 -0.0076973 4794.1 0.20447 4.8588e-07 2.0581e+06 357.97 376.17 4.5519 0.73403 0.92258 151.25 4.4142 2.6280 0.0022408
-175.62 1.7496e-06 3.3221e-09 -173.59 -173.59 -1.1437 720.69 0.0013876 -173.59 -173.59 -1.1437 1.3430 1.9274 2054.7 -0.0076907 4494.3 0.20411 6.5601e-07 1.5244e+06 358.70 377.09 4.5029 0.73792 0.92648 151.95 4.2941 2.6555 0.0022912
-174.62 2.3705e-06 4.4534e-09 -171.66 -171.66 -1.1240 719.66 0.0013895 -171.66 -171.66 -1.1240 1.3423 1.9286 2047.9 -0.0076838 4220.2 0.20375 8.7976e-07 1.1367e+06 359.44 378.02 4.4551 0.74181 0.93036 152.64 4.1784 2.6830 0.0023418
-173.62 3.1903e-06 5.9311e-09 -169.73 -169.73 -1.1045 718.64 0.0013915 -169.73 -169.73 -1.1045 1.3417 1.9298 2041.0 -0.0076769 3969.3 0.20338 1.1721e-06 8.5314e+05 360.19 378.95 4.4085 0.74568 0.93423 153.33 4.0671 2.7105 0.0023928
-172.62 4.2661e-06 7.8492e-09 -167.80 -167.80 -1.0852 717.61 0.0013935 -167.80 -167.80 -1.0852 1.3411 1.9310 2034.2 -0.0076698 3739.3 0.20300 1.5518e-06 6.4441e+05 360.93 379.89 4.3631 0.74953 0.93809 154.02 3.9599 2.7379 0.0024440
-171.62 5.6692e-06 1.0324e-08 -165.87 -165.87 -1.0661 716.58 0.0013955 -165.87 -165.87 -1.0661 1.3405 1.9322 2027.3 -0.0076625 3528.0 0.20261 2.0419e-06 4.8974e+05 361.69 380.83 4.3188 0.75337 0.94193 154.71 3.8566 2.7654 0.0024955
-170.62 7.4884e-06 1.3498e-08 -163.94 -163.94 -1.0472 715.56 0.0013975 -163.94 -163.94 -1.0472 1.3400 1.9334 2020.5 -0.0076552 3333.8 0.20222 2.6708e-06 3.7442e+05 362.44 381.77 4.2755 0.75720 0.94575 155.39 3.7570 2.7929 0.0025473
-169.62 9.8334e-06 1.7547e-08 -162.00 -162.00 -1.0284 714.54 0.0013995 -162.00 -162.00 -1.0284 1.3395 1.9347 2013.6 -0.0076477 3154.9 0.20182 3.4733e-06 2.8791e+05 363.20 382.72 4.2334 0.76100 0.94956 156.07 3.6609 2.8204 0.0025994
-168.62 1.2839e-05 2.2683e-08 -160.07 -160.07 -1.0098 713.52 0.0014015 -160.07 -160.07 -1.0098 1.3390 1.9359 2006.8 -0.0076401 2989.9 0.20141 4.4917e-06 2.2263e+05 363.96 383.67 4.1922 0.76479 0.95335 156.74 3.5683 2.8479 0.0026518
-167.62 1.6672e-05 2.9164e-08 -158.13 -158.13 -0.99134 712.49 0.0014035 -158.13 -158.13 -0.99134 1.3386 1.9372 2000.0 -0.0076323 2837.5 0.20100 5.7771e-06 1.7310e+05 364.73 384.63 4.1521 0.76856 0.95712 157.41 3.4790 2.8754 0.0027045
-166.62 2.1533e-05 3.7298e-08 -156.19 -156.19 -0.97306 711.47 0.0014055 -156.19 -156.19 -0.97306 1.3382 1.9385 1993.1 -0.0076245 2696.5 0.20058 7.3914e-06 1.3529e+05 365.50 385.59 4.1129 0.77232 0.96087 158.08 3.3927 2.9029 0.0027575
-165.62 2.7666e-05 4.7457e-08 -154.25 -154.25 -0.95494 710.45 0.0014075 -154.25 -154.25 -0.95494 1.3378 1.9398 1986.3 -0.0076165 2566.0 0.20016 9.4084e-06 1.0629e+05 366.27 386.55 4.0746 0.77605 0.96460 158.75 3.3095 2.9304 0.0028108
-164.62 3.5367e-05 6.0083e-08 -152.31 -152.31 -0.93698 709.44 0.0014096 -152.31 -152.31 -0.93698 1.3375 1.9411 1979.4 -0.0076084 2444.9 0.19973 1.1916e-05 83918. 367.05 387.52 4.0372 0.77976 0.96832 159.41 3.2291 2.9579 0.0028643
-163.62 4.4989e-05 7.5702e-08 -150.37 -150.37 -0.91917 708.42 0.0014116 -150.37 -150.37 -0.91917 1.3371 1.9424 1972.6 -0.0076002 2332.3 0.19930 1.5020e-05 66577. 367.83 388.49 4.0008 0.78346 0.97201 160.07 3.1514 2.9854 0.0029182
-162.62 5.6956e-05 9.4934e-08 -148.43 -148.43 -0.90151 707.40 0.0014136 -148.43 -148.43 -0.90151 1.3368 1.9437 1965.8 -0.0075919 2227.7 0.19886 1.8844e-05 53068. 368.62 389.46 3.9651 0.78713 0.97569 160.72 3.0764 3.0129 0.0029723
-161.62 7.1773e-05 1.1851e-07 -146.48 -146.48 -0.88400 706.38 0.0014157 -146.48 -146.48 -0.88400 1.3365 1.9451 1959.0 -0.0075834 2130.2 0.19841 2.3533e-05 42494. 369.41 390.44 3.9304 0.79079 0.97935 161.38 3.0038 3.0404 0.0030268
-160.62 9.0036e-05 1.4728e-07 -144.54 -144.54 -0.86663 705.37 0.0014177 -144.54 -144.54 -0.86663 1.3363 1.9465 1952.1 -0.0075748 2039.2 0.19796 2.9258e-05 34178. 370.20 391.42 3.8964 0.79443 0.98298 162.03 2.9337 3.0679 0.0030815
-159.62 0.00011245 1.8226e-07 -142.59 -142.59 -0.84940 704.35 0.0014197 -142.59 -142.59 -0.84940 1.3360 1.9478 1945.3 -0.0075661 1954.2 0.19751 3.6221e-05 27609. 371.00 392.40 3.8632 0.79805 0.98660 162.68 2.8658 3.0955 0.0031365
-158.62 0.00013985 2.2459e-07 -140.64 -140.64 -0.83231 703.34 0.0014218 -140.64 -140.64 -0.83231 1.3358 1.9492 1938.5 -0.0075573 1874.8 0.19705 4.4652e-05 22395. 371.80 393.39 3.8307 0.80164 0.99020 163.32 2.8002 3.1230 0.0031918
-157.62 0.00017320 2.7563e-07 -138.69 -138.69 -0.81536 702.32 0.0014238 -138.69 -138.69 -0.81536 1.3356 1.9506 1931.7 -0.0075484 1800.3 0.19658 5.4822e-05 18241. 372.60 394.38 3.7990 0.80522 0.99378 163.96 2.7367 3.1505 0.0032474
-156.62 0.00021364 3.3693e-07 -136.74 -136.74 -0.79854 701.31 0.0014259 -136.74 -136.74 -0.79854 1.3354 1.9520 1924.9 -0.0075393 1730.5 0.19611 6.7040e-05 14916. 373.41 395.38 3.7680 0.80878 0.99734 164.60 2.6752 3.1780 0.0033033
-155.62 0.00026248 4.1026e-07 -134.79 -134.79 -0.78185 700.30 0.0014280 -134.79 -134.79 -0.78185 1.3352 1.9534 1918.1 -0.0075302 1664.9 0.19564 8.1666e-05 12245. 374.22 396.38 3.7377 0.81232 1.0009 165.24 2.6157 3.2055 0.0033595
-154.62 0.00032125 4.9769e-07 -132.83 -132.83 -0.76530 699.29 0.0014300 -132.83 -132.83 -0.76530 1.3350 1.9548 1911.3 -0.0075209 1603.3 0.19516 9.9109e-05 10090. 375.03 397.38 3.7081 0.81585 1.0044 165.87 2.5580 3.2330 0.0034160
-153.62 0.00039171 6.0153e-07 -130.88 -130.88 -0.74887 698.27 0.0014321 -130.88 -130.88 -0.74887 1.3349 1.9563 1904.5 -0.0075114 1545.3 0.19468 0.00011984 8344.6 375.85 398.39 3.6792 0.81935 1.0079 166.50 2.5022 3.2606 0.0034727
-152.62 0.00047590 7.2444e-07 -128.92 -128.92 -0.73256 697.26 0.0014342 -128.92 -128.92 -0.73256 1.3348 1.9577 1897.8 -0.0075019 1490.6 0.19419 0.00014439 6925.9 376.67 399.40 3.6509 0.82284 1.0114 167.13 2.4481 3.2881 0.0035298
-151.62 0.00057613 8.6945e-07 -126.96 -126.96 -0.71638 696.25 0.0014363 -126.96 -126.96 -0.71638 1.3346 1.9592 1891.0 -0.0074922 1438.9 0.19370 0.00017336 5768.4 377.49 400.41 3.6232 0.82631 1.0149 167.76 2.3957 3.3156 0.0035872
-150.62 0.00069507 1.0399e-06 -125.00 -125.00 -0.70031 695.24 0.0014384 -125.00 -125.00 -0.70032 1.3345 1.9606 1884.2 -0.0074824 1390.2 0.19320 0.00020744 4820.7 378.32 401.42 3.5962 0.82976 1.0183 168.38 2.3448 3.3431 0.0036448
-149.62 0.00083574 1.2398e-06 -123.04 -123.04 -0.68437 694.23 0.0014404 -123.04 -123.04 -0.68438 1.3345 1.9621 1877.4 -0.0074724 1344.0 0.19270 0.00024740 4042.0 379.15 402.44 3.5697 0.83319 1.0218 169.00 2.2956 3.3706 0.0037027
-148.62 0.0010016 1.4733e-06 -121.08 -121.08 -0.66854 693.22 0.0014425 -121.08 -121.08 -0.66855 1.3344 1.9636 1870.7 -0.0074623 1300.3 0.19220 0.00029412 3400.0 379.99 403.47 3.5438 0.83661 1.0252 169.62 2.2478 3.3982 0.0037610
-147.62 0.0011965 1.7452e-06 -119.11 -119.11 -0.65283 692.21 0.0014447 -119.11 -119.11 -0.65284 1.3343 1.9651 1863.9 -0.0074521 1258.9 0.19169 0.00034856 2869.0 380.83 404.49 3.5185 0.84001 1.0286 170.24 2.2014 3.4257 0.0038195
-146.62 0.0014249 2.0611e-06 -117.15 -117.15 -0.63723 691.20 0.0014468 -117.15 -117.15 -0.63724 1.3343 1.9666 1857.2 -0.0074417 1219.6 0.19117 0.00041181 2428.3 381.67 405.52 3.4938 0.84340 1.0320 170.85 2.1565 3.4532 0.0038783
-145.62 0.0016917 2.4268e-06 -115.18 -115.18 -0.62174 690.19 0.0014489 -115.18 -115.18 -0.62175 1.3343 1.9682 1850.4 -0.0074312 1182.3 0.19066 0.00048510 2061.4 382.51 406.56 3.4695 0.84677 1.0353 171.46 2.1128 3.4807 0.0039374
-144.62 0.0020026 2.8492e-06 -113.21 -113.21 -0.60636 689.18 0.0014510 -113.21 -113.21 -0.60637 1.3343 1.9697 1843.7 -0.0074206 1146.8 0.19014 0.00056976 1755.1 383.36 407.59 3.4458 0.85012 1.0387 172.07 2.0705 3.5082 0.0039967
-143.62 0.0023637 3.3355e-06 -111.24 -111.24 -0.59108 688.17 0.0014531 -111.24 -111.24 -0.59110 1.3343 1.9713 1836.9 -0.0074098 1113.0 0.18962 0.00066731 1498.6 384.21 408.63 3.4226 0.85346 1.0420 172.68 2.0294 3.5358 0.0040564
-142.62 0.0027820 3.8941e-06 -109.27 -109.27 -0.57592 687.16 0.0014553 -109.27 -109.27 -0.57593 1.3343 1.9728 1830.2 -0.0073988 1080.8 0.18909 0.00077939 1283.1 385.07 409.68 3.3999 0.85679 1.0454 173.28 1.9896 3.5633 0.0041164
-141.62 0.0032653 4.5339e-06 -107.29 -107.29 -0.56085 686.15 0.0014574 -107.30 -107.30 -0.56087 1.3343 1.9744 1823.5 -0.0073878 1050.1 0.18856 0.00090784 1101.5 385.93 410.72 3.3777 0.86011 1.0487 173.88 1.9508 3.5908 0.0041766
-140.62 0.0038222 5.2650e-06 -105.32 -105.32 -0.54589 685.14 0.0014596 -105.32 -105.32 -0.54591 1.3344 1.9760 1816.7 -0.0073765 1020.7 0.18803 0.0010547 948.16 386.79 411.77 3.3560 0.86341 1.0520 174.48 1.9133 3.6183 0.0042372
-139.62 0.0044623 6.0982e-06 -103.34 -103.34 -0.53102 684.13 0.0014617 -103.34 -103.34 -0.53105 1.3344 1.9776 1810.0 -0.0073651 992.74 0.18749 0.0012221 818.26 387.65 412.83 3.3347 0.86670 1.0553 175.08 1.8768 3.6459 0.0042980
-138.62 0.0051963 7.0454e-06 -101.36 -101.36 -0.51626 683.12 0.0014639 -101.37 -101.37 -0.51629 1.3345 1.9792 1803.3 -0.0073536 965.97 0.18695 0.0014125 707.94 388.52 413.88 3.3139 0.86998 1.0586 175.67 1.8413 3.6734 0.0043592
-137.62 0.0060358 8.1198e-06 -99.382 -99.382 -0.50159 682.11 0.0014660 -99.386 -99.386 -0.50162 1.3346 1.9808 1796.6 -0.0073419 940.35 0.18641 0.0016287 614.00 389.39 414.94 3.2935 0.87325 1.0619 176.26 1.8069 3.7009 0.0044206
-136.62 0.0069938 9.3357e-06 -97.400 -97.400 -0.48702 681.10 0.0014682 -97.404 -97.404 -0.48705 1.3347 1.9825 1789.9 -0.0073301 915.81 0.18586 0.0018733 533.80 390.26 416.00 3.2735 0.87650 1.0651 176.85 1.7734 3.7284 0.0044823
-135.62 0.0080843 1.0708e-05 -95.416 -95.416 -0.47254 680.09 0.0014704 -95.421 -95.421 -0.47258 1.3348 1.9841 1783.2 -0.0073180 892.30 0.18531 0.0021497 465.17 391.14 417.07 3.2540 0.87975 1.0684 177.44 1.7409 3.7559 0.0045443
-134.62 0.0093230 1.2255e-05 -93.430 -93.430 -0.45815 679.08 0.0014726 -93.436 -93.436 -0.45820 1.3350 1.9858 1776.5 -0.0073059 869.75 0.18476 0.0024613 406.30 392.02 418.14 3.2348 0.88299 1.0716 178.02 1.7093 3.7834 0.0046066
-133.62 0.010727 1.3993e-05 -91.443 -91.442 -0.44386 678.07 0.0014748 -91.450 -91.449 -0.44391 1.3351 1.9875 1769.8 -0.0072935 848.11 0.18421 0.0028116 355.67 392.91 419.21 3.2161 0.88622 1.0749 178.61 1.6786 3.8109 0.0046691
-132.62 0.012315 1.5943e-05 -89.453 -89.453 -0.42965 677.06 0.0014770 -89.461 -89.461 -0.42971 1.3353 1.9892 1763.1 -0.0072810 827.32 0.18365 0.0032049 312.03 393.79 420.29 3.1977 0.88944 1.0781 179.19 1.6488 3.8385 0.0047320
-131.62 0.014106 1.8126e-05 -87.462 -87.462 -0.41553 676.04 0.0014792 -87.471 -87.471 -0.41560 1.3354 1.9909 1756.4 -0.0072684 807.34 0.18309 0.0036453 274.33 394.68 421.36 3.1798 0.89266 1.0813 179.76 1.6197 3.8660 0.0047951
-130.62 0.016124 2.0564e-05 -85.469 -85.469 -0.40150 675.03 0.0014814 -85.479 -85.479 -0.40157 1.3356 1.9926 1749.7 -0.0072555 788.12 0.18253 0.0041375 241.69 395.58 422.44 3.1622 0.89586 1.0846 180.34 1.5915 3.8935 0.0048586
-129.62 0.018392 2.3283e-05 -83.475 -83.474 -0.38755 674.02 0.0014836 -83.486 -83.486 -0.38763 1.3358 1.9944 1743.0 -0.0072425 769.63 0.18196 0.0046867 213.37 396.47 423.53 3.1450 0.89906 1.0878 180.91 1.5641 3.9210 0.0049223
-128.62 0.020935 2.6309e-05 -81.478 -81.477 -0.37369 673.01 0.0014859 -81.491 -81.490 -0.37378 1.3360 1.9961 1736.3 -0.0072294 751.83 0.18140 0.0052981 188.75 397.37 424.62 3.1281 0.90226 1.0910 181.48 1.5374 3.9485 0.0049863
-127.62 0.023783 2.9670e-05 -79.479 -79.478 -0.35991 672.00 0.0014881 -79.494 -79.493 -0.36001 1.3363 1.9979 1729.6 -0.0072160 734.67 0.18083 0.0059776 167.29 398.27 425.71 3.1116 0.90545 1.0942 182.05 1.5114 3.9760 0.0050506
-126.62 0.026966 3.3396e-05 -77.479 -77.478 -0.34621 670.98 0.0014904 -77.495 -77.495 -0.34632 1.3365 1.9997 1722.9 -0.0072025 718.14 0.18025 0.0067313 148.56 399.18 426.80 3.0954 0.90863 1.0974 182.62 1.4861 4.0035 0.0051152
-125.62 0.030515 3.7520e-05 -75.476 -75.475 -0.33259 669.97 0.0014926 -75.494 -75.494 -0.33272 1.3368 2.0015 1716.2 -0.0071888 702.18 0.17968 0.0075660 132.17 400.09 427.89 3.0795 0.91181 1.1006 183.18 1.4615 4.0310 0.0051800
-124.62 0.034467 4.2076e-05 -73.472 -73.470 -0.31905 668.95 0.0014949 -73.492 -73.492 -0.31919 1.3371 2.0033 1709.5 -0.0071749 686.79 0.17910 0.0084885 117.81 401.00 428.99 3.0640 0.91499 1.1038 183.74 1.4375 4.0584 0.0052452
-123.62 0.038859 4.7100e-05 -71.465 -71.464 -0.30558 667.94 0.0014971 -71.488 -71.487 -0.30574 1.3374 2.0051 1702.8 -0.0071609 671.93 0.17852 0.0095065 105.19 401.91 430.10 3.0488 0.91816 1.1070 184.30 1.4141 4.0859 0.0053106
-122.62 0.043731 5.2632e-05 -69.457 -69.455 -0.29219 666.92 0.0014994 -69.482 -69.481 -0.29237 1.3377 2.0070 1696.2 -0.0071466 657.57 0.17794 0.010628 94.092 402.83 431.20 3.0339 0.92134 1.1102 184.86 1.3913 4.1134 0.0053764
-121.62 0.049128 5.8713e-05 -67.446 -67.444 -0.27888 665.91 0.0015017 -67.474 -67.473 -0.27907 1.3380 2.0089 1689.5 -0.0071322 643.70 0.17736 0.011861 84.309 403.75 432.31 3.0193 0.92451 1.1134 185.41 1.3691 4.1409 0.0054424
-120.62 0.055096 6.5386e-05 -65.433 -65.431 -0.26564 664.89 0.0015040 -65.464 -65.463 -0.26585 1.3384 2.0107 1682.8 -0.0071176 630.28 0.17678 0.013215 75.669 404.67 433.42 3.0050 0.92767 1.1166 185.96 1.3475 4.1683 0.0055087
-119.62 0.061684 7.2698e-05 -63.418 -63.415 -0.25247 663.87 0.0015063 -63.452 -63.452 -0.25271 1.3387 2.0126 1676.1 -0.0071028 617.30 0.17619 0.014700 68.027 405.60 434.53 2.9909 0.93084 1.1198 186.51 1.3264 4.1958 0.0055752
-118.62 0.068946 8.0697e-05 -61.401 -61.398 -0.23937 662.86 0.0015086 -61.439 -61.438 -0.23963 1.3391 2.0146 1669.4 -0.0070878 604.74 0.17560 0.016325 61.255 406.53 435.64 2.9772 0.93401 1.1231 187.06 1.3058 4.2233 0.0056421
-117.62 0.076937 8.9435e-05 -59.381 -59.378 -0.22635 661.84 0.0015109 -59.423 -59.422 -0.22663 1.3395 2.0165 1662.8 -0.0070726 592.58 0.17501 0.018101 55.245 407.46 436.76 2.9638 0.93718 1.1263 187.60 1.2857 4.2507 0.0057092
-116.62 0.085718 9.8966e-05 -57.360 -57.356 -0.21339 660.82 0.0015133 -57.406 -57.405 -0.21370 1.3400 2.0184 1656.1 -0.0070573 580.80 0.17442 0.020040 49.901 408.39 437.88 2.9506 0.94035 1.1295 188.14 1.2660 4.2782 0.0057767
-115.62 0.095353 0.00010935 -55.335 -55.331 -0.20050 659.80 0.0015156 -55.386 -55.385 -0.20084 1.3404 2.0204 1649.4 -0.0070417 569.38 0.17383 0.022152 45.142 409.33 439.01 2.9377 0.94352 1.1327 188.68 1.2468 4.3056 0.0058444
-114.62 0.10591 0.00012064 -53.309 -53.304 -0.18767 658.78 0.0015180 -53.365 -53.364 -0.18805 1.3409 2.0224 1642.7 -0.0070260 558.32 0.17323 0.024451 40.898 410.27 440.13 2.9250 0.94669 1.1360 189.22 1.2281 4.3330 0.0059123
-113.62 0.11746 0.00013290 -51.280 -51.275 -0.17492 657.76 0.0015203 -51.342 -51.340 -0.17533 1.3413 2.0244 1636.0 -0.0070100 547.59 0.17264 0.026949 37.107 411.21 441.26 2.9126 0.94987 1.1392 189.75 1.2097 4.3604 0.0059806
-112.62 0.13008 0.00014620 -49.249 -49.243 -0.16222 656.73 0.0015227 -49.316 -49.315 -0.16267 1.3418 2.0264 1629.3 -0.0069938 537.18 0.17204 0.029661 33.715 412.16 442.39 2.9005 0.95305 1.1424 190.28 1.1918 4.3879 0.0060491
-111.62 0.14384 0.00016061 -47.215 -47.208 -0.14959 655.71 0.0015251 -47.289 -47.287 -0.15008 1.3424 2.0285 1622.7 -0.0069774 527.08 0.17144 0.032600 30.675 413.10 443.53 2.8885 0.95623 1.1457 190.81 1.1742 4.4153 0.0061180
-110.62 0.15884 0.00017620 -45.178 -45.171 -0.13702 654.69 0.0015274 -45.259 -45.258 -0.13755 1.3429 2.0305 1616.0 -0.0069609 517.28 0.17084 0.035781 27.948 414.06 444.66 2.8769 0.95942 1.1490 191.34 1.1570 4.4427 0.0061871
-109.62 0.17516 0.00019304 -43.139 -43.131 -0.12451 653.66 0.0015298 -43.228 -43.226 -0.12509 1.3435 2.0326 1609.3 -0.0069441 507.76 0.17024 0.039220 25.497 415.01 445.80 2.8654 0.96261 1.1522 191.86 1.1402 4.4701 0.0062564
-108.62 0.19290 0.00021122 -41.098 -41.089 -0.11207 652.64 0.0015322 -41.194 -41.192 -0.11269 1.3441 2.0347 1602.6 -0.0069271 498.51 0.16964 0.042933 23.292 415.96 446.94 2.8542 0.96581 1.1555 192.38 1.1236 4.4974 0.0063261
-107.62 0.21215 0.00023080 -39.053 -39.044 -0.099678 651.61 0.0015347 -39.158 -39.156 -0.10036 1.3447 2.0369 1595.9 -0.0069098 489.52 0.16903 0.046937 21.305 416.92 448.09 2.8433 0.96901 1.1588 192.90 1.1075 4.5248 0.0063960
-106.62 0.23301 0.00025189 -37.006 -36.996 -0.087347 650.58 0.0015371 -37.120 -37.118 -0.088082 1.3453 2.0390 1589.2 -0.0068924 480.79 0.16843 0.051250 19.512 417.88 449.23 2.8325 0.97222 1.1621 193.41 1.0916 4.5522 0.0064662
-105.62 0.25561 0.00027456 -34.956 -34.944 -0.075073 649.55 0.0015395 -35.080 -35.078 -0.075868 1.3460 2.0412 1582.6 -0.0068747 472.30 0.16782 0.055891 17.892 418.85 450.38 2.8220 0.97544 1.1655 193.93 1.0760 4.5795 0.0065367
-104.62 0.28004 0.00029892 -32.903 -32.890 -0.062855 648.52 0.0015420 -33.038 -33.035 -0.063714 1.3467 2.0434 1575.9 -0.0068569 464.04 0.16721 0.060878 16.426 419.81 451.53 2.8116 0.97867 1.1688 194.44 1.0608 4.6069 0.0066074
-103.62 0.30643 0.00032504 -30.847 -30.833 -0.050692 647.49 0.0015444 -30.994 -30.991 -0.051619 1.3474 2.0456 1569.2 -0.0068387 456.00 0.16660 0.066231 15.099 420.78 452.68 2.8015 0.98191 1.1722 194.94 1.0458 4.6342 0.0066785
-102.62 0.33490 0.00035304 -28.788 -28.773 -0.038582 646.46 0.0015469 -28.947 -28.944 -0.039582 1.3481 2.0478 1562.5 -0.0068204 448.18 0.16600 0.071971 13.894 421.75 453.84 2.7916 0.98516 1.1755 195.44 1.0310 4.6615 0.0067498
-101.62 0.36558 0.00038301 -26.726 -26.710 -0.026526 645.43 0.0015494 -26.898 -26.894 -0.027602 1.3489 2.0501 1555.8 -0.0068018 440.57 0.16539 0.078120 12.801 422.73 454.99 2.7818 0.98841 1.1789 195.95 1.0166 4.6888 0.0068213
-100.62 0.39862 0.00041506 -24.661 -24.643 -0.014521 644.39 0.0015519 -24.847 -24.843 -0.015678 1.3497 2.0524 1549.1 -0.0067830 433.16 0.16478 0.084699 11.807 423.70 456.15 2.7723 0.99168 1.1823 196.44 1.0024 4.7161 0.0068932
-99.625 0.43414 0.00044929 -22.593 -22.573 -0.0025672 643.36 0.0015544 -22.794 -22.789 -0.0038103 1.3505 2.0547 1542.4 -0.0067639 425.95 0.16416 0.091731 10.901 424.68 457.31 2.7630 0.99496 1.1858 196.94 0.98838 4.7434 0.0069653
-98.625 0.47230 0.00048583 -20.521 -20.500 0.0093367 642.32 0.0015569 -20.738 -20.733 0.0080027 1.3514 2.0570 1535.7 -0.0067447 418.92 0.16355 0.099240 10.077 425.66 458.48 2.7538 0.99825 1.1892 197.43 0.97464 4.7707 0.0070377
-97.625 0.51325 0.00052478 -18.446 -18.423 0.021192 641.28 0.0015594 -18.680 -18.674 0.019762 1.3522 2.0594 1529.0 -0.0067251 412.07 0.16294 0.10725 9.3239 426.65 459.64 2.7448 1.0016 1.1927 197.92 0.96112 4.7979 0.0071103
-96.625 0.55714 0.00056627 -16.368 -16.343 0.032999 640.24 0.0015619 -16.620 -16.614 0.031467 1.3531 2.0618 1522.3 -0.0067053 405.39 0.16233 0.11579 8.6365 427.63 460.81 2.7360 1.0049 1.1962 198.40 0.94783 4.8251 0.0071832
-95.625 0.60416 0.00061042 -14.286 -14.259 0.044759 639.20 0.0015645 -14.557 -14.550 0.043120 1.3540 2.0642 1515.7 -0.0066853 398.88 0.16171 0.12488 8.0078 428.62 461.98 2.7274 1.0082 1.1997 198.88 0.93475 4.8524 0.0072564
-94.625 0.65446 0.00065735 -12.201 -12.172 0.056472 638.16 0.0015670 -12.491 -12.484 0.054721 1.3550 2.0667 1509.0 -0.0066650 392.53 0.16110 0.13455 7.4323 429.61 463.15 2.7189 1.0116 1.2032 199.36 0.92188 4.8796 0.0073299
-93.625 0.70822 0.00070719 -10.112 -10.080 0.068141 637.12 0.0015696 -10.424 -10.416 0.066271 1.3560 2.0691 1502.3 -0.0066444 386.34 0.16048 0.14482 6.9050 430.60 464.32 2.7107 1.0149 1.2068 199.83 0.90921 4.9068 0.0074036
-92.625 0.76564 0.00076009 -8.0191 -7.9851 0.079766 636.07 0.0015722 -8.3535 -8.3452 0.077771 1.3570 2.0716 1495.6 -0.0066236 380.31 0.15987 0.15573 6.4212 431.60 465.49 2.7025 1.0183 1.2104 200.30 0.89673 4.9340 0.0074776
-91.625 0.82689 0.00081617 -5.9226 -5.8859 0.091347 635.02 0.0015747 -6.2808 -6.2719 0.089220 1.3580 2.0742 1488.9 -0.0066025 374.41 0.15925 0.16731 5.9769 432.59 466.67 2.6946 1.0217 1.2140 200.77 0.88445 4.9611 0.0075518
-90.625 0.89218 0.00087557 -3.8223 -3.7826 0.10289 633.98 0.0015773 -4.2056 -4.1959 0.10062 1.3591 2.0767 1482.2 -0.0065811 368.66 0.15864 0.17958 5.5685 433.59 467.84 2.6868 1.0251 1.2177 201.24 0.87236 4.9883 0.0076263
-89.625 0.96172 0.00093845 -1.7180 -1.6753 0.11438 632.93 0.0015800 -2.1279 -2.1174 0.11197 1.3602 2.0793 1475.5 -0.0065595 363.05 0.15802 0.19258 5.1928 434.59 469.02 2.6791 1.0285 1.2213 201.70 0.86045 5.0154 0.0077011
-88.625 1.0357 0.0010049 0.39028 0.43635 0.12584 631.88 0.0015826 -0.047516 -0.036215 0.12328 1.3613 2.0819 1468.8 -0.0065375 357.56 0.15740 0.20633 4.8466 435.59 470.20 2.6717 1.0320 1.2250 202.15 0.84873 5.0425 0.0077761
-87.625 1.1144 0.0010752 2.5027 2.5523 0.13726 630.83 0.0015852 2.0355 2.0476 0.13454 1.3625 2.0846 1462.1 -0.0065153 352.21 0.15679 0.22087 4.5276 436.60 471.39 2.6643 1.0354 1.2288 202.61 0.83718 5.0696 0.0078514
-86.625 1.1979 0.0011494 4.6193 4.6726 0.14863 629.77 0.0015879 4.1211 4.1342 0.14575 1.3637 2.0873 1455.4 -0.0064928 346.98 0.15617 0.23623 4.2331 437.61 472.57 2.6571 1.0389 1.2325 203.06 0.82580 5.0967 0.0079270
-85.625 1.2866 0.0012277 6.7402 6.7974 0.15997 628.72 0.0015905 6.2094 6.2235 0.15691 1.3649 2.0900 1448.8 -0.0064701 341.87 0.15555 0.25245 3.9612 438.61 473.75 2.6501 1.0424 1.2363 203.50 0.81460 5.1237 0.0080028
-84.625 1.3806 0.0013102 8.8655 8.9269 0.17128 627.66 0.0015932 8.3004 8.3155 0.16803 1.3661 2.0927 1442.1 -0.0064470 336.87 0.15494 0.26956 3.7097 439.63 474.94 2.6432 1.0460 1.2402 203.95 0.80356 5.1508 0.0080789
-83.625 1.4803 0.0013971 10.995 11.061 0.18254 626.60 0.0015959 10.394 10.410 0.17911 1.3674 2.0955 1435.4 -0.0064236 331.99 0.15432 0.28760 3.4771 440.64 476.13 2.6364 1.0495 1.2440 204.38 0.79269 5.1778 0.0081553
-82.625 1.5858 0.0014886 13.129 13.200 0.19378 625.54 0.0015986 12.491 12.508 0.19014 1.3687 2.0983 1428.7 -0.0063999 327.22 0.15370 0.30659 3.2616 441.65 477.31 2.6298 1.0531 1.2479 204.82 0.78199 5.2048 0.0082319
-81.625 1.6975 0.0015849 15.268 15.344 0.20497 624.48 0.0016013 14.590 14.609 0.20113 1.3700 2.1012 1422.0 -0.0063759 322.55 0.15309 0.32659 3.0619 442.67 478.50 2.6233 1.0567 1.2519 205.25 0.77144 5.2318 0.0083088
-80.625 1.8155 0.0016861 17.412 17.493 0.21614 623.42 0.0016041 16.692 16.712 0.21208 1.3714 2.1041 1415.4 -0.0063516 317.99 0.15247 0.34763 2.8766 443.69 479.70 2.6169 1.0603 1.2558 205.67 0.76106 5.2587 0.0083860
-79.625 1.9402 0.0017924 19.560 19.647 0.22727 622.36 0.0016068 18.797 18.819 0.22299 1.3728 2.1070 1408.7 -0.0063270 313.52 0.15186 0.36974 2.7046 444.71 480.89 2.6106 1.0639 1.2598 206.10 0.75083 5.2857 0.0084634
-78.625 2.0718 0.0019040 21.714 21.806 0.23837 621.29 0.0016096 20.905 20.928 0.23385 1.3742 2.1099 1402.0 -0.0063021 309.15 0.15124 0.39296 2.5448 445.73 482.08 2.6045 1.0676 1.2639 206.51 0.74076 5.3126 0.0085411
-77.625 2.2107 0.0020210 23.872 23.971 0.24943 620.22 0.0016123 23.016 23.040 0.24468 1.3757 2.1129 1395.3 -0.0062768 304.88 0.15062 0.41735 2.3961 446.75 483.27 2.5985 1.0712 1.2680 206.93 0.73084 5.3395 0.0086190
-76.625 2.3571 0.0021437 26.036 26.141 0.26047 619.15 0.0016151 25.130 25.156 0.25546 1.3772 2.1159 1388.7 -0.0062512 300.69 0.15001 0.44292 2.2577 447.78 484.47 2.5926 1.0749 1.2721 207.34 0.72107 5.3664 0.0086972
-75.625 2.5113 0.0022723 28.204 28.316 0.27148 618.08 0.0016179 27.247 27.275 0.26620 1.3787 2.1190 1382.0 -0.0062253 296.59 0.14939 0.46974 2.1288 448.81 485.67 2.5869 1.0787 1.2762 207.74 0.71146 5.3933 0.0087757
-74.625 2.6736 0.0024069 30.378 30.497 0.28246 617.01 0.0016207 29.366 29.396 0.27691 1.3802 2.1221 1375.4 -0.0061990 292.58 0.14878 0.49783 2.0087 449.83 486.86 2.5812 1.0824 1.2804 208.14 0.70200 5.4201 0.0088544
-73.625 2.8444 0.0025478 32.558 32.684 0.29341 615.93 0.0016236 31.489 31.521 0.28758 1.3818 2.1252 1368.7 -0.0061724 288.65 0.14816 0.52725 1.8966 450.86 488.06 2.5757 1.0862 1.2847 208.54 0.69268 5.4469 0.0089334
-72.625 3.0240 0.0026951 34.743 34.877 0.30433 614.85 0.0016264 33.615 33.649 0.29821 1.3834 2.1284 1362.0 -0.0061454 284.81 0.14755 0.55804 1.7920 451.90 489.26 2.5703 1.0900 1.2889 208.93 0.68351 5.4737 0.0090126
-71.625 3.2127 0.0028491 36.933 37.076 0.31523 613.78 0.0016293 35.745 35.781 0.30880 1.3851 2.1316 1355.4 -0.0061181 281.03 0.14694 0.59024 1.6942 452.93 490.46 2.5650 1.0938 1.2932 209.32 0.67448 5.5005 0.0090922
-70.625 3.4108 0.0030099 39.129 39.281 0.32610 612.69 0.0016321 37.877 37.915 0.31935 1.3867 2.1349 1348.7 -0.0060904 277.34 0.14632 0.62390 1.6028 453.96 491.66 2.5598 1.0976 1.2976 209.70 0.66560 5.5273 0.0091720
-69.625 3.6187 0.0031778 41.331 41.492 0.33694 611.61 0.0016350 40.013 40.053 0.32987 1.3884 2.1382 1342.1 -0.0060624 273.72 0.14571 0.65906 1.5173 455.00 492.86 2.5547 1.1015 1.3020 210.08 0.65687 5.5540 0.0092520
-68.625 3.8367 0.0033531 43.539 43.710 0.34776 610.53 0.0016379 42.152 42.195 0.34036 1.3902 2.1415 1335.5 -0.0060339 270.17 0.14510 0.69577 1.4372 456.04 494.06 2.5497 1.1054 1.3064 210.45 0.64827 5.5807 0.0093324
-67.625 4.0652 0.0035358 45.753 45.934 0.35856 609.44 0.0016409 44.294 44.340 0.35080 1.3919 2.1449 1328.8 -0.0060051 266.69 0.14449 0.73408 1.3622 457.08 495.26 2.5448 1.1093 1.3109 210.82 0.63981 5.6074 0.0094130
-66.625 4.3046 0.0037262 47.973 48.165 0.36934 608.35 0.0016438 46.439 46.488 0.36122 1.3937 2.1483 1322.2 -0.0059760 263.28 0.14388 0.77404 1.2919 458.12 496.46 2.5400 1.1133 1.3154 211.18 0.63150 5.6341 0.0094939
-65.625 4.5551 0.0039246 50.199 50.402 0.38009 607.26 0.0016467 48.588 48.640 0.37160 1.3955 2.1518 1315.6 -0.0059464 259.93 0.14327 0.81570 1.2259 459.16 497.67 2.5353 1.1172 1.3200 211.54 0.62332 5.6608 0.0095750
-64.625 4.8173 0.0041312 52.432 52.646 0.39082 606.16 0.0016497 50.740 50.795 0.38195 1.3974 2.1553 1308.9 -0.0059164 256.65 0.14266 0.85910 1.1640 460.21 498.87 2.5307 1.1212 1.3246 211.89 0.61527 5.6874 0.0096564
-63.625 5.0915 0.0043461 54.671 54.897 0.40153 605.07 0.0016527 52.896 52.954 0.39226 1.3993 2.1588 1302.3 -0.0058861 253.42 0.14205 0.90429 1.1058 461.25 500.07 2.5262 1.1252 1.3293 212.24 0.60736 5.7140 0.0097382
-62.625 5.3781 0.0045697 56.916 57.156 0.41223 603.97 0.0016557 55.055 55.117 0.40254 1.4012 2.1624 1295.7 -0.0058553 250.26 0.14144 0.95134 1.0511 462.30 501.28 2.5218 1.1293 1.3340 212.58 0.59958 5.7406 0.0098201
-61.625 5.6774 0.0048022 59.168 59.421 0.42290 602.87 0.0016587 57.218 57.283 0.41279 1.4031 2.1660 1289.1 -0.0058241 247.16 0.14084 1.0003 0.99972 463.35 502.48 2.5175 1.1333 1.3387 212.92 0.59194 5.7672 0.0099024
-60.625 5.9899 0.0050438 61.427 61.694 0.43355 601.77 0.0016618 59.385 59.453 0.42301 1.4051 2.1697 1282.5 -0.0057925 244.12 0.14023 1.0512 0.95131 464.40 503.68 2.5133 1.1374 1.3435 213.26 0.58442 5.7938 0.0099850
-59.625 6.3160 0.0052948 63.693 63.974 0.44419 600.66 0.0016648 61.554 61.627 0.43320 1.4071 2.1734 1275.9 -0.0057605 241.13 0.13962 1.1041 0.90573 465.45 504.89 2.5091 1.1415 1.3483 213.58 0.57704 5.8203 0.010068
-58.625 6.6561 0.0055553 65.966 66.262 0.45481 599.55 0.0016679 63.728 63.805 0.44335 1.4091 2.1772 1269.3 -0.0057280 238.19 0.13902 1.1591 0.86277 466.50 506.09 2.5051 1.1457 1.3532 213.90 0.56978 5.8468 0.010151
-57.625 7.0107 0.0058257 68.245 68.557 0.46541 598.44 0.0016710 65.905 65.986 0.45348 1.4111 2.1810 1262.7 -0.0056951 235.31 0.13842 1.2161 0.82228 467.55 507.30 2.5011 1.1498 1.3581 214.22 0.56265 5.8733 0.010234
-56.625 7.3801 0.0061062 70.532 70.860 0.47599 597.33 0.0016741 68.086 68.172 0.46358 1.4132 2.1848 1256.1 -0.0056617 232.48 0.13781 1.2754 0.78408 468.60 508.50 2.4972 1.1540 1.3631 214.53 0.55564 5.8998 0.010318
-55.625 7.7648 0.0063970 72.826 73.172 0.48656 596.22 0.0016772 70.271 70.361 0.47364 1.4153 2.1887 1249.5 -0.0056279 229.69 0.13721 1.3369 0.74802 469.66 509.71 2.4934 1.1582 1.3681 214.84 0.54875 5.9263 0.010402
-54.625 8.1652 0.0066985 75.128 75.491 0.49712 595.10 0.0016804 72.460 72.554 0.48368 1.4174 2.1927 1242.9 -0.0055937 226.96 0.13661 1.4006 0.71396 470.72 510.91 2.4897 1.1624 1.3731 215.14 0.54199 5.9527 0.010486
-53.625 8.5819 0.0070108 77.437 77.818 0.50766 593.98 0.0016836 74.652 74.752 0.49369 1.4196 2.1967 1236.3 -0.0055589 224.27 0.13601 1.4667 0.68178 471.77 512.11 2.4860 1.1667 1.3782 215.43 0.53535 5.9792 0.010571
-52.625 9.0151 0.0073343 79.753 80.154 0.51819 592.86 0.0016867 76.849 76.954 0.50368 1.4218 2.2007 1229.8 -0.0055237 221.63 0.13541 1.5353 0.65136 472.83 513.32 2.4824 1.1710 1.3834 215.72 0.52882 6.0056 0.010656
-51.625 9.4655 0.0076691 82.077 82.498 0.52871 591.73 0.0016900 79.049 79.159 0.51363 1.4240 2.2048 1223.2 -0.0054880 219.04 0.13482 1.6062 0.62258 473.89 514.52 2.4789 1.1752 1.3886 216.00 0.52241 6.0320 0.010741
-50.625 9.9335 0.0080156 84.409 84.851 0.53921 590.60 0.0016932 81.253 81.369 0.52356 1.4262 2.2089 1216.6 -0.0054519 216.48 0.13422 1.6797 0.59534 474.95 515.73 2.4755 1.1796 1.3938 216.28 0.51612 6.0584 0.010827
-49.625 10.419 0.0083741 86.749 87.212 0.54970 589.47 0.0016964 83.462 83.584 0.53347 1.4285 2.2131 1210.1 -0.0054152 213.98 0.13363 1.7558 0.56954 476.01 516.93 2.4722 1.1839 1.3991 216.55 0.50994 6.0848 0.010913
-48.625 10.924 0.0087447 89.097 89.583 0.56018 588.34 0.0016997 85.674 85.802 0.54334 1.4308 2.2173 1203.5 -0.0053780 211.51 0.13303 1.8345 0.54510 477.07 518.13 2.4689 1.1883 1.4044 216.82 0.50387 6.1112 0.010999
-47.625 11.448 0.0091278 91.453 91.962 0.57065 587.20 0.0017030 87.891 88.025 0.55319 1.4331 2.2216 1196.9 -0.0053403 209.08 0.13244 1.9159 0.52194 478.14 519.33 2.4657 1.1927 1.4098 217.08 0.49792 6.1375 0.011085
-46.625 11.991 0.0095238 93.817 94.350 0.58111 586.06 0.0017063 90.111 90.252 0.56302 1.4354 2.2259 1190.4 -0.0053020 206.69 0.13185 2.0001 0.49997 479.20 520.53 2.4625 1.1971 1.4153 217.33 0.49207 6.1639 0.011172
-45.625 12.554 0.0099327 96.189 96.748 0.59156 584.92 0.0017096 92.336 92.484 0.57282 1.4378 2.2303 1183.8 -0.0052633 204.34 0.13126 2.0872 0.47912 480.27 521.74 2.4594 1.2015 1.4207 217.58 0.48633 6.1902 0.011259
-44.625 13.137 0.010355 98.570 99.155 0.60200 583.77 0.0017130 94.565 94.720 0.58260 1.4402 2.2347 1177.3 -0.0052240 202.03 0.13067 2.1771 0.45933 481.33 522.94 2.4564 1.2060 1.4263 217.82 0.48069 6.2165 0.011347
-43.625 13.741 0.010791 100.96 101.57 0.61243 582.62 0.0017164 96.799 96.961 0.59235 1.4426 2.2392 1170.7 -0.0051841 199.75 0.13008 2.2700 0.44053 482.40 524.14 2.4535 1.2104 1.4319 218.05 0.47516 6.2429 0.011435
-42.625 14.367 0.011241 103.36 104.00 0.62286 581.47 0.0017198 99.036 99.207 0.60208 1.4450 2.2437 1164.2 -0.0051437 197.51 0.12949 2.3659 0.42267 483.46 525.33 2.4506 1.2149 1.4375 218.28 0.46973 6.2692 0.011523
-41.625 15.015 0.011705 105.76 106.43 0.63328 580.32 0.0017232 101.28 101.46 0.61179 1.4475 2.2483 1157.7 -0.0051027 195.30 0.12891 2.4649 0.40569 484.53 526.53 2.4478 1.2195 1.4432 218.50 0.46440 6.2955 0.011612
-40.625 15.686 0.012184 108.18 108.88 0.64369 579.16 0.0017266 103.52 103.71 0.62147 1.4500 2.2529 1151.1 -0.0050611 193.13 0.12832 2.5671 0.38954 485.60 527.73 2.4450 1.2240 1.4489 218.72 0.45917 6.3218 0.011701
-39.625 16.380 0.012677 110.60 111.33 0.65409 578.00 0.0017301 105.78 105.97 0.63113 1.4525 2.2576 1144.6 -0.0050189 190.99 0.12774 2.6725 0.37418 486.67 528.93 2.4423 1.2286 1.4547 218.93 0.45403 6.3481 0.011790
-38.625 17.097 0.013186 113.04 113.80 0.66449 576.83 0.0017336 108.03 108.24 0.64077 1.4550 2.2623 1138.0 -0.0049761 188.88 0.12716 2.7813 0.35955 487.74 530.12 2.4397 1.2332 1.4606 219.13 0.44900 6.3744 0.011880
-37.625 17.838 0.013710 115.48 116.27 0.67488 575.66 0.0017371 110.29 110.51 0.65039 1.4576 2.2671 1131.5 -0.0049327 186.81 0.12658 2.8934 0.34562 488.81 531.32 2.4371 1.2378 1.4665 219.33 0.44405 6.4007 0.011970
-36.625 18.604 0.014249 117.93 118.76 0.68527 574.49 0.0017407 112.56 112.78 0.65999 1.4602 2.2719 1125.0 -0.0048887 184.76 0.12600 3.0089 0.33235 489.88 532.51 2.4346 1.2424 1.4724 219.52 0.43920 6.4270 0.012060
-35.625 19.395 0.014805 120.39 121.26 0.69566 573.32 0.0017442 114.83 115.06 0.66956 1.4628 2.2768 1118.5 -0.0048440 182.75 0.12542 3.1280 0.31969 490.95 533.70 2.4321 1.2471 1.4784 219.70 0.43444 6.4533 0.012151
-34.625 20.212 0.015378 122.86 123.76 0.70604 572.14 0.0017478 117.10 117.34 0.67912 1.4654 2.2818 1111.9 -0.0047987 180.76 0.12485 3.2506 0.30763 492.02 534.89 2.4297 1.2517 1.4845 219.88 0.42977 6.4797 0.012243
-33.625 21.056 0.015967 125.35 126.28 0.71641 570.96 0.0017514 119.38 119.63 0.68865 1.4681 2.2868 1105.4 -0.0047527 178.80 0.12427 3.3770 0.29612 493.09 536.08 2.4273 1.2564 1.4906 220.05 0.42519 6.5060 0.012334
-32.625 21.926 0.016573 127.84 128.81 0.72679 569.77 0.0017551 121.66 121.93 0.69817 1.4708 2.2918 1098.9 -0.0047061 176.87 0.12370 3.5071 0.28514 494.17 537.27 2.4250 1.2611 1.4968 220.21 0.42070 6.5323 0.012426
-31.625 22.823 0.017197 130.33 131.35 0.73716 568.58 0.0017588 123.95 124.23 0.70767 1.4735 2.2970 1092.3 -0.0046587 174.97 0.12313 3.6410 0.27465 495.24 538.46 2.4227 1.2659 1.5031 220.36 0.41629 6.5587 0.012519
-30.625 23.749 0.017838 132.84 133.90 0.74753 567.39 0.0017625 126.24 126.53 0.71714 1.4762 2.3021 1085.8 -0.0046107 173.09 0.12256 3.7787 0.26464 496.31 539.64 2.4205 1.2706 1.5094 220.51 0.41196 6.5850 0.012612
-29.625 24.703 0.018497 135.36 136.46 0.75790 566.19 0.0017662 128.54 128.84 0.72660 1.4790 2.3074 1079.3 -0.0045619 171.24 0.12200 3.9205 0.25507 497.38 540.83 2.4184 1.2754 1.5157 220.65 0.40772 6.6114 0.012706
-28.625 25.687 0.019175 137.89 139.04 0.76826 564.99 0.0017699 130.84 131.16 0.73604 1.4818 2.3126 1072.8 -0.0045124 169.42 0.12143 4.0663 0.24592 498.46 542.01 2.4162 1.2802 1.5222 220.79 0.40356 6.6378 0.012800
-27.625 26.700 0.019872 140.43 141.62 0.77863 563.78 0.0017737 133.15 133.48 0.74547 1.4846 2.3180 1066.2 -0.0044621 167.62 0.12087 4.2163 0.23717 499.53 543.19 2.4142 1.2850 1.5286 220.91 0.39947 6.6642 0.012894
-26.625 27.743 0.020588 142.98 144.22 0.78899 562.57 0.0017775 135.47 135.81 0.75487 1.4874 2.3234 1059.7 -0.0044111 165.84 0.12031 4.3705 0.22881 500.60 544.37 2.4122 1.2899 1.5352 221.03 0.39547 6.6906 0.012989
-25.625 28.817 0.021323 145.54 146.83 0.79935 561.36 0.0017814 137.78 138.14 0.76426 1.4902 2.3289 1053.2 -0.0043593 164.09 0.11975 4.5290 0.22080 501.68 545.55 2.4102 1.2947 1.5418 221.14 0.39154 6.7171 0.013084
-24.625 29.923 0.022079 148.11 149.44 0.80972 560.14 0.0017853 140.11 140.48 0.77363 1.4931 2.3344 1046.7 -0.0043067 162.36 0.11919 4.6918 0.21314 502.75 546.72 2.4083 1.2996 1.5485 221.25 0.38768 6.7436 0.013180
-23.625 31.061 0.022854 150.70 152.08 0.82009 558.92 0.0017892 142.44 142.82 0.78298 1.4960 2.3400 1040.1 -0.0042533 160.65 0.11863 4.8592 0.20580 503.82 547.90 2.4064 1.3045 1.5552 221.35 0.38391 6.7701 0.013277
-22.625 32.232 0.023651 153.29 154.72 0.83045 557.69 0.0017931 144.77 145.17 0.79232 1.4990 2.3457 1033.6 -0.0041990 158.97 0.11807 5.0311 0.19877 504.90 549.07 2.4045 1.3095 1.5621 221.44 0.38020 6.7967 0.013374
-21.625 33.435 0.024468 155.89 157.38 0.84082 556.46 0.0017971 147.11 147.52 0.80164 1.5019 2.3514 1027.1 -0.0041439 157.30 0.11752 5.2076 0.19203 505.97 550.24 2.4027 1.3144 1.5690 221.52 0.37656 6.8232 0.013471
-20.625 34.673 0.025307 158.50 160.05 0.85119 555.23 0.0018011 149.45 149.88 0.81095 1.5049 2.3572 1020.6 -0.0040879 155.66 0.11697 5.3889 0.18557 507.04 551.40 2.4010 1.3194 1.5759 221.59 0.37300 6.8499 0.013569
-19.625 35.946 0.026168 161.13 162.73 0.86156 553.99 0.0018051 151.80 152.25 0.82024 1.5079 2.3630 1014.0 -0.0040311 154.04 0.11642 5.5750 0.17937 508.11 552.57 2.3992 1.3244 1.5829 221.66 0.36950 6.8765 0.013668
-18.625 37.253 0.027051 163.76 165.42 0.87194 552.74 0.0018092 154.16 154.62 0.82952 1.5109 2.3689 1007.5 -0.0039733 152.44 0.11587 5.7660 0.17343 509.19 553.73 2.3976 1.3294 1.5901 221.72 0.36608 6.9032 0.013767
-17.625 38.596 0.027956 166.41 168.13 0.88231 551.49 0.0018133 156.52 157.00 0.83878 1.5140 2.3749 1001.0 -0.0039145 150.86 0.11532 5.9621 0.16773 510.26 554.89 2.3959 1.3345 1.5972 221.77 0.36272 6.9300 0.013867
-16.625 39.976 0.028885 169.07 170.85 0.89270 550.24 0.0018174 158.89 159.39 0.84803 1.5171 2.3810 994.44 -0.0038549 149.29 0.11478 6.1632 0.16225 511.33 556.05 2.3943 1.3395 1.6045 221.81 0.35942 6.9568 0.013968
-15.625 41.392 0.029838 171.74 173.58 0.90308 548.98 0.0018216 161.26 161.78 0.85726 1.5202 2.3871 987.91 -0.0037942 147.75 0.11423 6.3696 0.15700 512.40 557.20 2.3927 1.3446 1.6119 221.85 0.35619 6.9836 0.014069
-14.625 42.846 0.030814 174.42 176.32 0.91347 547.71 0.0018258 163.64 164.18 0.86649 1.5233 2.3933 981.37 -0.0037325 146.22 0.11369 6.5812 0.15195 513.47 558.36 2.3912 1.3497 1.6193 221.87 0.35302 7.0105 0.014170
-13.625 44.338 0.031815 177.11 179.08 0.92386 546.44 0.0018300 166.02 166.58 0.87569 1.5264 2.3996 974.83 -0.0036698 144.72 0.11315 6.7983 0.14710 514.54 559.51 2.3897 1.3549 1.6268 221.89 0.34992 7.0375 0.014273
-12.625 45.870 0.032840 179.81 181.85 0.93426 545.17 0.0018343 168.41 168.99 0.88489 1.5296 2.4059 968.29 -0.0036061 143.23 0.11261 7.0208 0.14243 515.61 560.65 2.3883 1.3600 1.6344 221.90 0.34688 7.0646 0.014376
-11.625 47.440 0.033892 182.53 184.64 0.94466 543.89 0.0018386 170.81 171.41 0.89407 1.5328 2.4124 961.75 -0.0035413 141.76 0.11208 7.2490 0.13795 516.68 561.80 2.3868 1.3652 1.6421 221.91 0.34389 7.0917 0.014479
-10.625 49.051 0.034968 185.26 187.44 0.95507 542.60 0.0018430 173.21 173.83 0.90324 1.5360 2.4189 955.20 -0.0034753 140.30 0.11154 7.4829 0.13364 517.75 562.94 2.3854 1.3704 1.6498 221.90 0.34097 7.1188 0.014584
-9.6250 50.703 0.036072 187.99 190.25 0.96548 541.31 0.0018474 175.61 176.26 0.91240 1.5393 2.4255 948.65 -0.0034082 138.86 0.11101 7.7226 0.12949 518.81 564.08 2.3841 1.3757 1.6577 221.88 0.33810 7.1461 0.014689
-8.6250 52.396 0.037202 190.75 193.08 0.97590 540.02 0.0018518 178.03 178.70 0.92154 1.5426 2.4321 942.10 -0.0033400 137.44 0.11048 7.9683 0.12550 519.88 565.21 2.3827 1.3809 1.6657 221.86 0.33529 7.1734 0.014795
-7.6250 54.131 0.038359 193.51 195.92 0.98633 538.72 0.0018563 180.45 181.14 0.93068 1.5459 2.4389 935.55 -0.0032705 136.03 0.10995 8.2200 0.12165 520.94 566.35 2.3814 1.3862 1.6737 221.83 0.33254 7.2008 0.014902
-6.6250 55.909 0.039544 196.28 198.77 0.99676 537.41 0.0018608 182.87 183.59 0.93980 1.5492 2.4457 928.99 -0.0031998 134.64 0.10942 8.4779 0.11795 522.01 567.48 2.3801 1.3915 1.6819 221.79 0.32984 7.2284 0.015009
-5.6250 57.730 0.040758 199.07 201.64 1.0072 536.10 0.0018653 185.30 186.05 0.94892 1.5525 2.4526 922.43 -0.0031279 133.27 0.10889 8.7420 0.11439 523.07 568.60 2.3789 1.3969 1.6902 221.74 0.32720 7.2560 0.015117
-4.6250 59.595 0.042000 201.87 204.52 1.0176 534.78 0.0018699 187.74 188.51 0.95802 1.5559 2.4596 915.87 -0.0030546 131.91 0.10837 9.0126 0.11096 524.13 569.72 2.3777 1.4022 1.6985 221.68 0.32461 7.2837 0.015226
-3.6250 61.505 0.043272 204.68 207.42 1.0281 533.45 0.0018746 190.19 190.98 0.96711 1.5593 2.4667 909.30 -0.0029800 130.56 0.10785 9.2896 0.10765 525.19 570.84 2.3765 1.4076 1.7070 221.62 0.32207 7.3115 0.015336
-2.6250 63.461 0.044574 207.51 210.33 1.0386 532.12 0.0018793 192.64 193.46 0.97620 1.5627 2.4739 902.73 -0.0029041 129.23 0.10733 9.5733 0.10446 526.25 571.96 2.3753 1.4131 1.7156 221.54 0.31958 7.3394 0.015447
-1.6250 65.462 0.045907 210.35 213.26 1.0490 530.78 0.0018840 195.10 195.95 0.98527 1.5662 2.4811 896.16 -0.0028267 127.91 0.10681 9.8638 0.10138 527.31 573.07 2.3742 1.4185 1.7243 221.45 0.31715 7.3674 0.015559
-0.62500 67.510 0.047271 213.20 216.20 1.0595 529.44 0.0018888 197.56 198.44 0.99434 1.5696 2.4885 889.58 -0.0027478 126.61 0.10629 10.161 0.098414 528.37 574.18 2.3731 1.4240 1.7331 221.36 0.31476 7.3956 0.015671
0.37500 69.606 0.048666 216.06 219.16 1.0700 528.09 0.0018936 200.03 200.94 1.0034 1.5731 2.4960 883.00 -0.0026675 125.32 0.10578 10.466 0.095552 529.42 575.28 2.3720 1.4295 1.7421 221.26 0.31242 7.4239 0.015785
1.3750 71.749 0.050094 218.94 222.13 1.0805 526.73 0.0018985 202.51 203.45 1.0124 1.5767 2.5035 876.42 -0.0025856 124.04 0.10527 10.777 0.092790 530.48 576.38 2.3709 1.4350 1.7512 221.14 0.31013 7.4523 0.015899
2.3750 73.941 0.051555 221.83 225.11 1.0910 525.37 0.0019034 204.99 205.96 1.0215 1.5802 2.5112 869.83 -0.0025022 122.78 0.10476 11.096 0.090123 531.53 577.47 2.3699 1.4406 1.7604 221.02 0.30789 7.4808 0.016015
3.3750 76.183 0.053050 224.73 228.12 1.1015 523.99 0.0019084 207.48 208.48 1.0305 1.5838 2.5190 863.24 -0.0024171 121.53 0.10425 11.422 0.087549 532.58 578.56 2.3688 1.4462 1.7697 220.89 0.30569 7.5095 0.016131
4.3750 78.475 0.054579 227.64 231.13 1.1120 522.62 0.0019134 209.98 211.01 1.0395 1.5874 2.5268 856.64 -0.0023303 120.29 0.10374 11.756 0.085062 533.63 579.65 2.3678 1.4518 1.7792 220.75 0.30354 7.5384 0.016249
5.3750 80.817 0.056143 230.57 234.17 1.1226 521.23 0.0019185 212.48 213.55 1.0486 1.5910 2.5348 850.04 -0.0022417 119.06 0.10324 12.098 0.082660 534.67 580.73 2.3669 1.4575 1.7888 220.60 0.30144 7.5674 0.016368
6.3750 83.211 0.057743 233.51 237.22 1.1331 519.84 0.0019237 215.00 216.10 1.0576 1.5946 2.5429 843.43 -0.0021514 117.85 0.10273 12.447 0.080340 535.72 581.81 2.3659 1.4632 1.7986 220.44 0.29938 7.5966 0.016487
7.3750 85.657 0.059379 236.47 240.28 1.1437 518.44 0.0019289 217.51 218.65 1.0666 1.5983 2.5511 836.82 -0.0020593 116.65 0.10223 12.805 0.078096 536.76 582.88 2.3650 1.4689 1.8085 220.27 0.29736 7.6259 0.016608
8.3750 88.156 0.061053 239.44 243.36 1.1542 517.03 0.0019341 220.04 221.22 1.0756 1.6020 2.5595 830.20 -0.0019652 115.46 0.10173 13.170 0.075928 537.80 583.95 2.3640 1.4746 1.8186 220.08 0.29538 7.6555 0.016730
9.3750 90.708 0.062764 242.42 246.46 1.1648 515.62 0.0019394 222.57 223.79 1.0846 1.6057 2.5679 823.58 -0.0018691 114.28 0.10124 13.545 0.073830 538.84 585.01 2.3631 1.4804 1.8288 219.89 0.29345 7.6852 0.016853
10.375 93.315 0.064515 245.42 249.57 1.1754 514.19 0.0019448 225.11 226.37 1.0936 1.6095 2.5765 816.96 -0.0017710 113.11 0.10074 13.927 0.071802 539.87 586.07 2.3622 1.4863 1.8392 219.69 0.29156 7.7151 0.016978
11.375 95.977 0.066305 248.43 252.70 1.1860 512.76 0.0019502 227.66 228.95 1.1025 1.6132 2.5852 810.32 -0.0016708 111.95 0.10025 14.319 0.069840 540.90 587.12 2.3614 1.4921 1.8498 219.48 0.28971 7.7452 0.017103
12.375 98.694 0.068135 251.46 255.85 1.1966 511.32 0.0019557 230.22 231.55 1.1115 1.6170 2.5940 803.68 -0.0015685 110.80 0.099756 14.719 0.067941 541.93 588.17 2.3605 1.4980 1.8605 219.26 0.28790 7.7756 0.017230
13.375 101.47 0.070007 254.50 259.01 1.2073 509.87 0.0019613 232.78 234.15 1.1205 1.6208 2.6030 797.04 -0.0014639 109.67 0.099267 15.128 0.066103 542.96 589.21 2.3597 1.5040 1.8715 219.03 0.28612 7.8061 0.017359
14.375 104.30 0.071921 257.55 262.19 1.2179 508.42 0.0019669 235.35 236.77 1.1295 1.6247 2.6121 790.39 -0.0013569 108.54 0.098779 15.547 0.064323 543.99 590.24 2.3588 1.5099 1.8826 218.79 0.28439 7.8369 0.017488
15.375 107.19 0.073878 260.62 265.39 1.2285 506.95 0.0019726 237.93 239.39 1.1384 1.6286 2.6214 783.73 -0.0012476 107.43 0.098294 15.974 0.062600 545.01 591.27 2.3580 1.5159 1.8940 218.53 0.28270 7.8680 0.017619
16.375 110.13 0.075880 263.70 268.60 1.2392 505.48 0.0019783 240.52 242.02 1.1474 1.6324 2.6308 777.07 -0.0011357 106.32 0.097810 16.412 0.060931 546.03 592.29 2.3572 1.5220 1.9055 218.27 0.28104 7.8993 0.017752
17.375 113.14 0.077926 266.80 271.83 1.2499 504.00 0.0019841 243.11 244.66 1.1564 1.6364 2.6403 770.40 -0.0010213 105.22 0.097328 16.859 0.059314 547.04 593.31 2.3564 1.5281 1.9172 217.99 0.27942 7.9308 0.017886
18.375 116.21 0.080018 269.91 275.08 1.2606 502.50 0.0019900 245.72 247.31 1.1653 1.6403 2.6501 763.72 -0.00090422 104.14 0.096848 17.317 0.057747 548.05 594.32 2.3557 1.5342 1.9292 217.71 0.27783 7.9626 0.018021
19.375 119.33 0.082158 273.03 278.34 1.2713 501.00 0.0019960 248.33 249.97 1.1743 1.6443 2.6599 757.04 -0.00078435 103.06 0.096371 17.785 0.056228 549.06 595.33 2.3549 1.5404 1.9414 217.41 0.27628 7.9947 0.018159
20.375 122.52 0.084346 276.18 281.63 1.2820 499.49 0.0020020 250.95 252.64 1.1832 1.6483 2.6700 750.35 -0.00066161 101.99 0.095895 18.263 0.054756 550.07 596.32 2.3541 1.5466 1.9538 217.10 0.27477 8.0272 0.018297
21.375 125.77 0.086583 279.33 284.93 1.2927 497.97 0.0020082 253.57 255.32 1.1922 1.6523 2.6802 743.64 -0.00053589 100.93 0.095420 18.752 0.053328 551.07 597.31 2.3534 1.5528 1.9665 216.78 0.27329 8.0599 0.018438
22.375 129.08 0.088871 282.50 288.25 1.3035 496.43 0.0020144 256.21 258.00 1.2012 1.6563 2.6906 736.94 -0.00040708 99.877 0.094948 19.252 0.051943 552.07 598.30 2.3526 1.5591 1.9795 216.45 0.27184 8.0929 0.018580
23.375 132.46 0.091211 285.69 291.58 1.3142 494.89 0.0020206 258.86 260.70 1.2101 1.6604 2.7012 730.22 -0.00027505 98.834 0.094478 19.763 0.050600 553.06 599.27 2.3519 1.5655 1.9927 216.11 0.27043 8.1263 0.018724
24.375 135.90 0.093604 288.89 294.94 1.3250 493.34 0.0020270 261.51 263.41 1.2191 1.6645 2.7120 723.49 -0.00013968 97.800 0.094009 20.285 0.049297 554.05 600.24 2.3512 1.5718 2.0061 215.75 0.26906 8.1600 0.018870
25.375 139.41 0.096051 292.11 298.31 1.3358 491.77 0.0020335 264.17 266.13 1.2280 1.6686 2.7230 716.76 -8.3775e-07 96.773 0.093543 20.820 0.048032 555.03 601.20 2.3504 1.5783 2.0199 215.39 0.26771 8.1941 0.019017
26.375 142.98 0.098554 295.34 301.70 1.3466 490.20 0.0020400 266.84 268.85 1.2370 1.6728 2.7342 710.01 0.00014161 95.755 0.093078 21.366 0.046804 556.01 602.15 2.3497 1.5847 2.0340 215.01 0.26640 8.2286 0.019167
27.375 146.62 0.10111 298.59 305.11 1.3575 488.61 0.0020466 269.52 271.59 1.2459 1.6770 2.7456 703.26 0.00028782 94.745 0.092615 21.924 0.045612 556.99 603.10 2.3490 1.5913 2.0484 214.62 0.26512 8.2634 0.019319
28.375 150.33 0.10373 301.86 308.54 1.3683 487.01 0.0020533 272.21 274.34 1.2549 1.6812 2.7573 696.49 0.00043793 93.742 0.092154 22.495 0.044454 557.96 604.03 2.3483 1.5978 2.0631 214.21 0.26387 8.2987 0.019472
29.375 154.10 0.10641 305.14 311.99 1.3792 485.40 0.0020601 274.91 277.10 1.2638 1.6854 2.7691 689.72 0.00059212 92.747 0.091695 23.079 0.043329 558.92 604.96 2.3476 1.6044 2.0781 213.80 0.26265 8.3344 0.019628
30.375 157.94 0.10915 308.43 315.46 1.3900 483.78 0.0020671 277.62 279.87 1.2728 1.6897 2.7813 682.93 0.00075055 91.760 0.091238 23.676 0.042237 559.88 605.88 2.3469 1.6111 2.0935 213.37 0.26147 8.3705 0.019786
31.375 161.86 0.11196 311.74 318.94 1.4009 482.15 0.0020741 280.34 282.66 1.2818 1.6939 2.7936 676.13 0.00091340 90.779 0.090782 24.287 0.041175 560.84 606.79 2.3462 1.6178 2.1092 212.93 0.26031 8.4071 0.019947
32.375 165.84 0.11482 315.07 322.45 1.4119 480.50 0.0020812 283.07 285.45 1.2908 1.6983 2.8063 669.32 0.0010809 89.806 0.090328 24.911 0.040143 561.79 607.69 2.3455 1.6246 2.1254 212.48 0.25919 8.4442 0.020110
33.375 169.90 0.11776 318.42 325.98 1.4228 478.83 0.0020884 285.81 288.26 1.2997 1.7026 2.8192 662.50 0.0012532 88.840 0.089876 25.549 0.039140 562.73 608.58 2.3448 1.6314 2.1419 212.01 0.25809 8.4818 0.020275
34.375 174.02 0.12077 321.78 329.52 1.4337 477.16 0.0020957 288.56 291.07 1.3087 1.7070 2.8324 655.67 0.0014305 87.880 0.089426 26.202 0.038164 563.67 609.46 2.3440 1.6383 2.1589 211.53 0.25702 8.5199 0.020443
35.375 178.22 0.12384 325.16 333.09 1.4447 475.47 0.0021032 291.32 293.90 1.3177 1.7114 2.8459 648.82 0.0016131 86.927 0.088977 26.870 0.037216 564.60 610.33 2.3433 1.6452 2.1763 211.04 0.25599 8.5586 0.020613
36.375 182.50 0.12699 328.56 336.67 1.4557 473.77 0.0021107 294.09 296.74 1.3267 1.7158 2.8597 641.96 0.0018012 85.980 0.088531 27.553 0.036293 565.52 611.19 2.3426 1.6522 2.1942 210.53 0.25498 8.5978 0.020786
37.375 186.84 0.13022 331.97 340.28 1.4667 472.05 0.0021184 296.87 299.60 1.3357 1.7203 2.8739 635.08 0.0019950 85.040 0.088085 28.252 0.035395 566.44 612.04 2.3419 1.6592 2.2125 210.01 0.25400 8.6376 0.020962
38.375 191.27 0.13352 335.40 343.91 1.4777 470.31 0.0021262 299.66 302.46 1.3447 1.7248 2.8884 628.19 0.0021949 84.105 0.087642 28.967 0.034522 567.35 612.88 2.3411 1.6663 2.2314 209.47 0.25305 8.6780 0.021141
39.375 195.77 0.13690 338.85 347.56 1.4888 468.56 0.0021342 302.46 305.34 1.3537 1.7293 2.9033 621.29 0.0024011 83.177 0.087200 29.699 0.033671 568.26 613.70 2.3404 1.6734 2.2508 208.92 0.25213 8.7190 0.021323
40.375 200.34 0.14036 342.31 351.23 1.4999 466.80 0.0021423 305.27 308.23 1.3627 1.7339 2.9185 614.37 0.0026140 82.254 0.086760 30.447 0.032844 569.15 614.52 2.3396 1.6806 2.2708 208.36 0.25123 8.7608 0.021508
41.375 205.00 0.14391 345.80 354.92 1.5110 465.01 0.0021505 308.10 311.14 1.3718 1.7385 2.9342 607.43 0.0028338 81.338 0.086322 31.214 0.032037 570.04 615.32 2.3389 1.6879 2.2913 207.78 0.25037 8.8032 0.021696
42.375 209.73 0.14755 349.30 358.63 1.5221 463.21 0.0021588 310.94 314.06 1.3808 1.7432 2.9502 600.47 0.0030609 80.426 0.085885 31.998 0.031252 570.92 616.11 2.3381 1.6952 2.3125 207.19 0.24953 8.8463 0.021888
43.375 214.54 0.15128 352.82 362.36 1.5332 461.40 0.0021673 313.79 316.99 1.3899 1.7478 2.9667 593.50 0.0032957 79.520 0.085449 32.800 0.030488 571.79 616.88 2.3373 1.7027 2.3344 206.58 0.24871 8.8902 0.022084
44.375 219.43 0.15510 356.35 366.12 1.5444 459.56 0.0021760 316.65 319.94 1.3989 1.7525 2.9837 586.51 0.0035386 78.619 0.085015 33.622 0.029742 572.65 617.65 2.3365 1.7101 2.3569 205.96 0.24793 8.9349 0.022283
45.375 224.41 0.15902 359.91 369.89 1.5555 457.71 0.0021848 319.52 322.90 1.4080 1.7573 3.0012 579.50 0.0037900 77.723 0.084583 34.463 0.029016 573.50 618.40 2.3357 1.7177 2.3802 205.32 0.24717 8.9805 0.022485
46.375 229.46 0.16304 363.48 373.69 1.5667 455.83 0.0021938 322.41 325.88 1.4171 1.7621 3.0192 572.46 0.0040504 76.832 0.084152 35.325 0.028308 574.34 619.13 2.3349 1.7253 2.4042 204.67 0.24644 9.0269 0.022692
47.375 234.60 0.16717 367.08 377.51 1.5780 453.94 0.0022029 325.31 328.87 1.4262 1.7669 3.0377 565.41 0.0043202 75.946 0.083723 36.208 0.027618 575.17 619.85 2.3340 1.7329 2.4291 204.00 0.24573 9.0742 0.022903
48.375 239.83 0.17140 370.69 381.36 1.5892 452.03 0.0022123 328.22 331.88 1.4353 1.7718 3.0569 558.34 0.0046000 75.064 0.083295 37.112 0.026945 576.00 620.55 2.3332 1.7407 2.4548 203.31 0.24505 9.1224 0.023119
49.375 245.13 0.17575 374.32 385.23 1.6005 450.09 0.0022218 331.15 334.90 1.4445 1.7767 3.0766 551.24 0.0048904 74.186 0.082868 38.039 0.026289 576.81 621.24 2.3323 1.7485 2.4815 202.61 0.24440 9.1716 0.023339
50.375 250.53 0.18022 377.97 389.12 1.6118 448.13 0.0022315 334.09 337.94 1.4536 1.7817 3.0970 544.13 0.0051920 73.313 0.082442 38.989 0.025648 577.61 621.91 2.3314 1.7564 2.5092 201.89 0.24377 9.2219 0.023564
51.375 256.01 0.18480 381.65 393.03 1.6231 446.15 0.0022414 337.04 341.00 1.4628 1.7867 3.1181 536.98 0.0055054 72.443 0.082018 39.962 0.025024 578.39 622.56 2.3304 1.7644 2.5379 201.16 0.24317 9.2733 0.023794
52.375 261.57 0.18952 385.34 396.97 1.6345 444.15 0.0022515 340.01 344.07 1.4720 1.7918 3.1400 529.82 0.0058313 71.577 0.081595 40.961 0.024414 579.17 623.20 2.3295 1.7724 2.5677 200.41 0.24260 9.3258 0.024029
53.375 267.23 0.19436 389.05 400.94 1.6459 442.12 0.0022618 343.00 347.17 1.4812 1.7969 3.1627 522.62 0.0061705 70.715 0.081174 41.985 0.023818 579.93 623.81 2.3285 1.7805 2.5987 199.63 0.24205 9.3795 0.024270
54.375 272.97 0.19935 392.78 404.92 1.6573 440.06 0.0022724 346.00 350.28 1.4904 1.8021 3.1862 515.40 0.0065239 69.856 0.080753 43.036 0.023237 580.68 624.41 2.3274 1.7887 2.6310 198.85 0.24154 9.4344 0.024516
55.375 278.81 0.20448 396.54 408.94 1.6687 437.98 0.0022832 349.02 353.40 1.4997 1.8073 3.2106 508.15 0.0068923 69.001 0.080334 44.114 0.022669 581.41 624.99 2.3264 1.7969 2.6646 198.04 0.24105 9.4907 0.024769
56.375 284.74 0.20976 400.31 412.98 1.6802 435.87 0.0022943 352.05 356.55 1.5090 1.8126 3.2360 500.87 0.0072767 68.148 0.079915 45.221 0.022114 582.13 625.54 2.3253 1.8052 2.6998 197.22 0.24059 9.5484 0.025028
57.375 290.76 0.21520 404.11 417.04 1.6917 433.73 0.0023056 355.10 359.72 1.5183 1.8179 3.2624 493.56 0.0076782 67.299 0.079498 46.358 0.021571 582.83 626.07 2.3241 1.8136 2.7365 196.37 0.24016 9.6075 0.025294
58.375 296.87 0.22081 407.92 421.13 1.7033 431.56 0.0023172 358.17 362.91 1.5276 1.8233 3.2900 486.22 0.0080980 66.451 0.079082 47.525 0.021041 583.52 626.58 2.3230 1.8220 2.7749 195.51 0.23976 9.6682 0.025568
59.375 303.08 0.22659 411.77 425.25 1.7148 429.36 0.0023290 361.25 366.12 1.5370 1.8288 3.3188 478.84 0.0085373 65.606 0.078666 48.726 0.020523 584.18 627.07 2.3218 1.8305 2.8152 194.63 0.23939 9.7305 0.025849
60.375 309.38 0.23256 415.63 429.39 1.7264 427.13 0.0023412 364.36 369.35 1.5464 1.8343 3.3489 471.43 0.0089976 64.763 0.078251 49.960 0.020016 584.83 627.53 2.3205 1.8391 2.8576 193.73 0.23905 9.7945 0.026138
61.375 315.78 0.23872 419.52 433.56 1.7381 424.87 0.0023537 367.48 372.60 1.5558 1.8400 3.3805 463.99 0.0094803 63.922 0.077838 51.229 0.019520 585.46 627.96 2.3192 1.8479 2.9022 192.82 0.23873 9.8603 0.026436
62.375 322.28 0.24508 423.42 437.76 1.7497 422.56 0.0023665 370.62 375.88 1.5653 1.8457 3.4136 456.50 0.0099871 63.083 0.077425 52.535 0.019035 586.07 628.37 2.3178 1.8567 2.9492 191.88 0.23845 9.9281 0.026744
63.375 328.88 0.25166 427.36 441.99 1.7614 420.22 0.0023797 373.79 379.18 1.5748 1.8514 3.4483 448.97 0.010520 62.244 0.077012 53.879 0.018560 586.66 628.74 2.3164 1.8656 2.9989 190.92 0.23819 9.9979 0.027061
64.375 335.58 0.25847 431.32 446.24 1.7732 417.85 0.0023932 376.97 382.51 1.5844 1.8573 3.4850 441.40 0.011081 61.407 0.076600 55.265 0.018095 587.22 629.09 2.3149 1.8747 3.0517 189.95 0.23796 10.070 0.027389
65.375 342.38 0.26552 435.30 450.53 1.7850 415.42 0.0024072 380.18 385.86 1.5939 1.8633 3.5236 433.79 0.011672 60.570 0.076189 56.692 0.017639 587.76 629.40 2.3133 1.8839 3.1077 188.95 0.23775 10.144 0.027729
66.375 349.28 0.27284 439.31 454.84 1.7968 412.96 0.0024215 383.41 389.25 1.6036 1.8693 3.5645 426.12 0.012296 59.733 0.075779 58.165 0.017193 588.28 629.68 2.3117 1.8933 3.1674 187.93 0.23757 10.221 0.028080
67.375 356.28 0.28042 443.34 459.19 1.8086 410.45 0.0024363 386.67 392.65 1.6133 1.8755 3.6078 418.41 0.012956 58.897 0.075368 59.684 0.016755 588.76 629.92 2.3100 1.9030 3.2311 186.89 0.23740 10.300 0.028446
68.375 363.40 0.28831 447.40 463.57 1.8206 407.89 0.0024516 389.95 396.09 1.6230 1.8818 3.6537 410.64 0.013655 58.059 0.074959 61.253 0.016326 589.22 630.13 2.3082 1.9129 3.2994 185.83 0.23724 10.382 0.028825
69.375 370.61 0.29650 451.49 467.98 1.8325 405.28 0.0024674 393.26 399.57 1.6328 1.8882 3.7027 402.81 0.014396 57.221 0.074549 62.875 0.015905 589.65 630.29 2.3064 1.9231 3.3727 184.74 0.23710 10.467 0.029221
70.375 377.94 0.30504 455.61 472.42 1.8445 402.62 0.0024838 396.60 403.07 1.6426 1.8947 3.7550 394.92 0.015183 56.381 0.074141 64.552 0.015491 590.04 630.41 2.3044 1.9336 3.4518 183.63 0.23697 10.555 0.029633
71.375 385.37 0.31394 459.75 476.89 1.8566 399.89 0.0025007 399.96 406.61 1.6525 1.9014 3.8109 386.97 0.016021 55.540 0.073732 66.288 0.015086 590.40 630.49 2.3024 1.9444 3.5371 182.50 0.23684 10.647 0.030064
72.375 392.92 0.32323 463.92 481.40 1.8686 397.11 0.0025182 403.36 410.18 1.6625 1.9083 3.8711 378.95 0.016915 54.696 0.073324 68.087 0.014687 590.73 630.51 2.3002 1.9556 3.6297 181.34 0.23671 10.743 0.030515
73.375 400.57 0.33295 468.13 485.95 1.8808 394.26 0.0025364 406.79 413.80 1.6726 1.9153 3.9359 370.85 0.017871 53.848 0.072917 69.953 0.014295 591.01 630.49 2.2979 1.9673 3.7303 180.16 0.23658 10.842 0.030989
74.375 408.34 0.34314 472.36 490.53 1.8930 391.34 0.0025553 410.26 417.45 1.6827 1.9226 4.0060 362.67 0.018894 52.997 0.072510 71.890 0.013910 591.25 630.41 2.2955 1.9793 3.8401 178.95 0.23643 10.946 0.031488
75.375 416.23 0.35383 476.63 495.15 1.9053 388.34 0.0025751 413.76 421.15 1.6930 1.9301 4.0822 354.41 0.019993 52.142 0.072104 73.904 0.013531 591.44 630.27 2.2930 1.9919 3.9604 177.71 0.23627 11.054 0.032014
76.375 424.23 0.36508 480.93 499.80 1.9176 385.26 0.0025957 417.31 424.90 1.7033 1.9378 4.1654 346.06 0.021177 51.281 0.071699 76.001 0.013158 591.59 630.07 2.2903 2.0050 4.0927 176.44 0.23609 11.168 0.032570
77.375 432.35 0.37693 485.27 504.50 1.9300 382.09 0.0026172 420.89 428.70 1.7137 1.9459 4.2565 337.60 0.022455 50.414 0.071295 78.187 0.012790 591.68 629.80 2.2874 2.0186 4.2389 175.15 0.23588 11.287 0.033161
78.375 440.59 0.38947 489.64 509.24 1.9424 378.83 0.0026397 424.53 432.54 1.7243 1.9543 4.3570 329.05 0.023838 49.539 0.070893 80.469 0.012427 591.71 629.46 2.2844 2.0328 4.4012 173.82 0.23563 11.412 0.033789
79.375 448.95 0.40276 494.05 514.02 1.9549 375.46 0.0026634 428.21 436.45 1.7349 1.9631 4.4684 320.38 0.025341 48.657 0.070494 82.856 0.012069 591.68 629.04 2.2812 2.0475 4.5824 172.46 0.23535 11.544 0.034461
80.375 457.44 0.41689 498.49 518.84 1.9675 371.97 0.0026884 431.94 440.42 1.7457 1.9723 4.5928 311.58 0.026980 47.764 0.070099 85.359 0.011715 591.58 628.53 2.2778 2.0630 4.7859 171.07 0.23501 11.684 0.035181
81.375 466.05 0.43198 502.98 523.71 1.9802 368.36 0.0027147 435.74 444.46 1.7567 1.9820 4.7327 302.66 0.028773 46.860 0.069708 87.988 0.011365 591.40 627.92 2.2742 2.0791 5.0161 169.64 0.23461 11.832 0.035957
82.375 474.79 0.44817 507.52 528.64 1.9930 364.61 0.0027427 439.60 448.58 1.7678 1.9924 4.8914 293.60 0.030744 45.942 0.069323 90.757 0.011018 591.14 627.21 2.2703 2.0959 5.2786 168.17 0.23413 11.989 0.036797
83.375 483.66 0.46560 512.09 533.61 2.0059 360.70 0.0027724 443.53 452.78 1.7791 2.0034 5.0731 284.38 0.032920 45.010 0.068948 93.681 0.010674 590.79 626.38 2.2661 2.1136 5.5807 166.67 0.23357 12.157 0.037711
84.375 492.67 0.48449 516.72 538.64 2.0188 356.61 0.0028041 447.54 457.07 1.7907 2.0153 5.2834 275.00 0.035335 44.059 0.068586 96.781 0.010333 590.33 625.42 2.2616 2.1321 5.9321 165.13 0.23290 12.338 0.038713
85.375 501.81 0.50510 521.40 543.72 2.0319 352.33 0.0028382 451.65 461.47 1.8025 2.0281 5.5302 265.44 0.038030 43.088 0.068241 100.08 0.0099920 589.74 624.31 2.2567 2.1517 6.3459 163.54 0.23209 12.532 0.039819
86.375 511.09 0.52775 526.14 548.87 2.0451 347.82 0.0028751 455.85 465.98 1.8145 2.0420 5.8240 255.69 0.041058 42.092 0.067923 103.61 0.0096520 589.03 623.04 2.2514 2.1723 6.8405 161.91 0.23112 12.743 0.041051
87.375 520.51 0.55290 530.93 554.08 2.0584 343.04 0.0029151 460.18 470.64 1.8269 2.0574 6.1803 245.72 0.044485 41.066 0.067640 107.40 0.0093114 588.15 621.56 2.2456 2.1943 7.4422 160.23 0.22995 12.973 0.042436
88.375 530.07 0.58114 535.79 559.37 2.0719 337.95 0.0029590 464.64 475.45 1.8397 2.0745 6.6221 235.52 0.048397 40.005 0.067412 111.50 0.0089689 587.08 619.86 2.2392 2.2178 8.1900 158.49 0.22854 13.226 0.044014
89.375 539.79 0.61333 540.73 564.74 2.0855 332.48 0.0030077 469.27 480.46 1.8530 2.0936 7.1851 225.04 0.052906 38.901 0.067265 115.97 0.0086228 585.79 617.88 2.2321 2.2433 9.1445 156.69 0.22681 13.508 0.045839
90.375 549.66 0.65072 545.75 570.20 2.0993 326.55 0.0030623 474.10 485.71 1.8669 2.1156 7.9284 214.26 0.058166 37.742 0.067243 120.91 0.0082708 584.22 615.56 2.2241 2.2711 10.405 154.82 0.22467 13.825 0.047992
91.375 559.68 0.69527 550.87 575.77 2.1134 320.03 0.0031247 479.19 491.25 1.8815 2.1412 8.9568 203.11 0.064389 36.514 0.067421 126.43 0.0079097 582.29 612.82 2.2150 2.3019 12.146 152.85 0.22200 14.189 0.050600
92.375 569.87 0.75029 556.11 581.46 2.1277 312.73 0.0031976 484.62 497.18 1.8972 2.1718 10.475 191.54 0.071885 35.195 0.067931 132.72 0.0075346 579.91 609.51 2.2045 2.3370 14.705 150.75 0.21862 14.618 0.053877
93.375 580.24 0.82197 561.49 587.31 2.1425 304.34 0.0032858 490.52 503.67 1.9143 2.2100 12.945 179.43 0.081133 33.755 0.069025 140.11 0.0071373 576.87 605.42 2.1919 2.3779 18.828 148.48 0.21421 15.146 0.058225
94.375 590.79 0.92406 567.08 593.36 2.1577 294.25 0.0033985 497.17 511.01 1.9336 2.2603 17.657 166.61 0.092934 32.154 0.071243 149.20 0.0067025 572.82 600.12 2.1761 2.4283 26.557 145.93 0.20825 15.847 0.064529
95.375 600.22 undefined 571.26 597.96 2.1690 155.00 0.0064516 571.26 597.96 2.1690 2.4401 29.753 145.14 0.20272 16.403 0.066938 155.00 0.0064516 571.26 597.96 2.1690 2.4401 29.753 145.14 0.20272 16.403 0.066938
96.375 608.22 undefined 573.68 600.74 2.1756 155.00 0.0064516 573.68 600.74 2.1756 2.4024 23.760 146.66 0.19964 16.588 0.063218 155.00 0.0064516 573.68 600.74 2.1756 2.4024 23.760 146.66 0.19964 16.588 0.063218
97.375 616.16 undefined 576.07 603.48 2.1820 155.00 0.0064516 576.07 603.48 2.1820 2.3701 19.908 148.16 0.19654 16.571 0.060797 155.00 0.0064516 576.07 603.48 2.1820 2.3701 19.908 148.16 0.19654 16.571 0.060797
98.375 624.04 undefined 578.43 606.18 2.1884 155.00 0.0064516 578.43 606.18 2.1884 2.3426 17.225 149.63 0.19343 16.479 0.059055 155.00 0.0064516 578.43 606.18 2.1884 2.3426 17.225 149.63 0.19343 16.479 0.059055
99.375 631.87 undefined 580.76 608.86 2.1947 155.00 0.0064516 580.76 608.86 2.1947 2.3192 15.249 151.09 0.19033 16.449 0.057629 155.00 0.0064516 580.76 608.86 2.1947 2.3192 15.249 151.09 0.19033 16.449 0.057629
100.38 639.65 undefined 583.07 611.52 2.2009 155.00 0.0064516 583.07 611.52 2.2009 2.2992 13.733 152.52 0.18724 16.450 0.056449 155.00 0.0064516 583.07 611.52 2.2009 2.2992 13.733 152.52 0.18724 16.450 0.056449
101.38 647.39 undefined 585.36 614.15 2.2070 155.00 0.0064516 585.36 614.15 2.2070 2.2823 12.533 153.92 0.18418 16.467 0.055461 155.00 0.0064516 585.36 614.15 2.2070 2.2823 12.533 153.92 0.18418 16.467 0.055461
102.38 655.10 undefined 587.63 616.77 2.2130 155.00 0.0064516 587.63 616.77 2.2130 2.2679 11.559 155.30 0.18116 16.492 0.054627 155.00 0.0064516 587.63 616.77 2.2130 2.2679 11.559 155.30 0.18116 16.492 0.054627
103.38 662.78 undefined 589.89 619.37 2.2191 155.00 0.0064516 589.89 619.37 2.2191 2.2555 10.753 156.67 0.17818 16.522 0.053914 155.00 0.0064516 589.89 619.37 2.2191 2.2555 10.753 156.67 0.17818 16.522 0.053914
104.38 670.43 undefined 592.14 621.96 2.2250 155.00 0.0064516 592.14 621.96 2.2250 2.2450 10.074 158.01 0.17524 16.553 0.053300 155.00 0.0064516 592.14 621.96 2.2250 2.2450 10.074 158.01 0.17524 16.553 0.053300
105.38 678.05 undefined 594.38 624.54 2.2310 155.00 0.0064516 594.38 624.54 2.2310 2.2359 9.4948 159.34 0.17235 16.585 0.052768 155.00 0.0064516 594.38 624.54 2.2310 2.2359 9.4948 159.34 0.17235 16.585 0.052768
106.38 685.65 undefined 596.61 627.11 2.2368 155.00 0.0064516 596.61 627.11 2.2368 2.2280 8.9946 160.65 0.16952 16.618 0.052304 155.00 0.0064516 596.61 627.11 2.2368 2.2280 8.9946 160.65 0.16952 16.618 0.052304
107.38 693.23 undefined 598.84 629.68 2.2427 155.00 0.0064516 598.84 629.68 2.2427 2.2212 8.5583 161.94 0.16674 16.651 0.051897 155.00 0.0064516 598.84 629.68 2.2427 2.2212 8.5583 161.94 0.16674 16.651 0.051897
108.38 700.79 undefined 601.06 632.23 2.2485 155.00 0.0064516 601.06 632.23 2.2485 2.2153 8.1743 163.23 0.16402 16.684 0.051539 155.00 0.0064516 601.06 632.23 2.2485 2.2153 8.1743 163.23 0.16402 16.684 0.051539
109.38 708.33 undefined 603.27 634.78 2.2543 155.00 0.0064516 603.27 634.78 2.2543 2.2101 7.8337 164.50 0.16135 16.717 0.051224 155.00 0.0064516 603.27 634.78 2.2543 2.2101 7.8337 164.50 0.16135 16.717 0.051224
110.38 715.85 undefined 605.48 637.32 2.2601 155.00 0.0064516 605.48 637.32 2.2601 2.2055 7.5297 165.76 0.15874 16.751 0.050944 155.00 0.0064516 605.48 637.32 2.2601 2.2055 7.5297 165.76 0.15874 16.751 0.050944
111.38 723.36 undefined 607.68 639.86 2.2658 155.00 0.0064516 607.68 639.86 2.2658 2.2015 7.2566 167.02 0.15619 16.784 0.050697 155.00 0.0064516 607.68 639.86 2.2658 2.2015 7.2566 167.02 0.15619 16.784 0.050697
112.38 730.85 undefined 609.88 642.39 2.2715 155.00 0.0064516 609.88 642.39 2.2715 2.1981 7.0100 168.26 0.15369 16.817 0.050478 155.00 0.0064516 609.88 642.39 2.2715 2.1981 7.0100 168.26 0.15369 16.817 0.050478
113.38 738.33 undefined 612.08 644.92 2.2772 155.00 0.0064516 612.08 644.92 2.2772 2.1950 6.7862 169.50 0.15125 16.850 0.050285 155.00 0.0064516 612.08 644.92 2.2772 2.1950 6.7862 169.50 0.15125 16.850 0.050285
114.38 745.79 undefined 614.27 647.45 2.2829 155.00 0.0064516 614.27 647.45 2.2829 2.1923 6.5824 170.72 0.14887 16.883 0.050114 155.00 0.0064516 614.27 647.45 2.2829 2.1923 6.5824 170.72 0.14887 16.883 0.050114
115.38 753.24 undefined 616.46 649.97 2.2885 155.00 0.0064516 616.46 649.97 2.2885 2.1900 6.3959 171.94 0.14653 16.916 0.049964 155.00 0.0064516 616.46 649.97 2.2885 2.1900 6.3959 171.94 0.14653 16.916 0.049964
116.38 760.67 undefined 618.65 652.49 2.2942 155.00 0.0064516 618.65 652.49 2.2942 2.1880 6.2247 173.16 0.14425 16.949 0.049832 155.00 0.0064516 618.65 652.49 2.2942 2.1880 6.2247 173.16 0.14425 16.949 0.049832
117.38 768.10 undefined 620.84 655.00 2.2998 155.00 0.0064516 620.84 655.00 2.2998 2.1863 6.0671 174.36 0.14202 16.982 0.049716 155.00 0.0064516 620.84 655.00 2.2998 2.1863 6.0671 174.36 0.14202 16.982 0.049716
118.38 775.51 undefined 623.02 657.52 2.3053 155.00 0.0064516 623.02 657.52 2.3053 2.1849 5.9215 175.56 0.13985 17.015 0.049616 155.00 0.0064516 623.02 657.52 2.3053 2.1849 5.9215 175.56 0.13985 17.015 0.049616
119.38 782.91 undefined 625.21 660.03 2.3109 155.00 0.0064516 625.21 660.03 2.3109 2.1837 5.7866 176.75 0.13772 17.047 0.049529 155.00 0.0064516 625.21 660.03 2.3109 2.1837 5.7866 176.75 0.13772 17.047 0.049529
120.38 790.30 undefined 627.39 662.55 2.3165 155.00 0.0064516 627.39 662.55 2.3165 2.1827 5.6614 177.93 0.13563 17.080 0.049456 155.00 0.0064516 627.39 662.55 2.3165 2.1827 5.6614 177.93 0.13563 17.080 0.049456
121.38 797.68 undefined 629.57 665.06 2.3220 155.00 0.0064516 629.57 665.06 2.3220 2.1820 5.5449 179.11 0.13360 17.113 0.049394 155.00 0.0064516 629.57 665.06 2.3220 2.1820 5.5449 179.11 0.13360 17.113 0.049394
122.38 805.05 undefined 631.75 667.57 2.3275 155.00 0.0064516 631.75 667.57 2.3275 2.1814 5.4362 180.28 0.13160 17.146 0.049342 155.00 0.0064516 631.75 667.57 2.3275 2.1814 5.4362 180.28 0.13160 17.146 0.049342
123.38 812.41 undefined 633.94 670.07 2.3330 155.00 0.0064516 633.94 670.07 2.3330 2.1811 5.3346 181.44 0.12966 17.178 0.049301 155.00 0.0064516 633.94 670.07 2.3330 2.1811 5.3346 181.44 0.12966 17.178 0.049301
124.38 819.76 undefined 636.12 672.58 2.3385 155.00 0.0064516 636.12 672.58 2.3385 2.1809 5.2394 182.60 0.12775 17.211 0.049269 155.00 0.0064516 636.12 672.58 2.3385 2.1809 5.2394 182.60 0.12775 17.211 0.049269
125.38 827.10 undefined 638.30 675.09 2.3440 155.00 0.0064516 638.30 675.09 2.3440 2.1809 5.1502 183.75 0.12589 17.243 0.049245 155.00 0.0064516 638.30 675.09 2.3440 2.1809 5.1502 183.75 0.12589 17.243 0.049245
126.38 834.43 undefined 640.48 677.60 2.3495 155.00 0.0064516 640.48 677.60 2.3495 2.1811 5.0663 184.89 0.12406 17.276 0.049230 155.00 0.0064516 640.48 677.60 2.3495 2.1811 5.0663 184.89 0.12406 17.276 0.049230
127.38 841.76 undefined 642.66 680.10 2.3549 155.00 0.0064516 642.66 680.10 2.3549 2.1814 4.9874 186.03 0.12228 17.308 0.049222 155.00 0.0064516 642.66 680.10 2.3549 2.1814 4.9874 186.03 0.12228 17.308 0.049222
128.38 849.08 undefined 644.84 682.61 2.3604 155.00 0.0064516 644.84 682.61 2.3604 2.1819 4.9130 187.17 0.12053 17.341 0.049221 155.00 0.0064516 644.84 682.61 2.3604 2.1819 4.9130 187.17 0.12053 17.341 0.049221
129.38 856.38 undefined 647.02 685.12 2.3658 155.00 0.0064516 647.02 685.12 2.3658 2.1825 4.8428 188.29 0.11882 17.373 0.049226 155.00 0.0064516 647.02 685.12 2.3658 2.1825 4.8428 188.29 0.11882 17.373 0.049226
130.38 863.69 undefined 649.21 687.63 2.3712 155.00 0.0064516 649.21 687.63 2.3712 2.1832 4.7765 189.41 0.11715 17.406 0.049237 155.00 0.0064516 649.21 687.63 2.3712 2.1832 4.7765 189.41 0.11715 17.406 0.049237
131.38 870.98 undefined 651.39 690.13 2.3766 155.00 0.0064516 651.39 690.13 2.3766 2.1840 4.7137 190.53 0.11551 17.438 0.049254 155.00 0.0064516 651.39 690.13 2.3766 2.1840 4.7137 190.53 0.11551 17.438 0.049254
132.38 878.27 undefined 653.57 692.64 2.3820 155.00 0.0064516 653.57 692.64 2.3820 2.1850 4.6542 191.64 0.11390 17.470 0.049277 155.00 0.0064516 653.57 692.64 2.3820 2.1850 4.6542 191.64 0.11390 17.470 0.049277
133.38 885.55 undefined 655.76 695.15 2.3874 155.00 0.0064516 655.76 695.15 2.3874 2.1860 4.5978 192.74 0.11233 17.502 0.049304 155.00 0.0064516 655.76 695.15 2.3874 2.1860 4.5978 192.74 0.11233 17.502 0.049304
134.38 892.82 undefined 657.95 697.66 2.3928 155.00 0.0064516 657.95 697.66 2.3928 2.1872 4.5442 193.84 0.11079 17.534 0.049336 155.00 0.0064516 657.95 697.66 2.3928 2.1872 4.5442 193.84 0.11079 17.534 0.049336
135.38 900.09 undefined 660.13 700.17 2.3981 155.00 0.0064516 660.13 700.17 2.3981 2.1885 4.4933 194.93 0.10928 17.567 0.049373 155.00 0.0064516 660.13 700.17 2.3981 2.1885 4.4933 194.93 0.10928 17.567 0.049373
136.38 907.35 undefined 662.32 702.69 2.4035 155.00 0.0064516 662.32 702.69 2.4035 2.1898 4.4449 196.02 0.10781 17.599 0.049414 155.00 0.0064516 662.32 702.69 2.4035 2.1898 4.4449 196.02 0.10781 17.599 0.049414
137.38 914.61 undefined 664.51 705.20 2.4088 155.00 0.0064516 664.51 705.20 2.4088 2.1912 4.3987 197.10 0.10636 17.631 0.049459 155.00 0.0064516 664.51 705.20 2.4088 2.1912 4.3987 197.10 0.10636 17.631 0.049459
138.38 921.86 undefined 666.71 707.71 2.4142 155.00 0.0064516 666.71 707.71 2.4142 2.1928 4.3548 198.18 0.10494 17.663 0.049507 155.00 0.0064516 666.71 707.71 2.4142 2.1928 4.3548 198.18 0.10494 17.663 0.049507
139.38 929.10 undefined 668.90 710.23 2.4195 155.00 0.0064516 668.90 710.23 2.4195 2.1944 4.3128 199.25 0.10355 17.695 0.049560 155.00 0.0064516 668.90 710.23 2.4195 2.1944 4.3128 199.25 0.10355 17.695 0.049560
140.38 936.34 undefined 671.10 712.75 2.4248 155.00 0.0064516 671.10 712.75 2.4248 2.1960 4.2728 200.31 0.10219 17.727 0.049615 155.00 0.0064516 671.10 712.75 2.4248 2.1960 4.2728 200.31 0.10219 17.727 0.049615
141.38 943.57 undefined 673.29 715.26 2.4301 155.00 0.0064516 673.29 715.26 2.4301 2.1978 4.2345 201.38 0.10085 17.758 0.049674 155.00 0.0064516 673.29 715.26 2.4301 2.1978 4.2345 201.38 0.10085 17.758 0.049674
142.38 950.80 undefined 675.49 717.78 2.4354 155.00 0.0064516 675.49 717.78 2.4354 2.1996 4.1979 202.43 0.099538 17.790 0.049736 155.00 0.0064516 675.49 717.78 2.4354 2.1996 4.1979 202.43 0.099538 17.790 0.049736
143.38 958.02 undefined 677.69 720.31 2.4407 155.00 0.0064516 677.69 720.31 2.4407 2.2015 4.1629 203.48 0.098252 17.822 0.049801 155.00 0.0064516 677.69 720.31 2.4407 2.2015 4.1629 203.48 0.098252 17.822 0.049801
144.38 965.23 undefined 679.89 722.83 2.4460 155.00 0.0064516 679.89 722.83 2.4460 2.2034 4.1294 204.53 0.096992 17.854 0.049869 155.00 0.0064516 679.89 722.83 2.4460 2.2034 4.1294 204.53 0.096992 17.854 0.049869
145.38 972.44 undefined 682.10 725.35 2.4512 155.00 0.0064516 682.10 725.35 2.4512 2.2054 4.0973 205.57 0.095755 17.886 0.049940 155.00 0.0064516 682.10 725.35 2.4512 2.2054 4.0973 205.57 0.095755 17.886 0.049940
146.38 979.65 undefined 684.30 727.88 2.4565 155.00 0.0064516 684.30 727.88 2.4565 2.2074 4.0665 206.61 0.094542 17.917 0.050013 155.00 0.0064516 684.30 727.88 2.4565 2.2074 4.0665 206.61 0.094542 17.917 0.050013
147.38 986.85 undefined 686.51 730.41 2.4618 155.00 0.0064516 686.51 730.41 2.4618 2.2095 4.0370 207.64 0.093352 17.949 0.050088 155.00 0.0064516 686.51 730.41 2.4618 2.2095 4.0370 207.64 0.093352 17.949 0.050088
148.38 994.05 undefined 688.72 732.94 2.4670 155.00 0.0064516 688.72 732.94 2.4670 2.2117 4.0087 208.67 0.092184 17.981 0.050166 155.00 0.0064516 688.72 732.94 2.4670 2.2117 4.0087 208.67 0.092184 17.981 0.050166
149.38 1001.2 undefined 690.94 735.47 2.4723 155.00 0.0064516 690.94 735.47 2.4723 2.2138 3.9814 209.69 0.091037 18.012 0.050246 155.00 0.0064516 690.94 735.47 2.4723 2.2138 3.9814 209.69 0.091037 18.012 0.050246
150.38 1008.4 undefined 693.15 738.01 2.4775 155.00 0.0064516 693.15 738.01 2.4775 2.2161 3.9553 210.71 0.089912 18.044 0.050328 155.00 0.0064516 693.15 738.01 2.4775 2.2161 3.9553 210.71 0.089912 18.044 0.050328
151.38 1015.6 undefined 695.37 740.55 2.4827 155.00 0.0064516 695.37 740.55 2.4827 2.2183 3.9301 211.73 0.088808 18.075 0.050412 155.00 0.0064516 695.37 740.55 2.4827 2.2183 3.9301 211.73 0.088808 18.075 0.050412
152.38 1022.8 undefined 697.59 743.08 2.4880 155.00 0.0064516 697.59 743.08 2.4880 2.2207 3.9060 212.74 0.087723 18.106 0.050498 155.00 0.0064516 697.59 743.08 2.4880 2.2207 3.9060 212.74 0.087723 18.106 0.050498
153.38 1030.0 undefined 699.81 745.63 2.4932 155.00 0.0064516 699.81 745.63 2.4932 2.2230 3.8827 213.74 0.086658 18.138 0.050587 155.00 0.0064516 699.81 745.63 2.4932 2.2230 3.8827 213.74 0.086658 18.138 0.050587
154.38 1037.1 undefined 702.03 748.17 2.4984 155.00 0.0064516 702.03 748.17 2.4984 2.2254 3.8603 214.74 0.085613 18.169 0.050677 155.00 0.0064516 702.03 748.17 2.4984 2.2254 3.8603 214.74 0.085613 18.169 0.050677
155.38 1044.3 undefined 704.26 750.71 2.5036 155.00 0.0064516 704.26 750.71 2.5036 2.2278 3.8388 215.74 0.084586 18.201 0.050768 155.00 0.0064516 704.26 750.71 2.5036 2.2278 3.8388 215.74 0.084586 18.201 0.050768
156.38 1051.5 undefined 706.49 753.26 2.5088 155.00 0.0064516 706.49 753.26 2.5088 2.2303 3.8180 216.73 0.083577 18.232 0.050862 155.00 0.0064516 706.49 753.26 2.5088 2.2303 3.8180 216.73 0.083577 18.232 0.050862
157.38 1058.6 undefined 708.72 755.81 2.5140 155.00 0.0064516 708.72 755.81 2.5140 2.2328 3.7980 217.72 0.082586 18.263 0.050957 155.00 0.0064516 708.72 755.81 2.5140 2.2328 3.7980 217.72 0.082586 18.263 0.050957
158.38 1065.8 undefined 710.96 758.36 2.5191 155.00 0.0064516 710.96 758.36 2.5191 2.2353 3.7787 218.71 0.081612 18.294 0.051054 155.00 0.0064516 710.96 758.36 2.5191 2.2353 3.7787 218.71 0.081612 18.294 0.051054
159.38 1072.9 undefined 713.19 760.92 2.5243 155.00 0.0064516 713.19 760.92 2.5243 2.2378 3.7601 219.69 0.080656 18.325 0.051152 155.00 0.0064516 713.19 760.92 2.5243 2.2378 3.7601 219.69 0.080656 18.325 0.051152
160.38 1080.1 undefined 715.43 763.47 2.5295 155.00 0.0064516 715.43 763.47 2.5295 2.2404 3.7421 220.66 0.079716 18.357 0.051251 155.00 0.0064516 715.43 763.47 2.5295 2.2404 3.7421 220.66 0.079716 18.357 0.051251
161.38 1087.2 undefined 717.67 766.03 2.5347 155.00 0.0064516 717.67 766.03 2.5347 2.2430 3.7248 221.64 0.078792 18.388 0.051352 155.00 0.0064516 717.67 766.03 2.5347 2.2430 3.7248 221.64 0.078792 18.388 0.051352
162.38 1094.3 undefined 719.92 768.60 2.5398 155.00 0.0064516 719.92 768.60 2.5398 2.2456 3.7081 222.61 0.077884 18.419 0.051455 155.00 0.0064516 719.92 768.60 2.5398 2.2456 3.7081 222.61 0.077884 18.419 0.051455
163.38 1101.5 undefined 722.16 771.16 2.5450 155.00 0.0064516 722.16 771.16 2.5450 2.2483 3.6919 223.57 0.076991 18.450 0.051559 155.00 0.0064516 722.16 771.16 2.5450 2.2483 3.6919 223.57 0.076991 18.450 0.051559
164.38 1108.6 undefined 724.41 773.73 2.5501 155.00 0.0064516 724.41 773.73 2.5501 2.2510 3.6763 224.53 0.076113 18.481 0.051664 155.00 0.0064516 724.41 773.73 2.5501 2.2510 3.6763 224.53 0.076113 18.481 0.051664
165.38 1115.7 undefined 726.67 776.30 2.5553 155.00 0.0064516 726.67 776.30 2.5553 2.2537 3.6612 225.49 0.075250 18.512 0.051770 155.00 0.0064516 726.67 776.30 2.5553 2.2537 3.6612 225.49 0.075250 18.512 0.051770
166.38 1122.9 undefined 728.92 778.87 2.5604 155.00 0.0064516 728.92 778.87 2.5604 2.2564 3.6467 226.45 0.074401 18.542 0.051878 155.00 0.0064516 728.92 778.87 2.5604 2.2564 3.6467 226.45 0.074401 18.542 0.051878
167.38 1130.0 undefined 731.18 781.44 2.5655 155.00 0.0064516 731.18 781.44 2.5655 2.2591 3.6326 227.40 0.073567 18.573 0.051987 155.00 0.0064516 731.18 781.44 2.5655 2.2591 3.6326 227.40 0.073567 18.573 0.051987
168.38 1137.1 undefined 733.44 784.02 2.5707 155.00 0.0064516 733.44 784.02 2.5707 2.2619 3.6190 228.34 0.072746 18.604 0.052097 155.00 0.0064516 733.44 784.02 2.5707 2.2619 3.6190 228.34 0.072746 18.604 0.052097
169.38 1144.2 undefined 735.70 786.60 2.5758 155.00 0.0064516 735.70 786.60 2.5758 2.2646 3.6058 229.28 0.071939 18.635 0.052208 155.00 0.0064516 735.70 786.60 2.5758 2.2646 3.6058 229.28 0.071939 18.635 0.052208
170.38 1151.3 undefined 737.97 789.18 2.5809 155.00 0.0064516 737.97 789.18 2.5809 2.2674 3.5931 230.22 0.071144 18.666 0.052320 155.00 0.0064516 737.97 789.18 2.5809 2.2674 3.5931 230.22 0.071144 18.666 0.052320
171.38 1158.4 undefined 740.24 791.77 2.5860 155.00 0.0064516 740.24 791.77 2.5860 2.2703 3.5808 231.16 0.070363 18.696 0.052433 155.00 0.0064516 740.24 791.77 2.5860 2.2703 3.5808 231.16 0.070363 18.696 0.052433
172.38 1165.5 undefined 742.51 794.35 2.5911 155.00 0.0064516 742.51 794.35 2.5911 2.2731 3.5689 232.09 0.069594 18.727 0.052547 155.00 0.0064516 742.51 794.35 2.5911 2.2731 3.5689 232.09 0.069594 18.727 0.052547
173.38 1172.6 undefined 744.78 796.94 2.5962 155.00 0.0064516 744.78 796.94 2.5962 2.2759 3.5573 233.02 0.068838 18.758 0.052662 155.00 0.0064516 744.78 796.94 2.5962 2.2759 3.5573 233.02 0.068838 18.758 0.052662
174.38 1179.7 undefined 747.06 799.54 2.6013 155.00 0.0064516 747.06 799.54 2.6013 2.2788 3.5462 233.95 0.068093 18.788 0.052779 155.00 0.0064516 747.06 799.54 2.6013 2.2788 3.5462 233.95 0.068093 18.788 0.052779
175.38 1186.8 undefined 749.34 802.13 2.6064 155.00 0.0064516 749.34 802.13 2.6064 2.2817 3.5354 234.87 0.067360 18.819 0.052896 155.00 0.0064516 749.34 802.13 2.6064 2.2817 3.5354 234.87 0.067360 18.819 0.052896
176.38 1193.9 undefined 751.62 804.73 2.6115 155.00 0.0064516 751.62 804.73 2.6115 2.2846 3.5249 235.79 0.066639 18.849 0.053014 155.00 0.0064516 751.62 804.73 2.6115 2.2846 3.5249 235.79 0.066639 18.849 0.053014
177.38 1201.0 undefined 753.91 807.33 2.6166 155.00 0.0064516 753.91 807.33 2.6166 2.2875 3.5148 236.70 0.065929 18.880 0.053133 155.00 0.0064516 753.91 807.33 2.6166 2.2875 3.5148 236.70 0.065929 18.880 0.053133
178.38 1208.1 undefined 756.20 809.94 2.6216 155.00 0.0064516 756.20 809.94 2.6216 2.2904 3.5050 237.62 0.065230 18.910 0.053253 155.00 0.0064516 756.20 809.94 2.6216 2.2904 3.5050 237.62 0.065230 18.910 0.053253
179.38 1215.2 undefined 758.49 812.54 2.6267 155.00 0.0064516 758.49 812.54 2.6267 2.2933 3.4955 238.53 0.064541 18.940 0.053373 155.00 0.0064516 758.49 812.54 2.6267 2.2933 3.4955 238.53 0.064541 18.940 0.053373
180.38 1222.2 undefined 760.79 815.15 2.6318 155.00 0.0064516 760.79 815.15 2.6318 2.2962 3.4863 239.43 0.063864 18.971 0.053495 155.00 0.0064516 760.79 815.15 2.6318 2.2962 3.4863 239.43 0.063864 18.971 0.053495
181.38 1229.3 undefined 763.08 817.77 2.6368 155.00 0.0064516 763.08 817.77 2.6368 2.2992 3.4774 240.33 0.063196 19.001 0.053617 155.00 0.0064516 763.08 817.77 2.6368 2.2992 3.4774 240.33 0.063196 19.001 0.053617
182.38 1236.4 undefined 765.38 820.38 2.6419 155.00 0.0064516 765.38 820.38 2.6419 2.3022 3.4688 241.23 0.062539 19.031 0.053741 155.00 0.0064516 765.38 820.38 2.6419 2.3022 3.4688 241.23 0.062539 19.031 0.053741
183.38 1243.5 undefined 767.69 823.00 2.6469 155.00 0.0064516 767.69 823.00 2.6469 2.3051 3.4604 242.13 0.061891 19.062 0.053865 155.00 0.0064516 767.69 823.00 2.6469 2.3051 3.4604 242.13 0.061891 19.062 0.053865
184.38 1250.5 undefined 769.99 825.62 2.6520 155.00 0.0064516 769.99 825.62 2.6520 2.3081 3.4523 243.02 0.061254 19.092 0.053989 155.00 0.0064516 769.99 825.62 2.6520 2.3081 3.4523 243.02 0.061254 19.092 0.053989
185.38 1257.6 undefined 772.30 828.24 2.6570 155.00 0.0064516 772.30 828.24 2.6570 2.3111 3.4445 243.91 0.060625 19.122 0.054115 155.00 0.0064516 772.30 828.24 2.6570 2.3111 3.4445 243.91 0.060625 19.122 0.054115
186.38 1264.6 undefined 774.62 830.87 2.6621 155.00 0.0064516 774.62 830.87 2.6621 2.3141 3.4369 244.80 0.060007 19.152 0.054241 155.00 0.0064516 774.62 830.87 2.6621 2.3141 3.4369 244.80 0.060007 19.152 0.054241
187.38 1271.7 undefined 776.93 833.50 2.6671 155.00 0.0064516 776.93 833.50 2.6671 2.3172 3.4295 245.69 0.059397 19.182 0.054368 155.00 0.0064516 776.93 833.50 2.6671 2.3172 3.4295 245.69 0.059397 19.182 0.054368
188.38 1278.8 undefined 779.25 836.13 2.6721 155.00 0.0064516 779.25 836.13 2.6721 2.3202 3.4224 246.57 0.058796 19.212 0.054496 155.00 0.0064516 779.25 836.13 2.6721 2.3202 3.4224 246.57 0.058796 19.212 0.054496
189.38 1285.8 undefined 781.57 838.77 2.6771 155.00 0.0064516 781.57 838.77 2.6771 2.3232 3.4155 247.44 0.058204 19.242 0.054624 155.00 0.0064516 781.57 838.77 2.6771 2.3232 3.4155 247.44 0.058204 19.242 0.054624
190.38 1292.9 undefined 783.90 841.41 2.6822 155.00 0.0064516 783.90 841.41 2.6822 2.3263 3.4088 248.32 0.057620 19.272 0.054753 155.00 0.0064516 783.90 841.41 2.6822 2.3263 3.4088 248.32 0.057620 19.272 0.054753
191.38 1299.9 undefined 786.23 844.05 2.6872 155.00 0.0064516 786.23 844.05 2.6872 2.3293 3.4023 249.19 0.057045 19.302 0.054883 155.00 0.0064516 786.23 844.05 2.6872 2.3293 3.4023 249.19 0.057045 19.302 0.054883
192.38 1306.9 undefined 788.56 846.69 2.6922 155.00 0.0064516 788.56 846.69 2.6922 2.3324 3.3960 250.06 0.056478 19.332 0.055013 155.00 0.0064516 788.56 846.69 2.6922 2.3324 3.3960 250.06 0.056478 19.332 0.055013
193.38 1314.0 undefined 790.89 849.34 2.6972 155.00 0.0064516 790.89 849.34 2.6972 2.3355 3.3899 250.93 0.055920 19.362 0.055144 155.00 0.0064516 790.89 849.34 2.6972 2.3355 3.3899 250.93 0.055920 19.362 0.055144
194.38 1321.0 undefined 793.23 851.99 2.7022 155.00 0.0064516 793.23 851.99 2.7022 2.3386 3.3841 251.79 0.055369 19.392 0.055276 155.00 0.0064516 793.23 851.99 2.7022 2.3386 3.3841 251.79 0.055369 19.392 0.055276
195.38 1328.1 undefined 795.57 854.64 2.7072 155.00 0.0064516 795.57 854.64 2.7072 2.3416 3.3783 252.65 0.054826 19.422 0.055408 155.00 0.0064516 795.57 854.64 2.7072 2.3416 3.3783 252.65 0.054826 19.422 0.055408
196.38 1335.1 undefined 797.91 857.30 2.7122 155.00 0.0064516 797.91 857.30 2.7122 2.3447 3.3728 253.51 0.054291 19.451 0.055541 155.00 0.0064516 797.91 857.30 2.7122 2.3447 3.3728 253.51 0.054291 19.451 0.055541
197.38 1342.1 undefined 800.26 859.96 2.7172 155.00 0.0064516 800.26 859.96 2.7172 2.3478 3.3675 254.37 0.053763 19.481 0.055675 155.00 0.0064516 800.26 859.96 2.7172 2.3478 3.3675 254.37 0.053763 19.481 0.055675
198.38 1349.2 undefined 802.61 862.62 2.7222 155.00 0.0064516 802.61 862.62 2.7222 2.3509 3.3623 255.22 0.053242 19.511 0.055809 155.00 0.0064516 802.61 862.62 2.7222 2.3509 3.3623 255.22 0.053242 19.511 0.055809
199.38 1356.2 undefined 804.96 865.28 2.7272 155.00 0.0064516 804.96 865.28 2.7272 2.3541 3.3573 256.07 0.052729 19.540 0.055943 155.00 0.0064516 804.96 865.28 2.7272 2.3541 3.3573 256.07 0.052729 19.540 0.055943
200.38 1363.2 undefined 807.31 867.95 2.7321 155.00 0.0064516 807.31 867.95 2.7321 2.3572 3.3524 256.92 0.052222 19.570 0.056079 155.00 0.0064516 807.31 867.95 2.7321 2.3572 3.3524 256.92 0.052222 19.570 0.056079
201.38 1370.2 undefined 809.67 870.62 2.7371 155.00 0.0064516 809.67 870.62 2.7371 2.3603 3.3477 257.76 0.051723 19.600 0.056214 155.00 0.0064516 809.67 870.62 2.7371 2.3603 3.3477 257.76 0.051723 19.600 0.056214
202.38 1377.2 undefined 812.03 873.30 2.7421 155.00 0.0064516 812.03 873.30 2.7421 2.3635 3.3432 258.61 0.051231 19.629 0.056351 155.00 0.0064516 812.03 873.30 2.7421 2.3635 3.3432 258.61 0.051231 19.629 0.056351
203.38 1384.3 undefined 814.40 875.97 2.7471 155.00 0.0064516 814.40 875.97 2.7471 2.3666 3.3388 259.45 0.050745 19.659 0.056488 155.00 0.0064516 814.40 875.97 2.7471 2.3666 3.3388 259.45 0.050745 19.659 0.056488
204.38 1391.3 undefined 816.77 878.65 2.7520 155.00 0.0064516 816.77 878.65 2.7520 2.3697 3.3345 260.28 0.050265 19.688 0.056625 155.00 0.0064516 816.77 878.65 2.7520 2.3697 3.3345 260.28 0.050265 19.688 0.056625
205.38 1398.3 undefined 819.14 881.34 2.7570 155.00 0.0064516 819.14 881.34 2.7570 2.3729 3.3304 261.12 0.049793 19.718 0.056763 155.00 0.0064516 819.14 881.34 2.7570 2.3729 3.3304 261.12 0.049793 19.718 0.056763
206.38 1405.3 undefined 821.51 884.02 2.7619 155.00 0.0064516 821.51 884.02 2.7619 2.3761 3.3264 261.95 0.049326 19.747 0.056902 155.00 0.0064516 821.51 884.02 2.7619 2.3761 3.3264 261.95 0.049326 19.747 0.056902
207.38 1412.3 undefined 823.89 886.71 2.7669 155.00 0.0064516 823.89 886.71 2.7669 2.3792 3.3226 262.78 0.048866 19.776 0.057041 155.00 0.0064516 823.89 886.71 2.7669 2.3792 3.3226 262.78 0.048866 19.776 0.057041
208.38 1419.3 undefined 826.27 889.41 2.7718 155.00 0.0064516 826.27 889.41 2.7718 2.3824 3.3189 263.61 0.048411 19.806 0.057180 155.00 0.0064516 826.27 889.41 2.7718 2.3824 3.3189 263.61 0.048411 19.806 0.057180
209.38 1426.3 undefined 828.66 892.10 2.7768 155.00 0.0064516 828.66 892.10 2.7768 2.3856 3.3153 264.43 0.047963 19.835 0.057320 155.00 0.0064516 828.66 892.10 2.7768 2.3856 3.3153 264.43 0.047963 19.835 0.057320
210.38 1433.3 undefined 831.04 894.80 2.7817 155.00 0.0064516 831.04 894.80 2.7817 2.3887 3.3118 265.25 0.047521 19.864 0.057461 155.00 0.0064516 831.04 894.80 2.7817 2.3887 3.3118 265.25 0.047521 19.864 0.057461
211.38 1440.3 undefined 833.43 897.50 2.7867 155.00 0.0064516 833.43 897.50 2.7867 2.3919 3.3084 266.07 0.047084 19.893 0.057602 155.00 0.0064516 833.43 897.50 2.7867 2.3919 3.3084 266.07 0.047084 19.893 0.057602
212.38 1447.3 undefined 835.83 900.21 2.7916 155.00 0.0064516 835.83 900.21 2.7916 2.3951 3.3052 266.89 0.046653 19.923 0.057743 155.00 0.0064516 835.83 900.21 2.7916 2.3951 3.3052 266.89 0.046653 19.923 0.057743
213.38 1454.3 undefined 838.22 902.91 2.7965 155.00 0.0064516 838.22 902.91 2.7965 2.3983 3.3021 267.70 0.046228 19.952 0.057885 155.00 0.0064516 838.22 902.91 2.7965 2.3983 3.3021 267.70 0.046228 19.952 0.057885
214.38 1461.3 undefined 840.62 905.62 2.8015 155.00 0.0064516 840.62 905.62 2.8015 2.4015 3.2991 268.52 0.045808 19.981 0.058027 155.00 0.0064516 840.62 905.62 2.8015 2.4015 3.2991 268.52 0.045808 19.981 0.058027
215.38 1468.3 undefined 843.03 908.34 2.8064 155.00 0.0064516 843.03 908.34 2.8064 2.4047 3.2962 269.33 0.045394 20.010 0.058170 155.00 0.0064516 843.03 908.34 2.8064 2.4047 3.2962 269.33 0.045394 20.010 0.058170
216.38 1475.2 undefined 845.43 911.06 2.8113 155.00 0.0064516 845.43 911.06 2.8113 2.4079 3.2934 270.13 0.044984 20.039 0.058314 155.00 0.0064516 845.43 911.06 2.8113 2.4079 3.2934 270.13 0.044984 20.039 0.058314
217.38 1482.2 undefined 847.84 913.78 2.8162 155.00 0.0064516 847.84 913.78 2.8162 2.4111 3.2907 270.94 0.044580 20.068 0.058457 155.00 0.0064516 847.84 913.78 2.8162 2.4111 3.2907 270.94 0.044580 20.068 0.058457
218.38 1489.2 undefined 850.26 916.50 2.8211 155.00 0.0064516 850.26 916.50 2.8211 2.4143 3.2881 271.74 0.044181 20.097 0.058601 155.00 0.0064516 850.26 916.50 2.8211 2.4143 3.2881 271.74 0.044181 20.097 0.058601
219.38 1496.2 undefined 852.67 919.22 2.8261 155.00 0.0064516 852.67 919.22 2.8261 2.4176 3.2856 272.54 0.043788 20.126 0.058746 155.00 0.0064516 852.67 919.22 2.8261 2.4176 3.2856 272.54 0.043788 20.126 0.058746
220.38 1503.2 undefined 855.09 921.95 2.8310 155.00 0.0064516 855.09 921.95 2.8310 2.4208 3.2832 273.34 0.043399 20.155 0.058891 155.00 0.0064516 855.09 921.95 2.8310 2.4208 3.2832 273.34 0.043399 20.155 0.058891
221.38 1510.1 undefined 857.51 924.69 2.8359 155.00 0.0064516 857.51 924.69 2.8359 2.4240 3.2809 274.14 0.043014 20.184 0.059037 155.00 0.0064516 857.51 924.69 2.8359 2.4240 3.2809 274.14 0.043014 20.184 0.059037
222.38 1517.1 undefined 859.94 927.42 2.8408 155.00 0.0064516 859.94 927.42 2.8408 2.4272 3.2787 274.93 0.042635 20.213 0.059182 155.00 0.0064516 859.94 927.42 2.8408 2.4272 3.2787 274.93 0.042635 20.213 0.059182
223.38 1524.1 undefined 862.37 930.16 2.8457 155.00 0.0064516 862.37 930.16 2.8457 2.4305 3.2766 275.72 0.042260 20.242 0.059329 155.00 0.0064516 862.37 930.16 2.8457 2.4305 3.2766 275.72 0.042260 20.242 0.059329
224.38 1531.0 undefined 864.80 932.90 2.8506 155.00 0.0064516 864.80 932.90 2.8506 2.4337 3.2745 276.51 0.041890 20.270 0.059475 155.00 0.0064516 864.80 932.90 2.8506 2.4337 3.2745 276.51 0.041890 20.270 0.059475
225.38 1538.0 undefined 867.24 935.65 2.8554 155.00 0.0064516 867.24 935.65 2.8554 2.4369 3.2726 277.30 0.041525 20.299 0.059622 155.00 0.0064516 867.24 935.65 2.8554 2.4369 3.2726 277.30 0.041525 20.299 0.059622
226.38 1545.0 undefined 869.67 938.40 2.8603 155.00 0.0064516 869.67 938.40 2.8603 2.4402 3.2707 278.09 0.041164 20.328 0.059770 155.00 0.0064516 869.67 938.40 2.8603 2.4402 3.2707 278.09 0.041164 20.328 0.059770
227.38 1551.9 undefined 872.12 941.15 2.8652 155.00 0.0064516 872.12 941.15 2.8652 2.4434 3.2689 278.87 0.040807 20.356 0.059918 155.00 0.0064516 872.12 941.15 2.8652 2.4434 3.2689 278.87 0.040807 20.356 0.059918
228.38 1558.9 undefined 874.56 943.90 2.8701 155.00 0.0064516 874.56 943.90 2.8701 2.4467 3.2672 279.65 0.040455 20.385 0.060066 155.00 0.0064516 874.56 943.90 2.8701 2.4467 3.2672 279.65 0.040455 20.385 0.060066
229.38 1565.8 undefined 877.01 946.66 2.8750 155.00 0.0064516 877.01 946.66 2.8750 2.4499 3.2656 280.43 0.040107 20.414 0.060215 155.00 0.0064516 877.01 946.66 2.8750 2.4499 3.2656 280.43 0.040107 20.414 0.060215
230.38 1572.8 undefined 879.46 949.42 2.8798 155.00 0.0064516 879.46 949.42 2.8798 2.4532 3.2640 281.21 0.039763 20.442 0.060364 155.00 0.0064516 879.46 949.42 2.8798 2.4532 3.2640 281.21 0.039763 20.442 0.060364
231.38 1579.8 undefined 881.92 952.19 2.8847 155.00 0.0064516 881.92 952.19 2.8847 2.4564 3.2625 281.98 0.039423 20.471 0.060513 155.00 0.0064516 881.92 952.19 2.8847 2.4564 3.2625 281.98 0.039423 20.471 0.060513
232.38 1586.7 undefined 884.37 954.95 2.8896 155.00 0.0064516 884.37 954.95 2.8896 2.4597 3.2611 282.75 0.039087 20.499 0.060663 155.00 0.0064516 884.37 954.95 2.8896 2.4597 3.2611 282.75 0.039087 20.499 0.060663
233.38 1593.7 undefined 886.83 957.72 2.8944 155.00 0.0064516 886.83 957.72 2.8944 2.4629 3.2598 283.52 0.038755 20.528 0.060813 155.00 0.0064516 886.83 957.72 2.8944 2.4629 3.2598 283.52 0.038755 20.528 0.060813
234.38 1600.6 undefined 889.30 960.50 2.8993 155.00 0.0064516 889.30 960.50 2.8993 2.4662 3.2585 284.29 0.038428 20.556 0.060963 155.00 0.0064516 889.30 960.50 2.8993 2.4662 3.2585 284.29 0.038428 20.556 0.060963
235.38 1607.6 undefined 891.77 963.27 2.9042 155.00 0.0064516 891.77 963.27 2.9042 2.4695 3.2573 285.06 0.038104 20.585 0.061114 155.00 0.0064516 891.77 963.27 2.9042 2.4695 3.2573 285.06 0.038104 20.585 0.061114
236.38 1614.5 undefined 894.24 966.05 2.9090 155.00 0.0064516 894.24 966.05 2.9090 2.4727 3.2561 285.82 0.037783 20.613 0.061265 155.00 0.0064516 894.24 966.05 2.9090 2.4727 3.2561 285.82 0.037783 20.613 0.061265
237.38 1621.4 undefined 896.71 968.84 2.9139 155.00 0.0064516 896.71 968.84 2.9139 2.4760 3.2551 286.59 0.037467 20.641 0.061416 155.00 0.0064516 896.71 968.84 2.9139 2.4760 3.2551 286.59 0.037467 20.641 0.061416
238.38 1628.4 undefined 899.19 971.62 2.9187 155.00 0.0064516 899.19 971.62 2.9187 2.4793 3.2541 287.35 0.037154 20.670 0.061568 155.00 0.0064516 899.19 971.62 2.9187 2.4793 3.2541 287.35 0.037154 20.670 0.061568
239.38 1635.3 undefined 901.67 974.41 2.9236 155.00 0.0064516 901.67 974.41 2.9236 2.4825 3.2531 288.11 0.036845 20.698 0.061720 155.00 0.0064516 901.67 974.41 2.9236 2.4825 3.2531 288.11 0.036845 20.698 0.061720
240.38 1642.3 undefined 904.16 977.21 2.9284 155.00 0.0064516 904.16 977.21 2.9284 2.4858 3.2522 288.86 0.036539 20.726 0.061873 155.00 0.0064516 904.16 977.21 2.9284 2.4858 3.2522 288.86 0.036539 20.726 0.061873
241.38 1649.2 undefined 906.64 980.00 2.9332 155.00 0.0064516 906.64 980.00 2.9332 2.4891 3.2514 289.62 0.036237 20.754 0.062025 155.00 0.0064516 906.64 980.00 2.9332 2.4891 3.2514 289.62 0.036237 20.754 0.062025
242.38 1656.1 undefined 909.13 982.80 2.9381 155.00 0.0064516 909.13 982.80 2.9381 2.4923 3.2506 290.37 0.035938 20.783 0.062178 155.00 0.0064516 909.13 982.80 2.9381 2.4923 3.2506 290.37 0.035938 20.783 0.062178
243.38 1663.1 undefined 911.63 985.60 2.9429 155.00 0.0064516 911.63 985.60 2.9429 2.4956 3.2499 291.12 0.035643 20.811 0.062332 155.00 0.0064516 911.63 985.60 2.9429 2.4956 3.2499 291.12 0.035643 20.811 0.062332
244.38 1670.0 undefined 914.12 988.41 2.9477 155.00 0.0064516 914.12 988.41 2.9477 2.4989 3.2492 291.87 0.035351 20.839 0.062485 155.00 0.0064516 914.12 988.41 2.9477 2.4989 3.2492 291.87 0.035351 20.839 0.062485
245.38 1676.9 undefined 916.62 991.22 2.9526 155.00 0.0064516 916.62 991.22 2.9526 2.5022 3.2486 292.62 0.035062 20.867 0.062639 155.00 0.0064516 916.62 991.22 2.9526 2.5022 3.2486 292.62 0.035062 20.867 0.062639
246.38 1683.8 undefined 919.13 994.03 2.9574 155.00 0.0064516 919.13 994.03 2.9574 2.5055 3.2481 293.36 0.034777 20.895 0.062793 155.00 0.0064516 919.13 994.03 2.9574 2.5055 3.2481 293.36 0.034777 20.895 0.062793
247.38 1690.8 undefined 921.64 996.84 2.9622 155.00 0.0064516 921.64 996.84 2.9622 2.5087 3.2476 294.10 0.034495 20.923 0.062948 155.00 0.0064516 921.64 996.84 2.9622 2.5087 3.2476 294.10 0.034495 20.923 0.062948
248.38 1697.7 undefined 924.15 999.66 2.9670 155.00 0.0064516 924.15 999.66 2.9670 2.5120 3.2471 294.85 0.034216 20.951 0.063102 155.00 0.0064516 924.15 999.66 2.9670 2.5120 3.2471 294.85 0.034216 20.951 0.063102
249.38 1704.6 undefined 926.66 1002.5 2.9719 155.00 0.0064516 926.66 1002.5 2.9719 2.5153 3.2467 295.58 0.033940 20.979 0.063257 155.00 0.0064516 926.66 1002.5 2.9719 2.5153 3.2467 295.58 0.033940 20.979 0.063257
250.38 1711.5 undefined 929.18 1005.3 2.9767 155.00 0.0064516 929.18 1005.3 2.9767 2.5186 3.2464 296.32 0.033667 21.007 0.063412 155.00 0.0064516 929.18 1005.3 2.9767 2.5186 3.2464 296.32 0.033667 21.007 0.063412
251.38 1718.4 undefined 931.70 1008.1 2.9815 155.00 0.0064516 931.70 1008.1 2.9815 2.5219 3.2461 297.06 0.033397 21.035 0.063568 155.00 0.0064516 931.70 1008.1 2.9815 2.5219 3.2461 297.06 0.033397 21.035 0.063568
252.38 1725.4 undefined 934.22 1011.0 2.9863 155.00 0.0064516 934.22 1011.0 2.9863 2.5252 3.2458 297.79 0.033130 21.062 0.063723 155.00 0.0064516 934.22 1011.0 2.9863 2.5252 3.2458 297.79 0.033130 21.062 0.063723
253.38 1732.3 undefined 936.75 1013.8 2.9911 155.00 0.0064516 936.75 1013.8 2.9911 2.5284 3.2456 298.52 0.032866 21.090 0.063879 155.00 0.0064516 936.75 1013.8 2.9911 2.5284 3.2456 298.52 0.032866 21.090 0.063879
254.38 1739.2 undefined 939.28 1016.6 2.9959 155.00 0.0064516 939.28 1016.6 2.9959 2.5317 3.2455 299.26 0.032605 21.118 0.064035 155.00 0.0064516 939.28 1016.6 2.9959 2.5317 3.2455 299.26 0.032605 21.118 0.064035
255.38 1746.1 undefined 941.81 1019.5 3.0007 155.00 0.0064516 941.81 1019.5 3.0007 2.5350 3.2454 299.98 0.032346 21.146 0.064191 155.00 0.0064516 941.81 1019.5 3.0007 2.5350 3.2454 299.98 0.032346 21.146 0.064191
256.38 1753.0 undefined 944.35 1022.3 3.0055 155.00 0.0064516 944.35 1022.3 3.0055 2.5383 3.2453 300.71 0.032091 21.173 0.064348 155.00 0.0064516 944.35 1022.3 3.0055 2.5383 3.2453 300.71 0.032091 21.173 0.064348
257.38 1759.9 undefined 946.89 1025.2 3.0103 155.00 0.0064516 946.89 1025.2 3.0103 2.5416 3.2453 301.44 0.031838 21.201 0.064504 155.00 0.0064516 946.89 1025.2 3.0103 2.5416 3.2453 301.44 0.031838 21.201 0.064504
258.38 1766.8 undefined 949.43 1028.0 3.0151 155.00 0.0064516 949.43 1028.0 3.0151 2.5449 3.2453 302.16 0.031588 21.229 0.064661 155.00 0.0064516 949.43 1028.0 3.0151 2.5449 3.2453 302.16 0.031588 21.229 0.064661
259.38 1773.7 undefined 951.98 1030.9 3.0198 155.00 0.0064516 951.98 1030.9 3.0198 2.5482 3.2453 302.88 0.031341 21.256 0.064818 155.00 0.0064516 951.98 1030.9 3.0198 2.5482 3.2453 302.88 0.031341 21.256 0.064818
260.38 1780.6 undefined 954.53 1033.7 3.0246 155.00 0.0064516 954.53 1033.7 3.0246 2.5514 3.2454 303.60 0.031096 21.284 0.064975 155.00 0.0064516 954.53 1033.7 3.0246 2.5514 3.2454 303.60 0.031096 21.284 0.064975
261.38 1787.5 undefined 957.08 1036.6 3.0294 155.00 0.0064516 957.08 1036.6 3.0294 2.5547 3.2456 304.32 0.030854 21.312 0.065132 155.00 0.0064516 957.08 1036.6 3.0294 2.5547 3.2456 304.32 0.030854 21.312 0.065132
262.38 1794.4 undefined 959.64 1039.5 3.0342 155.00 0.0064516 959.64 1039.5 3.0342 2.5580 3.2457 305.04 0.030614 21.339 0.065289 155.00 0.0064516 959.64 1039.5 3.0342 2.5580 3.2457 305.04 0.030614 21.339 0.065289
263.38 1801.3 undefined 962.20 1042.3 3.0390 155.00 0.0064516 962.20 1042.3 3.0390 2.5613 3.2459 305.75 0.030377 21.367 0.065446 155.00 0.0064516 962.20 1042.3 3.0390 2.5613 3.2459 305.75 0.030377 21.367 0.065446
264.38 1808.2 undefined 964.76 1045.2 3.0437 155.00 0.0064516 964.76 1045.2 3.0437 2.5646 3.2462 306.46 0.030143 21.394 0.065603 155.00 0.0064516 964.76 1045.2 3.0437 2.5646 3.2462 306.46 0.030143 21.394 0.065603
265.38 1815.1 undefined 967.33 1048.1 3.0485 155.00 0.0064516 967.33 1048.1 3.0485 2.5679 3.2465 307.18 0.029911 21.421 0.065760 155.00 0.0064516 967.33 1048.1 3.0485 2.5679 3.2465 307.18 0.029911 21.421 0.065760
266.38 1822.0 undefined 969.89 1050.9 3.0533 155.00 0.0064516 969.89 1050.9 3.0533 2.5712 3.2468 307.89 0.029681 21.449 0.065917 155.00 0.0064516 969.89 1050.9 3.0533 2.5712 3.2468 307.89 0.029681 21.449 0.065917
267.38 1828.9 undefined 972.47 1053.8 3.0580 155.00 0.0064516 972.47 1053.8 3.0580 2.5744 3.2471 308.59 0.029454 21.476 0.066074 155.00 0.0064516 972.47 1053.8 3.0580 2.5744 3.2471 308.59 0.029454 21.476 0.066074
268.38 1835.8 undefined 975.04 1056.7 3.0628 155.00 0.0064516 975.04 1056.7 3.0628 2.5777 3.2475 309.30 0.029229 21.503 0.066230 155.00 0.0064516 975.04 1056.7 3.0628 2.5777 3.2475 309.30 0.029229 21.503 0.066230
269.38 1842.7 undefined 977.62 1059.6 3.0676 155.00 0.0064516 977.62 1059.6 3.0676 2.5810 3.2479 310.01 0.029006 21.531 0.066387 155.00 0.0064516 977.62 1059.6 3.0676 2.5810 3.2479 310.01 0.029006 21.531 0.066387
270.38 1849.6 undefined 980.21 1062.5 3.0723 155.00 0.0064516 980.21 1062.5 3.0723 2.5843 3.2484 310.71 0.028786 21.558 0.066543 155.00 0.0064516 980.21 1062.5 3.0723 2.5843 3.2484 310.71 0.028786 21.558 0.066543
271.38 1856.4 undefined 982.79 1065.4 3.0771 155.00 0.0064516 982.79 1065.4 3.0771 2.5876 3.2489 311.41 0.028568 21.585 0.066699 155.00 0.0064516 982.79 1065.4 3.0771 2.5876 3.2489 311.41 0.028568 21.585 0.066699
272.38 1863.3 undefined 985.38 1068.3 3.0818 155.00 0.0064516 985.38 1068.3 3.0818 2.5909 3.2494 312.11 0.028352 21.612 0.066854 155.00 0.0064516 985.38 1068.3 3.0818 2.5909 3.2494 312.11 0.028352 21.612 0.066854
273.38 1870.2 undefined 987.97 1071.2 3.0866 155.00 0.0064516 987.97 1071.2 3.0866 2.5942 3.2499 312.81 0.028139 21.640 0.067008 155.00 0.0064516 987.97 1071.2 3.0866 2.5942 3.2499 312.81 0.028139 21.640 0.067008
274.38 1877.1 undefined 990.57 1074.1 3.0913 155.00 0.0064516 990.57 1074.1 3.0913 2.5974 3.2505 313.51 0.027927 21.667 0.067162 155.00 0.0064516 990.57 1074.1 3.0913 2.5974 3.2505 313.51 0.027927 21.667 0.067162
275.38 1884.0 undefined 993.17 1077.0 3.0961 155.00 0.0064516 993.17 1077.0 3.0961 2.6007 3.2511 314.20 0.027718 21.694 0.067314 155.00 0.0064516 993.17 1077.0 3.0961 2.6007 3.2511 314.20 0.027718 21.694 0.067314
276.38 1890.9 undefined 995.77 1079.9 3.1008 155.00 0.0064516 995.77 1079.9 3.1008 2.6040 3.2518 314.90 0.027511 21.721 0.067465 155.00 0.0064516 995.77 1079.9 3.1008 2.6040 3.2518 314.90 0.027511 21.721 0.067465
277.38 1897.7 undefined 998.38 1082.8 3.1055 155.00 0.0064516 998.38 1082.8 3.1055 2.6073 3.2524 315.59 0.027305 21.748 0.067614 155.00 0.0064516 998.38 1082.8 3.1055 2.6073 3.2524 315.59 0.027305 21.748 0.067614
278.38 1904.6 undefined 1001.0 1085.7 3.1103 155.00 0.0064516 1001.0 1085.7 3.1103 2.6106 3.2531 316.28 0.027102 21.775 0.067760 155.00 0.0064516 1001.0 1085.7 3.1103 2.6106 3.2531 316.28 0.027102 21.775 0.067760
279.38 1911.5 undefined 1003.6 1088.6 3.1150 155.00 0.0064516 1003.6 1088.6 3.1150 2.6138 3.2539 316.97 0.026901 21.802 0.067900 155.00 0.0064516 1003.6 1088.6 3.1150 2.6138 3.2539 316.97 0.026901 21.802 0.067900
280.38 1918.4 undefined 1006.2 1091.5 3.1197 155.00 0.0064516 1006.2 1091.5 3.1197 2.6171 3.2546 317.66 0.026702 21.829 0.068031 155.00 0.0064516 1006.2 1091.5 3.1197 2.6171 3.2546 317.66 0.026702 21.829 0.068031
281.38 1925.2 undefined 1008.8 1094.5 3.1245 155.00 0.0064516 1008.8 1094.5 3.1245 2.6204 3.2554 318.34 0.026505 21.856 0.068132 155.00 0.0064516 1008.8 1094.5 3.1245 2.6204 3.2554 318.34 0.026505 21.856 0.068132
282.38 1932.1 undefined 1011.5 1097.4 3.1292 155.00 0.0064516 1011.5 1097.4 3.1292 2.6237 3.2562 319.03 0.026310 21.883 0.068257 155.00 0.0064516 1011.5 1097.4 3.1292 2.6237 3.2562 319.03 0.026310 21.883 0.068257
283.38 1939.0 undefined 1014.1 1100.3 3.1339 155.00 0.0064516 1014.1 1100.3 3.1339 2.6269 3.2570 319.71 0.026117 21.910 0.068436 155.00 0.0064516 1014.1 1100.3 3.1339 2.6269 3.2570 319.71 0.026117 21.910 0.068436
284.38 1945.8 undefined 1016.7 1103.3 3.1386 155.00 0.0064516 1016.7 1103.3 3.1386 2.6302 3.2579 320.40 0.025926 21.936 0.068615 155.00 0.0064516 1016.7 1103.3 3.1386 2.6302 3.2579 320.40 0.025926 21.936 0.068615
285.38 1952.7 undefined 1019.3 1106.2 3.1433 155.00 0.0064516 1019.3 1106.2 3.1433 2.6335 3.2588 321.08 0.025736 21.963 0.068795 155.00 0.0064516 1019.3 1106.2 3.1433 2.6335 3.2588 321.08 0.025736 21.963 0.068795
286.38 1959.6 undefined 1022.0 1109.1 3.1480 155.00 0.0064516 1022.0 1109.1 3.1480 2.6368 3.2597 321.75 0.025549 21.990 0.068975 155.00 0.0064516 1022.0 1109.1 3.1480 2.6368 3.2597 321.75 0.025549 21.990 0.068975
287.38 1966.4 undefined 1024.6 1112.1 3.1528 155.00 0.0064516 1024.6 1112.1 3.1528 2.6400 3.2606 322.43 0.025363 22.017 0.069155 155.00 0.0064516 1024.6 1112.1 3.1528 2.6400 3.2606 322.43 0.025363 22.017 0.069155
288.38 1973.3 undefined 1027.3 1115.0 3.1575 155.00 0.0064516 1027.3 1115.0 3.1575 2.6433 3.2616 323.11 0.025179 22.043 0.069336 155.00 0.0064516 1027.3 1115.0 3.1575 2.6433 3.2616 323.11 0.025179 22.043 0.069336
289.38 1980.2 undefined 1029.9 1118.0 3.1622 155.00 0.0064516 1029.9 1118.0 3.1622 2.6466 3.2625 323.78 0.024997 22.070 0.069517 155.00 0.0064516 1029.9 1118.0 3.1622 2.6466 3.2625 323.78 0.024997 22.070 0.069517
290.38 1987.0 undefined 1032.5 1120.9 3.1669 155.00 0.0064516 1032.5 1120.9 3.1669 2.6498 3.2635 324.46 0.024816 22.097 0.069698 155.00 0.0064516 1032.5 1120.9 3.1669 2.6498 3.2635 324.46 0.024816 22.097 0.069698
291.38 1993.9 undefined 1035.2 1123.9 3.1716 155.00 0.0064516 1035.2 1123.9 3.1716 2.6531 3.2646 325.13 0.024637 22.123 0.069880 155.00 0.0064516 1035.2 1123.9 3.1716 2.6531 3.2646 325.13 0.024637 22.123 0.069880
292.38 2000.7 undefined 1037.9 1126.9 3.1763 155.00 0.0064516 1037.9 1126.9 3.1763 2.6564 3.2656 325.80 0.024460 22.150 0.070061 155.00 0.0064516 1037.9 1126.9 3.1763 2.6564 3.2656 325.80 0.024460 22.150 0.070061
293.38 2007.6 undefined 1040.5 1129.8 3.1810 155.00 0.0064516 1040.5 1129.8 3.1810 2.6596 3.2667 326.47 0.024285 22.176 0.070243 155.00 0.0064516 1040.5 1129.8 3.1810 2.6596 3.2667 326.47 0.024285 22.176 0.070243
294.38 2014.4 undefined 1043.2 1132.8 3.1857 155.00 0.0064516 1043.2 1132.8 3.1857 2.6629 3.2678 327.14 0.024111 22.203 0.070426 155.00 0.0064516 1043.2 1132.8 3.1857 2.6629 3.2678 327.14 0.024111 22.203 0.070426
295.38 2021.3 undefined 1045.8 1135.7 3.1904 155.00 0.0064516 1045.8 1135.7 3.1904 2.6661 3.2689 327.80 0.023939 22.229 0.070608 155.00 0.0064516 1045.8 1135.7 3.1904 2.6661 3.2689 327.80 0.023939 22.229 0.070608
296.38 2028.1 undefined 1048.5 1138.7 3.1950 155.00 0.0064516 1048.5 1138.7 3.1950 2.6694 3.2700 328.47 0.023769 22.256 0.070791 155.00 0.0064516 1048.5 1138.7 3.1950 2.6694 3.2700 328.47 0.023769 22.256 0.070791
297.38 2035.0 undefined 1051.2 1141.7 3.1997 155.00 0.0064516 1051.2 1141.7 3.1997 2.6726 3.2711 329.13 0.023600 22.282 0.070975 155.00 0.0064516 1051.2 1141.7 3.1997 2.6726 3.2711 329.13 0.023600 22.282 0.070975
298.38 2041.8 undefined 1053.9 1144.7 3.2044 155.00 0.0064516 1053.9 1144.7 3.2044 2.6759 3.2723 329.79 0.023433 22.309 0.071158 155.00 0.0064516 1053.9 1144.7 3.2044 2.6759 3.2723 329.79 0.023433 22.309 0.071158
299.38 2048.7 undefined 1056.5 1147.7 3.2091 155.00 0.0064516 1056.5 1147.7 3.2091 2.6792 3.2735 330.45 0.023267 22.335 0.071342 155.00 0.0064516 1056.5 1147.7 3.2091 2.6792 3.2735 330.45 0.023267 22.335 0.071342
300.38 2055.5 undefined 1059.2 1150.6 3.2138 155.00 0.0064516 1059.2 1150.6 3.2138 2.6824 3.2747 331.11 0.023103 22.361 0.071526 155.00 0.0064516 1059.2 1150.6 3.2138 2.6824 3.2747 331.11 0.023103 22.361 0.071526