Temperature (C) Pressure (psia) Quality (l+v) Internal Energy (l+v, kJ/kg) Enthalpy (l+v, kJ/kg) Entropy (l+v, J/g*K) Density (l, kg/m3) Volume (l, m3/kg) Internal Energy (l, kJ/kg) Enthalpy (l, kJ/kg) Entropy (l, J/g*K) Cv (l, J/g*K) Cp (l, J/g*K) Sound Spd. (l, m/s) Joule-Thomson (l, F/psia) Viscosity (l, uPa*s) Therm. Cond. (l, W/m*K) Density (v, kg/m3) Volume (v, m3/kg) Internal Energy (v, kJ/kg) Enthalpy (v, kJ/kg) Entropy (v, J/g*K) Cv (v, J/g*K) Cp (v, J/g*K) Sound Spd. (v, m/s) Joule-Thomson (v, F/psia) Viscosity (v, uPa*s) Therm. Cond. (v, W/m*K)
-187.62 2.4953e-08 4.6412e-11 -196.64 -196.64 -1.3959 733.13 0.0013640 -196.64 -196.64 -1.3959 1.3553 1.9158 2136.4 -0.0077592 10960. 0.20792 1.0669e-08 9.3732e+07 350.13 366.26 5.1858 0.69067 0.87923 143.28 6.1051 2.3259 0.0017061
-186.62 3.7339e-08 6.8616e-11 -194.73 -194.73 -1.3736 732.08 0.0013660 -194.73 -194.73 -1.3736 1.3539 1.9166 2129.6 -0.0077546 10073. 0.20765 1.5780e-08 6.3371e+07 350.82 367.14 5.1200 0.69462 0.88317 144.03 5.9178 2.3534 0.0017533
-185.62 5.5322e-08 1.0046e-10 -192.81 -192.81 -1.3516 731.04 0.0013679 -192.81 -192.81 -1.3516 1.3525 1.9174 2122.9 -0.0077498 9276.1 0.20737 2.3112e-08 4.3267e+07 351.52 368.02 5.0561 0.69857 0.88713 144.77 5.7383 2.3808 0.0018007
-184.62 8.1182e-08 1.4568e-10 -190.89 -190.89 -1.3298 730.00 0.0013699 -190.89 -190.89 -1.3298 1.3513 1.9182 2116.1 -0.0077448 8557.8 0.20708 3.3533e-08 2.9821e+07 352.22 368.91 4.9939 0.70253 0.89108 145.51 5.5662 2.4083 0.0018485
-183.62 1.1803e-07 2.0935e-10 -188.97 -188.97 -1.3083 728.96 0.0013718 -188.97 -188.97 -1.3083 1.3501 1.9191 2109.3 -0.0077395 7909.8 0.20678 4.8211e-08 2.0742e+07 352.92 369.81 4.9333 0.70648 0.89504 146.24 5.4011 2.4357 0.0018965
-182.62 1.7009e-07 2.9821e-10 -187.05 -187.05 -1.2869 727.92 0.0013738 -187.05 -187.05 -1.2869 1.3490 1.9201 2102.5 -0.0077340 7324.3 0.20647 6.8704e-08 1.4555e+07 353.63 370.70 4.8744 0.71043 0.89899 146.97 5.2426 2.4632 0.0019448
-181.62 2.4299e-07 4.2118e-10 -185.13 -185.13 -1.2658 726.88 0.0013757 -185.13 -185.13 -1.2658 1.3480 1.9210 2095.7 -0.0077283 6794.5 0.20616 9.7079e-08 1.0301e+07 354.35 371.60 4.8170 0.71438 0.90294 147.69 5.0904 2.4906 0.0019934
-180.62 3.4425e-07 5.8998e-10 -183.21 -183.21 -1.2450 725.85 0.0013777 -183.21 -183.21 -1.2450 1.3470 1.9220 2088.9 -0.0077225 6314.4 0.20584 1.3605e-07 7.3504e+06 355.06 372.51 4.7612 0.71833 0.90688 148.41 4.9442 2.5181 0.0020423
-179.62 4.8378e-07 8.1989e-10 -181.29 -181.29 -1.2243 724.81 0.0013797 -181.29 -181.29 -1.2243 1.3461 1.9231 2082.0 -0.0077164 5878.8 0.20551 1.8915e-07 5.2868e+06 355.78 373.42 4.7068 0.72227 0.91082 149.13 4.8038 2.5456 0.0020915
-178.62 6.7459e-07 1.1307e-09 -179.37 -179.37 -1.2038 723.78 0.0013816 -179.37 -179.37 -1.2038 1.3453 1.9241 2075.2 -0.0077102 5482.9 0.20517 2.6096e-07 3.8320e+06 356.51 374.33 4.6538 0.72620 0.91475 149.84 4.6688 2.5731 0.0021410
-177.62 9.3358e-07 1.5476e-09 -177.44 -177.44 -1.1836 722.75 0.0013836 -177.44 -177.44 -1.1836 1.3445 1.9252 2068.4 -0.0077039 5122.6 0.20483 3.5737e-07 2.7982e+06 357.23 375.25 4.6022 0.73012 0.91867 150.54 4.5390 2.6005 0.0021907
-176.62 1.2826e-06 2.1032e-09 -175.52 -175.52 -1.1635 721.72 0.0013856 -175.52 -175.52 -1.1635 1.3437 1.9263 2061.5 -0.0076973 4794.1 0.20447 4.8588e-07 2.0581e+06 357.97 376.17 4.5519 0.73403 0.92258 151.25 4.4142 2.6280 0.0022408
-175.62 1.7496e-06 2.8384e-09 -173.59 -173.59 -1.1437 720.69 0.0013876 -173.59 -173.59 -1.1437 1.3430 1.9274 2054.7 -0.0076907 4494.3 0.20411 6.5601e-07 1.5244e+06 358.70 377.09 4.5029 0.73792 0.92648 151.95 4.2941 2.6555 0.0022912
-174.62 2.3705e-06 3.8048e-09 -171.66 -171.66 -1.1240 719.66 0.0013895 -171.66 -171.66 -1.1240 1.3423 1.9286 2047.9 -0.0076838 4220.2 0.20375 8.7976e-07 1.1367e+06 359.44 378.02 4.4551 0.74181 0.93036 152.64 4.1784 2.6830 0.0023418
-173.62 3.1903e-06 5.0669e-09 -169.73 -169.73 -1.1045 718.64 0.0013915 -169.73 -169.73 -1.1045 1.3417 1.9298 2041.0 -0.0076769 3969.3 0.20338 1.1721e-06 8.5314e+05 360.19 378.95 4.4085 0.74568 0.93423 153.33 4.0671 2.7105 0.0023928
-172.62 4.2661e-06 6.7050e-09 -167.80 -167.80 -1.0852 717.61 0.0013935 -167.80 -167.80 -1.0852 1.3411 1.9310 2034.2 -0.0076698 3739.3 0.20300 1.5518e-06 6.4441e+05 360.93 379.89 4.3631 0.74953 0.93809 154.02 3.9599 2.7379 0.0024440
-171.62 5.6692e-06 8.8185e-09 -165.87 -165.87 -1.0661 716.58 0.0013955 -165.87 -165.87 -1.0661 1.3405 1.9322 2027.3 -0.0076625 3528.0 0.20261 2.0419e-06 4.8974e+05 361.69 380.83 4.3188 0.75337 0.94193 154.71 3.8566 2.7654 0.0024955
-170.62 7.4884e-06 1.1529e-08 -163.94 -163.94 -1.0472 715.56 0.0013975 -163.94 -163.94 -1.0472 1.3400 1.9334 2020.5 -0.0076552 3333.8 0.20222 2.6708e-06 3.7442e+05 362.44 381.77 4.2755 0.75720 0.94575 155.39 3.7570 2.7929 0.0025473
-169.62 9.8334e-06 1.4986e-08 -162.00 -162.00 -1.0284 714.54 0.0013995 -162.00 -162.00 -1.0284 1.3395 1.9347 2013.6 -0.0076477 3154.9 0.20182 3.4733e-06 2.8791e+05 363.20 382.72 4.2334 0.76100 0.94956 156.07 3.6609 2.8204 0.0025994
-168.62 1.2839e-05 1.9372e-08 -160.07 -160.07 -1.0098 713.52 0.0014015 -160.07 -160.07 -1.0098 1.3390 1.9359 2006.8 -0.0076401 2989.9 0.20141 4.4917e-06 2.2263e+05 363.96 383.67 4.1922 0.76479 0.95335 156.74 3.5683 2.8479 0.0026518
-167.62 1.6672e-05 2.4904e-08 -158.13 -158.13 -0.99134 712.49 0.0014035 -158.13 -158.13 -0.99134 1.3386 1.9372 2000.0 -0.0076323 2837.5 0.20100 5.7771e-06 1.7310e+05 364.73 384.63 4.1521 0.76856 0.95712 157.41 3.4790 2.8754 0.0027045
-166.62 2.1533e-05 3.1848e-08 -156.19 -156.19 -0.97306 711.47 0.0014055 -156.19 -156.19 -0.97306 1.3382 1.9385 1993.1 -0.0076245 2696.5 0.20058 7.3914e-06 1.3529e+05 365.50 385.59 4.1129 0.77232 0.96087 158.08 3.3927 2.9029 0.0027575
-165.62 2.7666e-05 4.0520e-08 -154.25 -154.25 -0.95494 710.45 0.0014075 -154.25 -154.25 -0.95494 1.3378 1.9398 1986.3 -0.0076165 2566.0 0.20016 9.4084e-06 1.0629e+05 366.27 386.55 4.0746 0.77605 0.96460 158.75 3.3095 2.9304 0.0028108
-164.62 3.5367e-05 5.1297e-08 -152.31 -152.31 -0.93698 709.44 0.0014096 -152.31 -152.31 -0.93698 1.3375 1.9411 1979.4 -0.0076084 2444.9 0.19973 1.1916e-05 83918. 367.05 387.52 4.0372 0.77976 0.96832 159.41 3.2291 2.9579 0.0028643
-163.62 4.4989e-05 6.4627e-08 -150.37 -150.37 -0.91917 708.42 0.0014116 -150.37 -150.37 -0.91917 1.3371 1.9424 1972.6 -0.0076002 2332.3 0.19930 1.5020e-05 66577. 367.83 388.49 4.0008 0.78346 0.97201 160.07 3.1514 2.9854 0.0029182
-162.62 5.6956e-05 8.1040e-08 -148.43 -148.43 -0.90151 707.40 0.0014136 -148.43 -148.43 -0.90151 1.3368 1.9437 1965.8 -0.0075919 2227.7 0.19886 1.8844e-05 53068. 368.62 389.46 3.9651 0.78713 0.97569 160.72 3.0764 3.0129 0.0029723
-161.62 7.1773e-05 1.0116e-07 -146.48 -146.48 -0.88400 706.38 0.0014157 -146.48 -146.48 -0.88400 1.3365 1.9451 1959.0 -0.0075834 2130.2 0.19841 2.3533e-05 42494. 369.41 390.44 3.9304 0.79079 0.97935 161.38 3.0038 3.0404 0.0030268
-160.62 9.0036e-05 1.2571e-07 -144.54 -144.54 -0.86663 705.37 0.0014177 -144.54 -144.54 -0.86663 1.3363 1.9465 1952.1 -0.0075748 2039.2 0.19796 2.9258e-05 34178. 370.20 391.42 3.8964 0.79443 0.98298 162.03 2.9337 3.0679 0.0030815
-159.62 0.00011245 1.5555e-07 -142.59 -142.59 -0.84940 704.35 0.0014197 -142.59 -142.59 -0.84940 1.3360 1.9478 1945.3 -0.0075661 1954.2 0.19751 3.6221e-05 27609. 371.00 392.40 3.8632 0.79805 0.98660 162.68 2.8658 3.0955 0.0031365
-158.62 0.00013985 1.9167e-07 -140.64 -140.64 -0.83231 703.34 0.0014218 -140.64 -140.64 -0.83231 1.3358 1.9492 1938.5 -0.0075573 1874.8 0.19705 4.4652e-05 22395. 371.80 393.39 3.8307 0.80164 0.99020 163.32 2.8002 3.1230 0.0031918
-157.62 0.00017320 2.3521e-07 -138.69 -138.69 -0.81536 702.32 0.0014238 -138.69 -138.69 -0.81536 1.3356 1.9506 1931.7 -0.0075484 1800.3 0.19658 5.4822e-05 18241. 372.60 394.38 3.7990 0.80522 0.99378 163.96 2.7367 3.1505 0.0032474
-156.62 0.00021364 2.8750e-07 -136.74 -136.74 -0.79854 701.31 0.0014259 -136.74 -136.74 -0.79854 1.3354 1.9520 1924.9 -0.0075393 1730.5 0.19611 6.7040e-05 14916. 373.41 395.38 3.7680 0.80878 0.99734 164.60 2.6752 3.1780 0.0033033
-155.62 0.00026248 3.5005e-07 -134.79 -134.79 -0.78185 700.30 0.0014280 -134.79 -134.79 -0.78185 1.3352 1.9534 1918.1 -0.0075302 1664.9 0.19564 8.1666e-05 12245. 374.22 396.38 3.7377 0.81232 1.0009 165.24 2.6157 3.2055 0.0033595
-154.62 0.00032125 4.2461e-07 -132.83 -132.83 -0.76530 699.29 0.0014300 -132.83 -132.83 -0.76530 1.3350 1.9548 1911.3 -0.0075209 1603.3 0.19516 9.9109e-05 10090. 375.03 397.38 3.7081 0.81585 1.0044 165.87 2.5580 3.2330 0.0034160
-153.62 0.00039171 5.1317e-07 -130.88 -130.88 -0.74887 698.27 0.0014321 -130.88 -130.88 -0.74887 1.3349 1.9563 1904.5 -0.0075114 1545.3 0.19468 0.00011984 8344.6 375.85 398.39 3.6792 0.81935 1.0079 166.50 2.5022 3.2606 0.0034727
-152.62 0.00047590 6.1798e-07 -128.92 -128.92 -0.73256 697.26 0.0014342 -128.92 -128.92 -0.73256 1.3348 1.9577 1897.8 -0.0075019 1490.6 0.19419 0.00014439 6925.9 376.67 399.40 3.6509 0.82284 1.0114 167.13 2.4481 3.2881 0.0035298
-151.62 0.00057613 7.4163e-07 -126.96 -126.96 -0.71638 696.25 0.0014363 -126.96 -126.96 -0.71638 1.3346 1.9592 1891.0 -0.0074922 1438.9 0.19370 0.00017336 5768.4 377.49 400.41 3.6232 0.82631 1.0149 167.76 2.3957 3.3156 0.0035872
-150.62 0.00069507 8.8699e-07 -125.00 -125.00 -0.70032 695.24 0.0014384 -125.00 -125.00 -0.70032 1.3345 1.9606 1884.2 -0.0074824 1390.2 0.19320 0.00020744 4820.7 378.32 401.42 3.5962 0.82976 1.0183 168.38 2.3448 3.3431 0.0036448
-149.62 0.00083574 1.0574e-06 -123.04 -123.04 -0.68437 694.23 0.0014404 -123.04 -123.04 -0.68438 1.3345 1.9621 1877.4 -0.0074724 1344.0 0.19270 0.00024740 4042.0 379.15 402.44 3.5697 0.83319 1.0218 169.00 2.2956 3.3706 0.0037027
-148.62 0.0010016 1.2564e-06 -121.08 -121.08 -0.66854 693.22 0.0014425 -121.08 -121.08 -0.66855 1.3344 1.9636 1870.7 -0.0074623 1300.3 0.19220 0.00029412 3400.0 379.99 403.47 3.5438 0.83661 1.0252 169.62 2.2478 3.3982 0.0037610
-147.62 0.0011965 1.4882e-06 -119.11 -119.11 -0.65283 692.21 0.0014447 -119.11 -119.11 -0.65284 1.3343 1.9651 1863.9 -0.0074521 1258.9 0.19169 0.00034856 2869.0 380.83 404.49 3.5185 0.84001 1.0286 170.24 2.2014 3.4257 0.0038195
-146.62 0.0014249 1.7574e-06 -117.15 -117.15 -0.63723 691.20 0.0014468 -117.15 -117.15 -0.63724 1.3343 1.9666 1857.2 -0.0074417 1219.6 0.19117 0.00041181 2428.3 381.67 405.52 3.4938 0.84340 1.0320 170.85 2.1565 3.4532 0.0038783
-145.62 0.0016917 2.0691e-06 -115.18 -115.18 -0.62174 690.19 0.0014489 -115.18 -115.18 -0.62175 1.3343 1.9682 1850.4 -0.0074312 1182.3 0.19066 0.00048510 2061.4 382.51 406.56 3.4695 0.84677 1.0353 171.46 2.1128 3.4807 0.0039374
-144.62 0.0020026 2.4291e-06 -113.21 -113.21 -0.60636 689.18 0.0014510 -113.21 -113.21 -0.60637 1.3343 1.9697 1843.7 -0.0074206 1146.8 0.19014 0.00056976 1755.1 383.36 407.59 3.4458 0.85012 1.0387 172.07 2.0705 3.5082 0.0039967
-143.62 0.0023637 2.8435e-06 -111.24 -111.24 -0.59109 688.17 0.0014531 -111.24 -111.24 -0.59110 1.3343 1.9713 1836.9 -0.0074098 1113.0 0.18962 0.00066731 1498.6 384.21 408.63 3.4226 0.85346 1.0420 172.68 2.0294 3.5358 0.0040564
-142.62 0.0027820 3.3194e-06 -109.27 -109.27 -0.57592 687.16 0.0014553 -109.27 -109.27 -0.57593 1.3343 1.9728 1830.2 -0.0073988 1080.8 0.18909 0.00077939 1283.1 385.07 409.68 3.3999 0.85679 1.0454 173.28 1.9896 3.5633 0.0041164
-141.62 0.0032653 3.8646e-06 -107.29 -107.29 -0.56085 686.15 0.0014574 -107.30 -107.30 -0.56087 1.3343 1.9744 1823.5 -0.0073878 1050.1 0.18856 0.00090784 1101.5 385.93 410.72 3.3777 0.86011 1.0487 173.88 1.9508 3.5908 0.0041766
-140.62 0.0038222 4.4874e-06 -105.32 -105.32 -0.54589 685.14 0.0014596 -105.32 -105.32 -0.54591 1.3344 1.9760 1816.7 -0.0073765 1020.7 0.18803 0.0010547 948.16 386.79 411.77 3.3560 0.86341 1.0520 174.48 1.9133 3.6183 0.0042372
-139.62 0.0044623 5.1971e-06 -103.34 -103.34 -0.53103 684.13 0.0014617 -103.34 -103.34 -0.53105 1.3344 1.9776 1810.0 -0.0073651 992.74 0.18749 0.0012221 818.26 387.65 412.83 3.3347 0.86670 1.0553 175.08 1.8768 3.6459 0.0042980
-138.62 0.0051963 6.0039e-06 -101.36 -101.36 -0.51626 683.12 0.0014639 -101.37 -101.37 -0.51629 1.3345 1.9792 1803.3 -0.0073536 965.97 0.18695 0.0014125 707.94 388.52 413.88 3.3139 0.86998 1.0586 175.67 1.8413 3.6734 0.0043592
-137.62 0.0060358 6.9190e-06 -99.383 -99.382 -0.50160 682.11 0.0014660 -99.386 -99.386 -0.50162 1.3346 1.9808 1796.6 -0.0073419 940.35 0.18641 0.0016287 614.00 389.39 414.94 3.2935 0.87325 1.0619 176.26 1.8069 3.7009 0.0044206
-136.62 0.0069938 7.9544e-06 -97.401 -97.400 -0.48702 681.10 0.0014682 -97.404 -97.404 -0.48705 1.3347 1.9825 1789.9 -0.0073301 915.81 0.18586 0.0018733 533.80 390.26 416.00 3.2735 0.87650 1.0651 176.85 1.7734 3.7284 0.0044823
-135.62 0.0080843 9.1233e-06 -95.417 -95.416 -0.47255 680.09 0.0014704 -95.421 -95.421 -0.47258 1.3348 1.9841 1783.2 -0.0073180 892.30 0.18531 0.0021497 465.17 391.14 417.07 3.2540 0.87975 1.0684 177.44 1.7409 3.7559 0.0045443
-134.62 0.0093230 1.0440e-05 -93.431 -93.431 -0.45816 679.08 0.0014726 -93.436 -93.436 -0.45820 1.3350 1.9858 1776.5 -0.0073059 869.75 0.18476 0.0024613 406.30 392.02 418.14 3.2348 0.88299 1.0716 178.02 1.7093 3.7834 0.0046066
-133.62 0.010727 1.1920e-05 -91.444 -91.443 -0.44386 678.07 0.0014748 -91.450 -91.449 -0.44391 1.3351 1.9875 1769.8 -0.0072935 848.11 0.18421 0.0028116 355.67 392.91 419.21 3.2161 0.88622 1.0749 178.61 1.6786 3.8109 0.0046691
-132.62 0.012315 1.3580e-05 -89.455 -89.454 -0.42966 677.06 0.0014770 -89.461 -89.461 -0.42971 1.3353 1.9892 1763.1 -0.0072810 827.32 0.18365 0.0032049 312.03 393.79 420.29 3.1977 0.88944 1.0781 179.19 1.6488 3.8385 0.0047320
-131.62 0.014106 1.5438e-05 -87.464 -87.463 -0.41554 676.04 0.0014792 -87.471 -87.471 -0.41560 1.3354 1.9909 1756.4 -0.0072684 807.34 0.18309 0.0036453 274.33 394.68 421.36 3.1798 0.89266 1.0813 179.76 1.6197 3.8660 0.0047951
-130.62 0.016124 1.7514e-05 -85.471 -85.470 -0.40151 675.03 0.0014814 -85.479 -85.479 -0.40157 1.3356 1.9926 1749.7 -0.0072555 788.12 0.18253 0.0041375 241.69 395.58 422.44 3.1622 0.89586 1.0846 180.34 1.5915 3.8935 0.0048586
-129.62 0.018392 1.9828e-05 -83.476 -83.476 -0.38756 674.02 0.0014836 -83.486 -83.486 -0.38763 1.3358 1.9944 1743.0 -0.0072425 769.63 0.18196 0.0046867 213.37 396.47 423.53 3.1450 0.89906 1.0878 180.91 1.5641 3.9210 0.0049223
-128.62 0.020935 2.2403e-05 -81.480 -81.479 -0.37370 673.01 0.0014859 -81.491 -81.490 -0.37378 1.3360 1.9961 1736.3 -0.0072294 751.83 0.18140 0.0052981 188.75 397.37 424.62 3.1281 0.90226 1.0910 181.48 1.5374 3.9485 0.0049863
-127.62 0.023783 2.5263e-05 -79.482 -79.481 -0.35992 672.00 0.0014881 -79.494 -79.493 -0.36001 1.3363 1.9979 1729.6 -0.0072160 734.67 0.18083 0.0059776 167.29 398.27 425.71 3.1116 0.90545 1.0942 182.05 1.5114 3.9760 0.0050506
-126.62 0.026966 2.8433e-05 -77.481 -77.480 -0.34623 670.98 0.0014904 -77.495 -77.495 -0.34632 1.3365 1.9997 1722.9 -0.0072025 718.14 0.18025 0.0067313 148.56 399.18 426.80 3.0954 0.90863 1.0974 182.62 1.4861 4.0035 0.0051152
-125.62 0.030515 3.1941e-05 -75.479 -75.478 -0.33261 669.97 0.0014926 -75.494 -75.494 -0.33272 1.3368 2.0015 1716.2 -0.0071888 702.18 0.17968 0.0075660 132.17 400.09 427.89 3.0795 0.91181 1.1006 183.18 1.4615 4.0310 0.0051800
-124.62 0.034467 3.5817e-05 -73.475 -73.474 -0.31907 668.95 0.0014949 -73.492 -73.492 -0.31919 1.3371 2.0033 1709.5 -0.0071749 686.79 0.17910 0.0084885 117.81 401.00 428.99 3.0640 0.91499 1.1038 183.74 1.4375 4.0584 0.0052452
-123.62 0.038859 4.0091e-05 -71.469 -71.467 -0.30561 667.94 0.0014971 -71.488 -71.487 -0.30574 1.3374 2.0051 1702.8 -0.0071609 671.93 0.17852 0.0095065 105.19 401.91 430.10 3.0488 0.91816 1.1070 184.30 1.4141 4.0859 0.0053106
-122.62 0.043731 4.4796e-05 -69.460 -69.459 -0.29222 666.92 0.0014994 -69.482 -69.481 -0.29237 1.3377 2.0070 1696.2 -0.0071466 657.57 0.17794 0.010628 94.092 402.83 431.20 3.0339 0.92134 1.1102 184.86 1.3913 4.1134 0.0053764
-121.62 0.049128 4.9967e-05 -67.450 -67.448 -0.27891 665.91 0.0015017 -67.474 -67.473 -0.27907 1.3380 2.0089 1689.5 -0.0071322 643.70 0.17736 0.011861 84.309 403.75 432.31 3.0193 0.92451 1.1134 185.41 1.3691 4.1409 0.0054424
-120.62 0.055096 5.5642e-05 -65.438 -65.436 -0.26567 664.89 0.0015040 -65.464 -65.463 -0.26585 1.3384 2.0107 1682.8 -0.0071176 630.28 0.17678 0.013215 75.669 404.67 433.42 3.0050 0.92767 1.1166 185.96 1.3475 4.1683 0.0055087
-119.62 0.061684 6.1859e-05 -63.423 -63.421 -0.25251 663.87 0.0015063 -63.452 -63.452 -0.25271 1.3387 2.0126 1676.1 -0.0071028 617.30 0.17619 0.014700 68.027 405.60 434.53 2.9909 0.93084 1.1198 186.51 1.3264 4.1958 0.0055752
-118.62 0.068946 6.8659e-05 -61.407 -61.404 -0.23941 662.86 0.0015086 -61.439 -61.438 -0.23963 1.3391 2.0146 1669.4 -0.0070878 604.74 0.17560 0.016325 61.255 406.53 435.64 2.9772 0.93401 1.1231 187.06 1.3058 4.2233 0.0056421
-117.62 0.076937 7.6088e-05 -59.388 -59.385 -0.22639 661.84 0.0015109 -59.423 -59.422 -0.22663 1.3395 2.0165 1662.8 -0.0070726 592.58 0.17501 0.018101 55.245 407.46 436.76 2.9638 0.93718 1.1263 187.60 1.2857 4.2507 0.0057092
-116.62 0.085718 8.4189e-05 -57.366 -57.363 -0.21344 660.82 0.0015133 -57.406 -57.405 -0.21370 1.3400 2.0184 1656.1 -0.0070573 580.80 0.17442 0.020040 49.901 408.39 437.88 2.9506 0.94035 1.1295 188.14 1.2660 4.2782 0.0057767
-115.62 0.095353 9.3013e-05 -55.343 -55.339 -0.20055 659.80 0.0015156 -55.386 -55.385 -0.20084 1.3404 2.0204 1649.4 -0.0070417 569.38 0.17383 0.022152 45.142 409.33 439.01 2.9377 0.94352 1.1327 188.68 1.2468 4.3056 0.0058444
-114.62 0.10591 0.00010261 -53.317 -53.313 -0.18773 658.78 0.0015180 -53.365 -53.364 -0.18805 1.3409 2.0224 1642.7 -0.0070260 558.32 0.17323 0.024451 40.898 410.27 440.13 2.9250 0.94669 1.1360 189.22 1.2281 4.3330 0.0059123
-113.62 0.11746 0.00011303 -51.289 -51.285 -0.17498 657.76 0.0015203 -51.342 -51.340 -0.17533 1.3413 2.0244 1636.0 -0.0070100 547.59 0.17264 0.026949 37.107 411.21 441.26 2.9126 0.94987 1.1392 189.75 1.2097 4.3604 0.0059806
-112.62 0.13008 0.00012433 -49.259 -49.254 -0.16229 656.73 0.0015227 -49.316 -49.315 -0.16267 1.3418 2.0264 1629.3 -0.0069938 537.18 0.17204 0.029661 33.715 412.16 442.39 2.9005 0.95305 1.1424 190.28 1.1918 4.3879 0.0060491
-111.62 0.14384 0.00013657 -47.226 -47.220 -0.14966 655.71 0.0015251 -47.289 -47.287 -0.15008 1.3424 2.0285 1622.7 -0.0069774 527.08 0.17144 0.032600 30.675 413.10 443.53 2.8885 0.95623 1.1457 190.81 1.1742 4.4153 0.0061180
-110.62 0.15884 0.00014982 -45.190 -45.184 -0.13710 654.69 0.0015274 -45.259 -45.258 -0.13755 1.3429 2.0305 1616.0 -0.0069609 517.28 0.17084 0.035781 27.948 414.06 444.66 2.8769 0.95942 1.1490 191.34 1.1570 4.4427 0.0061871
-109.62 0.17516 0.00016412 -43.153 -43.146 -0.12460 653.66 0.0015298 -43.228 -43.226 -0.12509 1.3435 2.0326 1609.3 -0.0069441 507.76 0.17024 0.039220 25.497 415.01 445.80 2.8654 0.96261 1.1522 191.86 1.1402 4.4701 0.0062564
-108.62 0.19290 0.00017956 -41.112 -41.104 -0.11216 652.64 0.0015322 -41.194 -41.192 -0.11269 1.3441 2.0347 1602.6 -0.0069271 498.51 0.16964 0.042933 23.292 415.96 446.94 2.8542 0.96581 1.1555 192.38 1.1236 4.4974 0.0063261
-107.62 0.21215 0.00019619 -39.069 -39.061 -0.099780 651.61 0.0015347 -39.158 -39.156 -0.10036 1.3447 2.0369 1595.9 -0.0069098 489.52 0.16903 0.046937 21.305 416.92 448.09 2.8433 0.96901 1.1588 192.90 1.1075 4.5248 0.0063960
-106.62 0.23301 0.00021410 -37.023 -37.014 -0.087457 650.58 0.0015371 -37.120 -37.118 -0.088082 1.3453 2.0390 1589.2 -0.0068924 480.79 0.16843 0.051250 19.512 417.88 449.23 2.8325 0.97222 1.1621 193.41 1.0916 4.5522 0.0064662
-105.62 0.25561 0.00023335 -34.975 -34.964 -0.075192 649.55 0.0015395 -35.080 -35.078 -0.075868 1.3460 2.0412 1582.6 -0.0068747 472.30 0.16782 0.055891 17.892 418.85 450.38 2.8220 0.97544 1.1655 193.93 1.0760 4.5795 0.0065367
-104.62 0.28004 0.00025403 -32.923 -32.912 -0.062984 648.52 0.0015420 -33.038 -33.035 -0.063714 1.3467 2.0434 1575.9 -0.0068569 464.04 0.16721 0.060878 16.426 419.81 451.53 2.8116 0.97867 1.1688 194.44 1.0608 4.6069 0.0066074
-103.62 0.30643 0.00027620 -30.869 -30.857 -0.050831 647.49 0.0015444 -30.994 -30.991 -0.051619 1.3474 2.0456 1569.2 -0.0068387 456.00 0.16660 0.066231 15.099 420.78 452.68 2.8015 0.98191 1.1722 194.94 1.0458 4.6342 0.0066785
-102.62 0.33490 0.00029997 -28.812 -28.799 -0.038732 646.46 0.0015469 -28.947 -28.944 -0.039582 1.3481 2.0478 1562.5 -0.0068204 448.18 0.16600 0.071971 13.894 421.75 453.84 2.7916 0.98516 1.1755 195.44 1.0310 4.6615 0.0067498
-101.62 0.36558 0.00032540 -26.752 -26.738 -0.026687 645.43 0.0015494 -26.898 -26.894 -0.027602 1.3489 2.0501 1555.8 -0.0068018 440.57 0.16539 0.078120 12.801 422.73 454.99 2.7818 0.98841 1.1789 195.95 1.0166 4.6888 0.0068213
-100.62 0.39862 0.00035260 -24.689 -24.673 -0.014695 644.39 0.0015519 -24.847 -24.843 -0.015678 1.3497 2.0524 1549.1 -0.0067830 433.16 0.16478 0.084699 11.807 423.70 456.15 2.7723 0.99168 1.1823 196.44 1.0024 4.7161 0.0068932
-99.625 0.43414 0.00038165 -22.623 -22.606 -0.0027543 643.36 0.0015544 -22.794 -22.789 -0.0038103 1.3505 2.0547 1542.4 -0.0067639 425.95 0.16416 0.091731 10.901 424.68 457.31 2.7630 0.99496 1.1858 196.94 0.98838 4.7434 0.0069653
-98.625 0.47230 0.00041265 -20.554 -20.535 0.0091358 642.32 0.0015569 -20.738 -20.733 0.0080027 1.3514 2.0570 1535.7 -0.0067447 418.92 0.16355 0.099240 10.077 425.66 458.48 2.7538 0.99825 1.1892 197.43 0.97464 4.7707 0.0070377
-97.625 0.51325 0.00044569 -18.481 -18.461 0.020976 641.28 0.0015594 -18.680 -18.674 0.019762 1.3522 2.0594 1529.0 -0.0067251 412.07 0.16294 0.10725 9.3239 426.65 459.64 2.7448 1.0016 1.1927 197.92 0.96112 4.7979 0.0071103
-96.625 0.55714 0.00048088 -16.406 -16.384 0.032768 640.24 0.0015619 -16.620 -16.614 0.031467 1.3531 2.0618 1522.3 -0.0067053 405.39 0.16233 0.11579 8.6365 427.63 460.81 2.7360 1.0049 1.1962 198.40 0.94783 4.8251 0.0071832
-95.625 0.60416 0.00051832 -14.327 -14.303 0.044511 639.20 0.0015645 -14.557 -14.550 0.043120 1.3540 2.0642 1515.7 -0.0066853 398.88 0.16171 0.12488 8.0078 428.62 461.98 2.7274 1.0082 1.1997 198.88 0.93475 4.8524 0.0072564
-94.625 0.65446 0.00055812 -12.245 -12.219 0.056208 638.16 0.0015670 -12.491 -12.484 0.054721 1.3550 2.0667 1509.0 -0.0066650 392.53 0.16110 0.13455 7.4323 429.61 463.15 2.7189 1.0116 1.2032 199.36 0.92188 4.8796 0.0073299
-93.625 0.70822 0.00060039 -10.159 -10.131 0.067859 637.12 0.0015696 -10.424 -10.416 0.066271 1.3560 2.0691 1502.3 -0.0066444 386.34 0.16048 0.14482 6.9050 430.60 464.32 2.7107 1.0149 1.2068 199.83 0.90921 4.9068 0.0074036
-92.625 0.76564 0.00064523 -8.0697 -8.0395 0.079464 636.07 0.0015722 -8.3535 -8.3452 0.077771 1.3570 2.0716 1495.6 -0.0066236 380.31 0.15987 0.15573 6.4212 431.60 465.49 2.7025 1.0183 1.2104 200.30 0.89673 4.9340 0.0074776
-91.625 0.82689 0.00069277 -5.9768 -5.9442 0.091025 635.02 0.0015747 -6.2808 -6.2719 0.089220 1.3580 2.0742 1488.9 -0.0066025 374.41 0.15925 0.16731 5.9769 432.59 466.67 2.6946 1.0217 1.2140 200.77 0.88445 4.9611 0.0075518
-90.625 0.89218 0.00074313 -3.8803 -3.8451 0.10254 633.98 0.0015773 -4.2056 -4.1959 0.10062 1.3591 2.0767 1482.2 -0.0065811 368.66 0.15864 0.17958 5.5685 433.59 467.84 2.6868 1.0251 1.2177 201.24 0.87236 4.9883 0.0076263
-89.625 0.96172 0.00079642 -1.7801 -1.7422 0.11402 632.93 0.0015800 -2.1279 -2.1174 0.11197 1.3602 2.0793 1475.5 -0.0065595 363.05 0.15802 0.19258 5.1928 434.59 469.02 2.6791 1.0285 1.2213 201.70 0.86045 5.0154 0.0077011
-88.625 1.0357 0.00085276 0.32398 0.36479 0.12545 631.88 0.0015826 -0.047516 -0.036215 0.12328 1.3613 2.0819 1468.8 -0.0065375 357.56 0.15740 0.20633 4.8466 435.59 470.20 2.6717 1.0320 1.2250 202.15 0.84873 5.0425 0.0077761
-87.625 1.1144 0.00091230 2.4319 2.4758 0.13684 630.83 0.0015852 2.0355 2.0476 0.13454 1.3625 2.0846 1462.1 -0.0065153 352.21 0.15679 0.22087 4.5276 436.60 471.39 2.6643 1.0354 1.2288 202.61 0.83718 5.0696 0.0078514
-86.625 1.1979 0.00097516 4.5438 4.5910 0.14820 629.77 0.0015879 4.1211 4.1342 0.14575 1.3637 2.0873 1455.4 -0.0064928 346.98 0.15617 0.23623 4.2331 437.61 472.57 2.6571 1.0389 1.2325 203.06 0.82580 5.0967 0.0079270
-85.625 1.2866 0.0010415 6.6597 6.7104 0.15951 628.72 0.0015905 6.2094 6.2235 0.15691 1.3649 2.0900 1448.8 -0.0064701 341.87 0.15555 0.25245 3.9612 438.61 473.75 2.6501 1.0424 1.2363 203.50 0.81460 5.1237 0.0080028
-84.625 1.3806 0.0011114 8.7797 8.8341 0.17079 627.66 0.0015932 8.3004 8.3155 0.16803 1.3661 2.0927 1442.1 -0.0064470 336.87 0.15494 0.26956 3.7097 439.63 474.94 2.6432 1.0460 1.2402 203.95 0.80356 5.1508 0.0080789
-83.625 1.4803 0.0011850 10.904 10.962 0.18202 626.60 0.0015959 10.394 10.410 0.17911 1.3674 2.0955 1435.4 -0.0064236 331.99 0.15432 0.28760 3.4771 440.64 476.13 2.6364 1.0495 1.2440 204.38 0.79269 5.1778 0.0081553
-82.625 1.5858 0.0012625 13.032 13.095 0.19322 625.54 0.0015986 12.491 12.508 0.19014 1.3687 2.0983 1428.7 -0.0063999 327.22 0.15370 0.30659 3.2616 441.65 477.31 2.6298 1.0531 1.2479 204.82 0.78199 5.2048 0.0082319
-81.625 1.6975 0.0013440 15.165 15.232 0.20439 624.48 0.0016013 14.590 14.609 0.20113 1.3700 2.1012 1422.0 -0.0063759 322.55 0.15309 0.32659 3.0619 442.67 478.50 2.6233 1.0567 1.2519 205.25 0.77144 5.2318 0.0083088
-80.625 1.8155 0.0014296 17.303 17.374 0.21552 623.42 0.0016041 16.692 16.712 0.21208 1.3714 2.1041 1415.4 -0.0063516 317.99 0.15247 0.34763 2.8766 443.69 479.70 2.6169 1.0603 1.2558 205.67 0.76106 5.2587 0.0083860
-79.625 1.9402 0.0015196 19.444 19.521 0.22662 622.36 0.0016068 18.797 18.819 0.22299 1.3728 2.1070 1408.7 -0.0063270 313.52 0.15186 0.36974 2.7046 444.71 480.89 2.6106 1.0639 1.2598 206.10 0.75083 5.2857 0.0084634
-78.625 2.0718 0.0016140 21.591 21.672 0.23768 621.29 0.0016096 20.905 20.928 0.23385 1.3742 2.1099 1402.0 -0.0063021 309.15 0.15124 0.39296 2.5448 445.73 482.08 2.6045 1.0676 1.2639 206.51 0.74076 5.3126 0.0085411
-77.625 2.2107 0.0017131 23.742 23.829 0.24871 620.22 0.0016123 23.016 23.040 0.24468 1.3757 2.1129 1395.3 -0.0062768 304.88 0.15062 0.41735 2.3961 446.75 483.27 2.5985 1.0712 1.2680 206.93 0.73084 5.3395 0.0086190
-76.625 2.3571 0.0018169 25.898 25.990 0.25971 619.15 0.0016151 25.130 25.156 0.25546 1.3772 2.1159 1388.7 -0.0062512 300.69 0.15001 0.44292 2.2577 447.78 484.47 2.5926 1.0749 1.2721 207.34 0.72107 5.3664 0.0086972
-75.625 2.5113 0.0019257 28.058 28.157 0.27067 618.08 0.0016179 27.247 27.275 0.26620 1.3787 2.1190 1382.0 -0.0062253 296.59 0.14939 0.46974 2.1288 448.81 485.67 2.5869 1.0787 1.2762 207.74 0.71146 5.3933 0.0087757
-74.625 2.6736 0.0020396 30.224 30.329 0.28161 617.01 0.0016207 29.366 29.396 0.27691 1.3802 2.1221 1375.4 -0.0061990 292.58 0.14878 0.49783 2.0087 449.83 486.86 2.5812 1.0824 1.2804 208.14 0.70200 5.4201 0.0088544
-73.625 2.8444 0.0021587 32.395 32.507 0.29252 615.93 0.0016236 31.489 31.521 0.28758 1.3818 2.1252 1368.7 -0.0061724 288.65 0.14816 0.52725 1.8966 450.86 488.06 2.5757 1.0862 1.2847 208.54 0.69268 5.4469 0.0089334
-72.625 3.0240 0.0022833 34.570 34.690 0.30339 614.85 0.0016264 33.615 33.649 0.29821 1.3834 2.1284 1362.0 -0.0061454 284.81 0.14755 0.55804 1.7920 451.90 489.26 2.5703 1.0900 1.2889 208.93 0.68351 5.4737 0.0090126
-71.625 3.2127 0.0024135 36.751 36.878 0.31424 613.78 0.0016293 35.745 35.781 0.30880 1.3851 2.1316 1355.4 -0.0061181 281.03 0.14694 0.59024 1.6942 452.93 490.46 2.5650 1.0938 1.2932 209.32 0.67448 5.5005 0.0090922
-70.625 3.4108 0.0025494 38.938 39.072 0.32506 612.69 0.0016321 37.877 37.915 0.31935 1.3867 2.1349 1348.7 -0.0060904 277.34 0.14632 0.62390 1.6028 453.96 491.66 2.5598 1.0976 1.2976 209.70 0.66560 5.5273 0.0091720
-69.625 3.6187 0.0026914 41.130 41.272 0.33586 611.61 0.0016350 40.013 40.053 0.32987 1.3884 2.1382 1342.1 -0.0060624 273.72 0.14571 0.65906 1.5173 455.00 492.86 2.5547 1.1015 1.3020 210.08 0.65687 5.5540 0.0092520
-68.625 3.8367 0.0028395 43.327 43.478 0.34663 610.53 0.0016379 42.152 42.195 0.34036 1.3902 2.1415 1335.5 -0.0060339 270.17 0.14510 0.69577 1.4372 456.04 494.06 2.5497 1.1054 1.3064 210.45 0.64827 5.5807 0.0093324
-67.625 4.0652 0.0029939 45.530 45.690 0.35737 609.44 0.0016409 44.294 44.340 0.35080 1.3919 2.1449 1328.8 -0.0060051 266.69 0.14449 0.73408 1.3622 457.08 495.26 2.5448 1.1093 1.3109 210.82 0.63981 5.6074 0.0094130
-66.625 4.3046 0.0031548 47.738 47.908 0.36809 608.35 0.0016438 46.439 46.488 0.36122 1.3937 2.1483 1322.2 -0.0059760 263.28 0.14388 0.77404 1.2919 458.12 496.46 2.5400 1.1133 1.3154 211.18 0.63150 5.6341 0.0094939
-65.625 4.5551 0.0033223 49.952 50.132 0.37879 607.26 0.0016467 48.588 48.640 0.37160 1.3955 2.1518 1315.6 -0.0059464 259.93 0.14327 0.81570 1.2259 459.16 497.67 2.5353 1.1172 1.3200 211.54 0.62332 5.6608 0.0095750
-64.625 4.8173 0.0034968 52.172 52.362 0.38946 606.16 0.0016497 50.740 50.795 0.38195 1.3974 2.1553 1308.9 -0.0059164 256.65 0.14266 0.85910 1.1640 460.21 498.87 2.5307 1.1212 1.3246 211.89 0.61527 5.6874 0.0096564
-63.625 5.0915 0.0036784 54.398 54.599 0.40011 605.07 0.0016527 52.896 52.954 0.39226 1.3993 2.1588 1302.3 -0.0058861 253.42 0.14205 0.90429 1.1058 461.25 500.07 2.5262 1.1252 1.3293 212.24 0.60736 5.7140 0.0097382
-62.625 5.3781 0.0038672 56.630 56.842 0.41074 603.97 0.0016557 55.055 55.117 0.40254 1.4012 2.1624 1295.7 -0.0058553 250.26 0.14144 0.95134 1.0511 462.30 501.28 2.5218 1.1293 1.3340 212.58 0.59958 5.7406 0.0098201
-61.625 5.6774 0.0040635 58.868 59.092 0.42134 602.87 0.0016587 57.218 57.283 0.41279 1.4031 2.1660 1289.1 -0.0058241 247.16 0.14084 1.0003 0.99972 463.35 502.48 2.5175 1.1333 1.3387 212.92 0.59194 5.7672 0.0099024
-60.625 5.9899 0.0042674 61.113 61.349 0.43193 601.77 0.0016618 59.385 59.453 0.42301 1.4051 2.1697 1282.5 -0.0057925 244.12 0.14023 1.0512 0.95131 464.40 503.68 2.5133 1.1374 1.3435 213.26 0.58442 5.7938 0.0099850
-59.625 6.3160 0.0044792 63.364 63.612 0.44249 600.66 0.0016648 61.554 61.627 0.43320 1.4071 2.1734 1275.9 -0.0057605 241.13 0.13962 1.1041 0.90573 465.45 504.89 2.5091 1.1415 1.3483 213.58 0.57704 5.8203 0.010068
-58.625 6.6561 0.0046991 65.621 65.883 0.45304 599.55 0.0016679 63.728 63.805 0.44335 1.4091 2.1772 1269.3 -0.0057280 238.19 0.13902 1.1591 0.86277 466.50 506.09 2.5051 1.1457 1.3532 213.90 0.56978 5.8468 0.010151
-57.625 7.0107 0.0049272 67.884 68.161 0.46357 598.44 0.0016710 65.905 65.986 0.45348 1.4111 2.1810 1262.7 -0.0056951 235.31 0.13842 1.2161 0.82228 467.55 507.30 2.5011 1.1498 1.3581 214.22 0.56265 5.8733 0.010234
-56.625 7.3801 0.0051638 70.155 70.445 0.47408 597.33 0.0016741 68.086 68.172 0.46358 1.4132 2.1848 1256.1 -0.0056617 232.48 0.13781 1.2754 0.78408 468.60 508.50 2.4972 1.1540 1.3631 214.53 0.55564 5.8998 0.010318
-55.625 7.7648 0.0054091 72.432 72.738 0.48457 596.22 0.0016772 70.271 70.361 0.47364 1.4153 2.1887 1249.5 -0.0056279 229.69 0.13721 1.3369 0.74802 469.66 509.71 2.4934 1.1582 1.3681 214.84 0.54875 5.9263 0.010402
-54.625 8.1652 0.0056633 74.715 75.037 0.49504 595.10 0.0016804 72.460 72.554 0.48368 1.4174 2.1927 1242.9 -0.0055937 226.96 0.13661 1.4006 0.71396 470.72 510.91 2.4897 1.1624 1.3731 215.14 0.54199 5.9527 0.010486
-53.625 8.5819 0.0059267 77.006 77.344 0.50550 593.98 0.0016836 74.652 74.752 0.49369 1.4196 2.1967 1236.3 -0.0055589 224.27 0.13601 1.4667 0.68178 471.77 512.11 2.4860 1.1667 1.3782 215.43 0.53535 5.9792 0.010571
-52.625 9.0151 0.0061993 79.304 79.659 0.51594 592.86 0.0016867 76.849 76.954 0.50368 1.4218 2.2007 1229.8 -0.0055237 221.63 0.13541 1.5353 0.65136 472.83 513.32 2.4824 1.1710 1.3834 215.72 0.52882 6.0056 0.010656
-51.625 9.4655 0.0064816 81.608 81.981 0.52637 591.73 0.0016900 79.049 79.159 0.51363 1.4240 2.2048 1223.2 -0.0054880 219.04 0.13482 1.6062 0.62258 473.89 514.52 2.4789 1.1752 1.3886 216.00 0.52241 6.0320 0.010741
-50.625 9.9335 0.0067736 83.920 84.311 0.53678 590.60 0.0016932 81.253 81.369 0.52356 1.4262 2.2089 1216.6 -0.0054519 216.48 0.13422 1.6797 0.59534 474.95 515.73 2.4755 1.1796 1.3938 216.28 0.51612 6.0584 0.010827
-49.625 10.419 0.0070756 86.239 86.650 0.54718 589.47 0.0016964 83.462 83.584 0.53347 1.4285 2.2131 1210.1 -0.0054152 213.98 0.13363 1.7558 0.56954 476.01 516.93 2.4722 1.1839 1.3991 216.55 0.50994 6.0848 0.010913
-48.625 10.924 0.0073878 88.566 88.996 0.55757 588.34 0.0016997 85.674 85.802 0.54334 1.4308 2.2173 1203.5 -0.0053780 211.51 0.13303 1.8345 0.54510 477.07 518.13 2.4689 1.1883 1.4044 216.82 0.50387 6.1112 0.010999
-47.625 11.448 0.0077105 90.900 91.351 0.56794 587.20 0.0017030 87.891 88.025 0.55319 1.4331 2.2216 1196.9 -0.0053403 209.08 0.13244 1.9159 0.52194 478.14 519.33 2.4657 1.1927 1.4098 217.08 0.49792 6.1375 0.011085
-46.625 11.991 0.0080440 93.241 93.714 0.57830 586.06 0.0017063 90.111 90.252 0.56302 1.4354 2.2259 1190.4 -0.0053020 206.69 0.13185 2.0001 0.49997 479.20 520.53 2.4625 1.1971 1.4153 217.33 0.49207 6.1639 0.011172
-45.625 12.554 0.0083883 95.590 96.085 0.58865 584.92 0.0017096 92.336 92.484 0.57282 1.4378 2.2303 1183.8 -0.0052633 204.34 0.13126 2.0872 0.47912 480.27 521.74 2.4594 1.2015 1.4207 217.58 0.48633 6.1902 0.011259
-44.625 13.137 0.0087438 97.947 98.465 0.59898 583.77 0.0017130 94.565 94.720 0.58260 1.4402 2.2347 1177.3 -0.0052240 202.03 0.13067 2.1771 0.45933 481.33 522.94 2.4564 1.2060 1.4263 217.82 0.48069 6.2165 0.011347
-43.625 13.741 0.0091107 100.31 100.85 0.60931 582.62 0.0017164 96.799 96.961 0.59235 1.4426 2.2392 1170.7 -0.0051841 199.75 0.13008 2.2700 0.44053 482.40 524.14 2.4535 1.2104 1.4319 218.05 0.47516 6.2429 0.011435
-42.625 14.367 0.0094893 102.68 103.25 0.61962 581.47 0.0017198 99.036 99.207 0.60208 1.4450 2.2437 1164.2 -0.0051437 197.51 0.12949 2.3659 0.42267 483.46 525.33 2.4506 1.2149 1.4375 218.28 0.46973 6.2692 0.011523
-41.625 15.015 0.0098797 105.06 105.66 0.62993 580.32 0.0017232 101.28 101.46 0.61179 1.4475 2.2483 1157.7 -0.0051027 195.30 0.12891 2.4649 0.40569 484.53 526.53 2.4478 1.2195 1.4432 218.50 0.46440 6.2955 0.011612
-40.625 15.686 0.010282 107.45 108.07 0.64022 579.16 0.0017266 103.52 103.71 0.62147 1.4500 2.2529 1151.1 -0.0050611 193.13 0.12832 2.5671 0.38954 485.60 527.73 2.4450 1.2240 1.4489 218.72 0.45917 6.3218 0.011701
-39.625 16.380 0.010697 109.85 110.50 0.65051 578.00 0.0017301 105.78 105.97 0.63113 1.4525 2.2576 1144.6 -0.0050189 190.99 0.12774 2.6725 0.37418 486.67 528.93 2.4423 1.2286 1.4547 218.93 0.45403 6.3481 0.011790
-38.625 17.097 0.011125 112.26 112.93 0.66078 576.83 0.0017336 108.03 108.24 0.64077 1.4550 2.2623 1138.0 -0.0049761 188.88 0.12716 2.7813 0.35955 487.74 530.12 2.4397 1.2332 1.4606 219.13 0.44900 6.3744 0.011880
-37.625 17.838 0.011566 114.67 115.37 0.67105 575.66 0.0017371 110.29 110.51 0.65039 1.4576 2.2671 1131.5 -0.0049327 186.81 0.12658 2.8934 0.34562 488.81 531.32 2.4371 1.2378 1.4665 219.33 0.44405 6.4007 0.011970
-36.625 18.604 0.012019 117.09 117.82 0.68132 574.49 0.0017407 112.56 112.78 0.65999 1.4602 2.2719 1125.0 -0.0048887 184.76 0.12600 3.0089 0.33235 489.88 532.51 2.4346 1.2424 1.4724 219.52 0.43920 6.4270 0.012060
-35.625 19.395 0.012486 119.52 120.29 0.69157 573.32 0.0017442 114.83 115.06 0.66956 1.4628 2.2768 1118.5 -0.0048440 182.75 0.12542 3.1280 0.31969 490.95 533.70 2.4321 1.2471 1.4784 219.70 0.43444 6.4533 0.012151
-34.625 20.212 0.012967 121.96 122.76 0.70182 572.14 0.0017478 117.10 117.34 0.67912 1.4654 2.2818 1111.9 -0.0047987 180.76 0.12485 3.2506 0.30763 492.02 534.89 2.4297 1.2517 1.4845 219.88 0.42977 6.4797 0.012243
-33.625 21.056 0.013462 124.41 125.24 0.71206 570.96 0.0017514 119.38 119.63 0.68865 1.4681 2.2868 1105.4 -0.0047527 178.80 0.12427 3.3770 0.29612 493.09 536.08 2.4273 1.2564 1.4906 220.05 0.42519 6.5060 0.012334
-32.625 21.926 0.013971 126.87 127.73 0.72229 569.77 0.0017551 121.66 121.93 0.69817 1.4708 2.2918 1098.9 -0.0047061 176.87 0.12370 3.5071 0.28514 494.17 537.27 2.4250 1.2611 1.4968 220.21 0.42070 6.5323 0.012426
-31.625 22.823 0.014495 129.33 130.23 0.73253 568.58 0.0017588 123.95 124.23 0.70767 1.4735 2.2970 1092.3 -0.0046587 174.97 0.12313 3.6410 0.27465 495.24 538.46 2.4227 1.2659 1.5031 220.36 0.41629 6.5587 0.012519
-30.625 23.749 0.015033 131.81 132.74 0.74275 567.39 0.0017625 126.24 126.53 0.71714 1.4762 2.3021 1085.8 -0.0046107 173.09 0.12256 3.7787 0.26464 496.31 539.64 2.4205 1.2706 1.5094 220.51 0.41196 6.5850 0.012612
-29.625 24.703 0.015586 134.29 135.26 0.75297 566.19 0.0017662 128.54 128.84 0.72660 1.4790 2.3074 1079.3 -0.0045619 171.24 0.12200 3.9205 0.25507 497.38 540.83 2.4184 1.2754 1.5157 220.65 0.40772 6.6114 0.012706
-28.625 25.687 0.016155 136.78 137.80 0.76319 564.99 0.0017699 130.84 131.16 0.73604 1.4818 2.3126 1072.8 -0.0045124 169.42 0.12143 4.0663 0.24592 498.46 542.01 2.4162 1.2802 1.5222 220.79 0.40356 6.6378 0.012800
-27.625 26.700 0.016740 139.29 140.34 0.77340 563.78 0.0017737 133.15 133.48 0.74547 1.4846 2.3180 1066.2 -0.0044621 167.62 0.12087 4.2163 0.23717 499.53 543.19 2.4142 1.2850 1.5286 220.91 0.39947 6.6642 0.012894
-26.625 27.743 0.017340 141.80 142.89 0.78361 562.57 0.0017775 135.47 135.81 0.75487 1.4874 2.3234 1059.7 -0.0044111 165.84 0.12031 4.3705 0.22881 500.60 544.37 2.4122 1.2899 1.5352 221.03 0.39547 6.6906 0.012989
-25.625 28.817 0.017957 144.32 145.45 0.79381 561.36 0.0017814 137.78 138.14 0.76426 1.4902 2.3289 1053.2 -0.0043593 164.09 0.11975 4.5290 0.22080 501.68 545.55 2.4102 1.2947 1.5418 221.14 0.39154 6.7171 0.013084
-24.625 29.923 0.018590 146.85 148.03 0.80402 560.14 0.0017853 140.11 140.48 0.77363 1.4931 2.3344 1046.7 -0.0043067 162.36 0.11919 4.6918 0.21314 502.75 546.72 2.4083 1.2996 1.5485 221.25 0.38768 6.7436 0.013180
-23.625 31.061 0.019240 149.39 150.61 0.81422 558.92 0.0017892 142.44 142.82 0.78298 1.4960 2.3400 1040.1 -0.0042533 160.65 0.11863 4.8592 0.20580 503.82 547.90 2.4064 1.3045 1.5552 221.35 0.38391 6.7701 0.013277
-22.625 32.232 0.019907 151.94 153.21 0.82442 557.69 0.0017931 144.77 145.17 0.79232 1.4990 2.3457 1033.6 -0.0041990 158.97 0.11807 5.0311 0.19877 504.90 549.07 2.4045 1.3095 1.5621 221.44 0.38020 6.7967 0.013374
-21.625 33.435 0.020592 154.50 155.82 0.83461 556.46 0.0017971 147.11 147.52 0.80164 1.5019 2.3514 1027.1 -0.0041439 157.30 0.11752 5.2076 0.19203 505.97 550.24 2.4027 1.3144 1.5690 221.52 0.37656 6.8232 0.013471
-20.625 34.673 0.021295 157.07 158.43 0.84481 555.23 0.0018011 149.45 149.88 0.81095 1.5049 2.3572 1020.6 -0.0040879 155.66 0.11697 5.3889 0.18557 507.04 551.40 2.4010 1.3194 1.5759 221.59 0.37300 6.8499 0.013569
-19.625 35.946 0.022015 159.65 161.06 0.85501 553.99 0.0018051 151.80 152.25 0.82024 1.5079 2.3630 1014.0 -0.0040311 154.04 0.11642 5.5750 0.17937 508.11 552.57 2.3992 1.3244 1.5829 221.66 0.36950 6.8765 0.013668
-18.625 37.253 0.022754 162.24 163.71 0.86520 552.74 0.0018092 154.16 154.62 0.82952 1.5109 2.3689 1007.5 -0.0039733 152.44 0.11587 5.7660 0.17343 509.19 553.73 2.3976 1.3294 1.5901 221.72 0.36608 6.9032 0.013767
-17.625 38.596 0.023512 164.84 166.36 0.87539 551.49 0.0018133 156.52 157.00 0.83878 1.5140 2.3749 1001.0 -0.0039145 150.86 0.11532 5.9621 0.16773 510.26 554.89 2.3959 1.3345 1.5972 221.77 0.36272 6.9300 0.013867
-16.625 39.976 0.024289 167.45 169.02 0.88559 550.24 0.0018174 158.89 159.39 0.84803 1.5171 2.3810 994.44 -0.0038549 149.29 0.11478 6.1632 0.16225 511.33 556.05 2.3943 1.3395 1.6045 221.81 0.35942 6.9568 0.013968
-15.625 41.392 0.025086 170.07 171.70 0.89578 548.98 0.0018216 161.26 161.78 0.85726 1.5202 2.3871 987.91 -0.0037942 147.75 0.11423 6.3696 0.15700 512.40 557.20 2.3927 1.3446 1.6119 221.85 0.35619 6.9836 0.014069
-14.625 42.846 0.025902 172.70 174.39 0.90598 547.71 0.0018258 163.64 164.18 0.86649 1.5233 2.3933 981.37 -0.0037325 146.22 0.11369 6.5812 0.15195 513.47 558.36 2.3912 1.3497 1.6193 221.87 0.35302 7.0105 0.014170
-13.625 44.338 0.026739 175.34 177.09 0.91618 546.44 0.0018300 166.02 166.58 0.87569 1.5264 2.3996 974.83 -0.0036698 144.72 0.11315 6.7983 0.14710 514.54 559.51 2.3897 1.3549 1.6268 221.89 0.34992 7.0375 0.014273
-12.625 45.870 0.027596 177.99 179.80 0.92638 545.17 0.0018343 168.41 168.99 0.88489 1.5296 2.4059 968.29 -0.0036061 143.23 0.11261 7.0208 0.14243 515.61 560.65 2.3883 1.3600 1.6344 221.90 0.34688 7.0646 0.014376
-11.625 47.440 0.028474 180.65 182.52 0.93658 543.89 0.0018386 170.81 171.41 0.89407 1.5328 2.4124 961.75 -0.0035413 141.76 0.11208 7.2490 0.13795 516.68 561.80 2.3868 1.3652 1.6421 221.91 0.34389 7.0917 0.014479
-10.625 49.051 0.029374 183.33 185.26 0.94678 542.60 0.0018430 173.21 173.83 0.90324 1.5360 2.4189 955.20 -0.0034753 140.30 0.11154 7.4829 0.13364 517.75 562.94 2.3854 1.3704 1.6498 221.90 0.34097 7.1188 0.014584
-9.6250 50.703 0.030295 186.01 188.01 0.95698 541.31 0.0018474 175.61 176.26 0.91240 1.5393 2.4255 948.65 -0.0034082 138.86 0.11101 7.7226 0.12949 518.81 564.08 2.3841 1.3757 1.6577 221.88 0.33810 7.1461 0.014689
-8.6250 52.396 0.031238 188.71 190.77 0.96719 540.02 0.0018518 178.03 178.70 0.92154 1.5426 2.4321 942.10 -0.0033400 137.44 0.11048 7.9683 0.12550 519.88 565.21 2.3827 1.3809 1.6657 221.86 0.33529 7.1734 0.014795
-7.6250 54.131 0.032204 191.41 193.55 0.97740 538.72 0.0018563 180.45 181.14 0.93068 1.5459 2.4389 935.55 -0.0032705 136.03 0.10995 8.2200 0.12165 520.94 566.35 2.3814 1.3862 1.6737 221.83 0.33254 7.2008 0.014902
-6.6250 55.909 0.033193 194.13 196.33 0.98761 537.41 0.0018608 182.87 183.59 0.93980 1.5492 2.4457 928.99 -0.0031998 134.64 0.10942 8.4779 0.11795 522.01 567.48 2.3801 1.3915 1.6819 221.79 0.32984 7.2284 0.015009
-5.6250 57.730 0.034205 196.86 199.13 0.99783 536.10 0.0018653 185.30 186.05 0.94892 1.5525 2.4526 922.43 -0.0031279 133.27 0.10889 8.7420 0.11439 523.07 568.60 2.3789 1.3969 1.6902 221.74 0.32720 7.2560 0.015117
-4.6250 59.595 0.035241 199.60 201.95 1.0081 534.78 0.0018699 187.74 188.51 0.95802 1.5559 2.4596 915.87 -0.0030546 131.91 0.10837 9.0126 0.11096 524.13 569.72 2.3777 1.4022 1.6985 221.68 0.32461 7.2837 0.015226
-3.6250 61.505 0.036301 202.35 204.77 1.0183 533.45 0.0018746 190.19 190.98 0.96711 1.5593 2.4667 909.30 -0.0029800 130.56 0.10785 9.2896 0.10765 525.19 570.84 2.3765 1.4076 1.7070 221.62 0.32207 7.3115 0.015336
-2.6250 63.461 0.037386 205.11 207.61 1.0285 532.12 0.0018793 192.64 193.46 0.97620 1.5627 2.4739 902.73 -0.0029041 129.23 0.10733 9.5733 0.10446 526.25 571.96 2.3753 1.4131 1.7156 221.54 0.31958 7.3394 0.015447
-1.6250 65.462 0.038496 207.88 210.46 1.0387 530.78 0.0018840 195.10 195.95 0.98527 1.5662 2.4811 896.16 -0.0028267 127.91 0.10681 9.8638 0.10138 527.31 573.07 2.3742 1.4185 1.7243 221.45 0.31715 7.3674 0.015559
-0.62500 67.510 0.039632 210.67 213.33 1.0490 529.44 0.0018888 197.56 198.44 0.99434 1.5696 2.4885 889.58 -0.0027478 126.61 0.10629 10.161 0.098414 528.37 574.18 2.3731 1.4240 1.7331 221.36 0.31476 7.3956 0.015671
0.37500 69.606 0.040794 213.47 216.21 1.0592 528.09 0.0018936 200.03 200.94 1.0034 1.5731 2.4960 883.00 -0.0026675 125.32 0.10578 10.466 0.095552 529.42 575.28 2.3720 1.4295 1.7421 221.26 0.31242 7.4239 0.015785
1.3750 71.749 0.041982 216.28 219.10 1.0695 526.73 0.0018985 202.51 203.45 1.0124 1.5767 2.5035 876.42 -0.0025856 124.04 0.10527 10.777 0.092790 530.48 576.38 2.3709 1.4350 1.7512 221.14 0.31013 7.4523 0.015899
2.3750 73.941 0.043197 219.10 222.01 1.0797 525.37 0.0019034 204.99 205.96 1.0215 1.5802 2.5112 869.83 -0.0025022 122.78 0.10476 11.096 0.090123 531.53 577.47 2.3699 1.4406 1.7604 221.02 0.30789 7.4808 0.016015
3.3750 76.183 0.044440 221.93 224.93 1.0900 523.99 0.0019084 207.48 208.48 1.0305 1.5838 2.5190 863.24 -0.0024171 121.53 0.10425 11.422 0.087549 532.58 578.56 2.3688 1.4462 1.7697 220.89 0.30569 7.5095 0.016131
4.3750 78.475 0.045711 224.77 227.87 1.1003 522.62 0.0019134 209.98 211.01 1.0395 1.5874 2.5268 856.64 -0.0023303 120.29 0.10374 11.756 0.085062 533.63 579.65 2.3678 1.4518 1.7792 220.75 0.30354 7.5384 0.016249
5.3750 80.817 0.047011 227.63 230.81 1.1105 521.23 0.0019185 212.48 213.55 1.0486 1.5910 2.5348 850.04 -0.0022417 119.06 0.10324 12.098 0.082660 534.67 580.73 2.3669 1.4575 1.7888 220.60 0.30144 7.5674 0.016368
6.3750 83.211 0.048340 230.50 233.78 1.1208 519.84 0.0019237 215.00 216.10 1.0576 1.5946 2.5429 843.43 -0.0021514 117.85 0.10273 12.447 0.080340 535.72 581.81 2.3659 1.4632 1.7986 220.44 0.29938 7.5966 0.016487
7.3750 85.657 0.049699 233.38 236.75 1.1311 518.44 0.0019289 217.51 218.65 1.0666 1.5983 2.5511 836.82 -0.0020593 116.65 0.10223 12.805 0.078096 536.76 582.88 2.3650 1.4689 1.8085 220.27 0.29736 7.6259 0.016608
8.3750 88.156 0.051088 236.27 239.75 1.1414 517.03 0.0019341 220.04 221.22 1.0756 1.6020 2.5595 830.20 -0.0019652 115.46 0.10173 13.170 0.075928 537.80 583.95 2.3640 1.4746 1.8186 220.08 0.29538 7.6555 0.016730
9.3750 90.708 0.052508 239.18 242.75 1.1517 515.62 0.0019394 222.57 223.79 1.0846 1.6057 2.5679 823.58 -0.0018691 114.28 0.10124 13.545 0.073830 538.84 585.01 2.3631 1.4804 1.8288 219.89 0.29345 7.6852 0.016853
10.375 93.315 0.053960 242.10 245.77 1.1620 514.19 0.0019448 225.11 226.37 1.0936 1.6095 2.5765 816.96 -0.0017710 113.11 0.10074 13.927 0.071802 539.87 586.07 2.3622 1.4863 1.8392 219.69 0.29156 7.7151 0.016978
11.375 95.977 0.055444 245.03 248.81 1.1723 512.76 0.0019502 227.66 228.95 1.1025 1.6132 2.5852 810.32 -0.0016708 111.95 0.10025 14.319 0.069840 540.90 587.12 2.3614 1.4921 1.8498 219.48 0.28971 7.7452 0.017103
12.375 98.694 0.056961 247.97 251.86 1.1827 511.32 0.0019557 230.22 231.55 1.1115 1.6170 2.5940 803.68 -0.0015685 110.80 0.099756 14.719 0.067941 541.93 588.17 2.3605 1.4980 1.8605 219.26 0.28790 7.7756 0.017230
13.375 101.47 0.058512 250.93 254.93 1.1930 509.87 0.0019613 232.78 234.15 1.1205 1.6208 2.6030 797.04 -0.0014639 109.67 0.099267 15.128 0.066103 542.96 589.21 2.3597 1.5040 1.8715 219.03 0.28612 7.8061 0.017359
14.375 104.30 0.060097 253.90 258.01 1.2034 508.42 0.0019669 235.35 236.77 1.1295 1.6247 2.6121 790.39 -0.0013569 108.54 0.098779 15.547 0.064323 543.99 590.24 2.3588 1.5099 1.8826 218.79 0.28439 7.8369 0.017488
15.375 107.19 0.061717 256.88 261.11 1.2137 506.95 0.0019726 237.93 239.39 1.1384 1.6286 2.6214 783.73 -0.0012476 107.43 0.098294 15.974 0.062600 545.01 591.27 2.3580 1.5159 1.8940 218.53 0.28270 7.8680 0.017619
16.375 110.13 0.063372 259.88 264.22 1.2241 505.48 0.0019783 240.52 242.02 1.1474 1.6324 2.6308 777.07 -0.0011357 106.32 0.097810 16.412 0.060931 546.03 592.29 2.3572 1.5220 1.9055 218.27 0.28104 7.8993 0.017752
17.375 113.14 0.065065 262.89 267.35 1.2344 504.00 0.0019841 243.11 244.66 1.1564 1.6364 2.6403 770.40 -0.0010213 105.22 0.097328 16.859 0.059314 547.04 593.31 2.3564 1.5281 1.9172 217.99 0.27942 7.9308 0.017886
18.375 116.21 0.066794 265.91 270.49 1.2448 502.50 0.0019900 245.72 247.31 1.1653 1.6403 2.6501 763.72 -0.00090422 104.14 0.096848 17.317 0.057747 548.05 594.32 2.3557 1.5342 1.9292 217.71 0.27783 7.9626 0.018021
19.375 119.33 0.068562 268.95 273.65 1.2552 501.00 0.0019960 248.33 249.97 1.1743 1.6443 2.6599 757.04 -0.00078435 103.06 0.096371 17.785 0.056228 549.06 595.33 2.3549 1.5404 1.9414 217.41 0.27628 7.9947 0.018159
20.375 122.52 0.070369 271.99 276.82 1.2656 499.49 0.0020020 250.95 252.64 1.1832 1.6483 2.6700 750.35 -0.00066161 101.99 0.095895 18.263 0.054756 550.07 596.32 2.3541 1.5466 1.9538 217.10 0.27477 8.0272 0.018297
21.375 125.77 0.072216 275.06 280.01 1.2761 497.97 0.0020082 253.57 255.32 1.1922 1.6523 2.6802 743.64 -0.00053589 100.93 0.095420 18.752 0.053328 551.07 597.31 2.3534 1.5528 1.9665 216.78 0.27329 8.0599 0.018438
22.375 129.08 0.074104 278.13 283.22 1.2865 496.43 0.0020144 256.21 258.00 1.2012 1.6563 2.6906 736.94 -0.00040708 99.877 0.094948 19.252 0.051943 552.07 598.30 2.3526 1.5591 1.9795 216.45 0.27184 8.0929 0.018580
23.375 132.46 0.076033 281.22 286.44 1.2969 494.89 0.0020206 258.86 260.70 1.2101 1.6604 2.7012 730.22 -0.00027505 98.834 0.094478 19.763 0.050600 553.06 599.27 2.3519 1.5655 1.9927 216.11 0.27043 8.1263 0.018724
24.375 135.90 0.078005 284.33 289.68 1.3074 493.34 0.0020270 261.51 263.41 1.2191 1.6645 2.7120 723.49 -0.00013968 97.800 0.094009 20.285 0.049297 554.05 600.24 2.3512 1.5718 2.0061 215.75 0.26906 8.1600 0.018870
25.375 139.41 0.080021 287.45 292.94 1.3178 491.77 0.0020335 264.17 266.13 1.2280 1.6686 2.7230 716.76 -8.3775e-07 96.773 0.093543 20.820 0.048032 555.03 601.20 2.3504 1.5783 2.0199 215.39 0.26771 8.1941 0.019017
26.375 142.98 0.082082 290.58 296.21 1.3283 490.20 0.0020400 266.84 268.85 1.2370 1.6728 2.7342 710.01 0.00014161 95.755 0.093078 21.366 0.046804 556.01 602.15 2.3497 1.5847 2.0340 215.01 0.26640 8.2286 0.019167
27.375 146.62 0.084189 293.73 299.50 1.3388 488.61 0.0020466 269.52 271.59 1.2459 1.6770 2.7456 703.26 0.00028782 94.745 0.092615 21.924 0.045612 556.99 603.10 2.3490 1.5913 2.0484 214.62 0.26512 8.2634 0.019319
28.375 150.33 0.086342 296.89 302.81 1.3493 487.01 0.0020533 272.21 274.34 1.2549 1.6812 2.7573 696.49 0.00043793 93.742 0.092154 22.495 0.044454 557.96 604.03 2.3483 1.5978 2.0631 214.21 0.26387 8.2987 0.019472
29.375 154.10 0.088545 300.06 306.13 1.3598 485.40 0.0020601 274.91 277.10 1.2638 1.6854 2.7691 689.72 0.00059212 92.747 0.091695 23.079 0.043329 558.92 604.96 2.3476 1.6044 2.0781 213.80 0.26265 8.3344 0.019628
30.375 157.94 0.090796 303.25 309.47 1.3703 483.78 0.0020671 277.62 279.87 1.2728 1.6897 2.7813 682.93 0.00075055 91.760 0.091238 23.676 0.042237 559.88 605.88 2.3469 1.6111 2.0935 213.37 0.26147 8.3705 0.019786
31.375 161.86 0.093098 306.46 312.83 1.3809 482.15 0.0020741 280.34 282.66 1.2818 1.6939 2.7936 676.13 0.00091340 90.779 0.090782 24.287 0.041175 560.84 606.79 2.3462 1.6178 2.1092 212.93 0.26031 8.4071 0.019947
32.375 165.84 0.095453 309.67 316.21 1.3914 480.50 0.0020812 283.07 285.45 1.2908 1.6983 2.8063 669.32 0.0010809 89.806 0.090328 24.911 0.040143 561.79 607.69 2.3455 1.6246 2.1254 212.48 0.25919 8.4442 0.020110
33.375 169.90 0.097861 312.91 319.60 1.4020 478.83 0.0020884 285.81 288.26 1.2997 1.7026 2.8192 662.50 0.0012532 88.840 0.089876 25.549 0.039140 562.73 608.58 2.3448 1.6314 2.1419 212.01 0.25809 8.4818 0.020275
34.375 174.02 0.10032 316.16 323.01 1.4126 477.16 0.0020957 288.56 291.07 1.3087 1.7070 2.8324 655.67 0.0014305 87.880 0.089426 26.202 0.038164 563.67 609.46 2.3440 1.6383 2.1589 211.53 0.25702 8.5199 0.020443
35.375 178.22 0.10284 319.42 326.44 1.4232 475.47 0.0021032 291.32 293.90 1.3177 1.7114 2.8459 648.82 0.0016131 86.927 0.088977 26.870 0.037216 564.60 610.33 2.3433 1.6452 2.1763 211.04 0.25599 8.5586 0.020613
36.375 182.50 0.10542 322.70 329.89 1.4338 473.77 0.0021107 294.09 296.74 1.3267 1.7158 2.8597 641.96 0.0018012 85.980 0.088531 27.553 0.036293 565.52 611.19 2.3426 1.6522 2.1942 210.53 0.25498 8.5978 0.020786
37.375 186.84 0.10806 326.00 333.36 1.4444 472.05 0.0021184 296.87 299.60 1.3357 1.7203 2.8739 635.08 0.0019950 85.040 0.088085 28.252 0.035395 566.44 612.04 2.3419 1.6592 2.2125 210.01 0.25400 8.6376 0.020962
38.375 191.27 0.11076 329.31 336.84 1.4551 470.31 0.0021262 299.66 302.46 1.3447 1.7248 2.8884 628.19 0.0021949 84.105 0.087642 28.967 0.034522 567.35 612.88 2.3411 1.6663 2.2314 209.47 0.25305 8.6780 0.021141
39.375 195.77 0.11352 332.63 340.35 1.4657 468.56 0.0021342 302.46 305.34 1.3537 1.7293 2.9033 621.29 0.0024011 83.177 0.087200 29.699 0.033671 568.26 613.70 2.3404 1.6734 2.2508 208.92 0.25213 8.7190 0.021323
40.375 200.34 0.11635 335.98 343.87 1.4764 466.80 0.0021423 305.27 308.23 1.3627 1.7339 2.9185 614.37 0.0026140 82.254 0.086760 30.447 0.032844 569.15 614.52 2.3396 1.6806 2.2708 208.36 0.25123 8.7608 0.021508
41.375 205.00 0.11924 339.33 347.41 1.4871 465.01 0.0021505 308.10 311.14 1.3718 1.7385 2.9342 607.43 0.0028338 81.338 0.086322 31.214 0.032037 570.04 615.32 2.3389 1.6879 2.2913 207.78 0.25037 8.8032 0.021696
42.375 209.73 0.12221 342.71 350.97 1.4978 463.21 0.0021588 310.94 314.06 1.3808 1.7432 2.9502 600.47 0.0030609 80.426 0.085885 31.998 0.031252 570.92 616.11 2.3381 1.6952 2.3125 207.19 0.24953 8.8463 0.021888
43.375 214.54 0.12524 346.10 354.55 1.5085 461.40 0.0021673 313.79 316.99 1.3899 1.7478 2.9667 593.50 0.0032957 79.520 0.085449 32.800 0.030488 571.79 616.88 2.3373 1.7027 2.3344 206.58 0.24871 8.8902 0.022084
44.375 219.43 0.12836 349.51 358.15 1.5193 459.56 0.0021760 316.65 319.94 1.3989 1.7525 2.9837 586.51 0.0035386 78.619 0.085015 33.622 0.029742 572.65 617.65 2.3365 1.7101 2.3569 205.96 0.24793 8.9349 0.022283
45.375 224.41 0.13154 352.93 361.77 1.5300 457.71 0.0021848 319.52 322.90 1.4080 1.7573 3.0012 579.50 0.0037900 77.723 0.084583 34.463 0.029016 573.50 618.40 2.3357 1.7177 2.3802 205.32 0.24717 8.9805 0.022485
46.375 229.46 0.13481 356.37 365.41 1.5408 455.83 0.0021938 322.41 325.88 1.4171 1.7621 3.0192 572.46 0.0040504 76.832 0.084152 35.325 0.028308 574.34 619.13 2.3349 1.7253 2.4042 204.67 0.24644 9.0269 0.022692
47.375 234.60 0.13816 359.83 369.07 1.5516 453.94 0.0022029 325.31 328.87 1.4262 1.7669 3.0377 565.41 0.0043202 75.946 0.083723 36.208 0.027618 575.17 619.85 2.3340 1.7329 2.4291 204.00 0.24573 9.0742 0.022903
48.375 239.83 0.14159 363.30 372.75 1.5625 452.03 0.0022123 328.22 331.88 1.4353 1.7718 3.0569 558.34 0.0046000 75.064 0.083295 37.112 0.026945 576.00 620.55 2.3332 1.7407 2.4548 203.31 0.24505 9.1224 0.023119
49.375 245.13 0.14512 366.80 376.45 1.5733 450.09 0.0022218 331.15 334.90 1.4445 1.7767 3.0766 551.24 0.0048904 74.186 0.082868 38.039 0.026289 576.81 621.24 2.3323 1.7485 2.4815 202.61 0.24440 9.1716 0.023339
50.375 250.53 0.14873 370.31 380.18 1.5842 448.13 0.0022315 334.09 337.94 1.4536 1.7817 3.0970 544.13 0.0051920 73.313 0.082442 38.989 0.025648 577.61 621.91 2.3314 1.7564 2.5092 201.89 0.24377 9.2219 0.023564
51.375 256.01 0.15244 373.83 383.92 1.5951 446.15 0.0022414 337.04 341.00 1.4628 1.7867 3.1181 536.98 0.0055054 72.443 0.082018 39.962 0.025024 578.39 622.56 2.3304 1.7644 2.5379 201.16 0.24317 9.2733 0.023794
52.375 261.57 0.15625 377.38 387.69 1.6060 444.15 0.0022515 340.01 344.07 1.4720 1.7918 3.1400 529.82 0.0058313 71.577 0.081595 40.961 0.024414 579.17 623.20 2.3295 1.7724 2.5677 200.41 0.24260 9.3258 0.024029
53.375 267.23 0.16016 380.95 391.47 1.6169 442.12 0.0022618 343.00 347.17 1.4812 1.7969 3.1627 522.62 0.0061705 70.715 0.081174 41.985 0.023818 579.93 623.81 2.3285 1.7805 2.5987 199.63 0.24205 9.3795 0.024270
54.375 272.97 0.16418 384.53 395.28 1.6279 440.06 0.0022724 346.00 350.28 1.4904 1.8021 3.1862 515.40 0.0065239 69.856 0.080753 43.036 0.023237 580.68 624.41 2.3274 1.7887 2.6310 198.85 0.24154 9.4344 0.024516
55.375 278.81 0.16831 388.13 399.11 1.6388 437.98 0.0022832 349.02 353.40 1.4997 1.8073 3.2106 508.15 0.0068923 69.001 0.080334 44.114 0.022669 581.41 624.99 2.3264 1.7969 2.6646 198.04 0.24105 9.4907 0.024769
56.375 284.74 0.17256 391.75 402.97 1.6498 435.87 0.0022943 352.05 356.55 1.5090 1.8126 3.2360 500.87 0.0072767 68.148 0.079915 45.221 0.022114 582.13 625.54 2.3253 1.8052 2.6998 197.22 0.24059 9.5484 0.025028
57.375 290.76 0.17693 395.39 406.85 1.6609 433.73 0.0023056 355.10 359.72 1.5183 1.8179 3.2624 493.56 0.0076782 67.299 0.079498 46.358 0.021571 582.83 626.07 2.3241 1.8136 2.7365 196.37 0.24016 9.6075 0.025294
58.375 296.87 0.18143 399.05 410.75 1.6719 431.56 0.0023172 358.17 362.91 1.5276 1.8233 3.2900 486.22 0.0080980 66.451 0.079082 47.525 0.021041 583.52 626.58 2.3230 1.8220 2.7749 195.51 0.23976 9.6682 0.025568
59.375 303.08 0.18606 402.73 414.67 1.6830 429.36 0.0023290 361.25 366.12 1.5370 1.8288 3.3188 478.84 0.0085373 65.606 0.078666 48.726 0.020523 584.18 627.07 2.3218 1.8305 2.8152 194.63 0.23939 9.7305 0.025849
60.375 309.38 0.19084 406.43 418.62 1.6941 427.13 0.0023412 364.36 369.35 1.5464 1.8343 3.3489 471.43 0.0089976 64.763 0.078251 49.960 0.020016 584.83 627.53 2.3205 1.8391 2.8576 193.73 0.23905 9.7945 0.026138
61.375 315.78 0.19576 410.15 422.59 1.7053 424.87 0.0023537 367.48 372.60 1.5558 1.8400 3.3805 463.99 0.0094803 63.922 0.077838 51.229 0.019520 585.46 627.96 2.3192 1.8479 2.9022 192.82 0.23873 9.8603 0.026436
62.375 322.28 0.20084 413.89 426.59 1.7164 422.56 0.0023665 370.62 375.88 1.5653 1.8457 3.4136 456.50 0.0099871 63.083 0.077425 52.535 0.019035 586.07 628.37 2.3178 1.8567 2.9492 191.88 0.23845 9.9281 0.026744
63.375 328.88 0.20609 417.66 430.62 1.7276 420.22 0.0023797 373.79 379.18 1.5748 1.8514 3.4483 448.97 0.010520 62.244 0.077012 53.879 0.018560 586.66 628.74 2.3164 1.8656 2.9989 190.92 0.23819 9.9979 0.027061
64.375 335.58 0.21151 421.44 434.66 1.7389 417.85 0.0023932 376.97 382.51 1.5844 1.8573 3.4850 441.40 0.011081 61.407 0.076600 55.265 0.018095 587.22 629.09 2.3149 1.8747 3.0517 189.95 0.23796 10.070 0.027389
65.375 342.38 0.21712 425.25 438.74 1.7501 415.42 0.0024072 380.18 385.86 1.5939 1.8633 3.5236 433.79 0.011672 60.570 0.076189 56.692 0.017639 587.76 629.40 2.3133 1.8839 3.1077 188.95 0.23775 10.144 0.027729
66.375 349.28 0.22292 429.08 442.84 1.7614 412.96 0.0024215 383.41 389.25 1.6036 1.8693 3.5645 426.12 0.012296 59.733 0.075779 58.165 0.017193 588.28 629.68 2.3117 1.8933 3.1674 187.93 0.23757 10.221 0.028080
67.375 356.28 0.22893 432.94 446.97 1.7728 410.45 0.0024363 386.67 392.65 1.6133 1.8755 3.6078 418.41 0.012956 58.897 0.075368 59.684 0.016755 588.76 629.92 2.3100 1.9030 3.2311 186.89 0.23740 10.300 0.028446
68.375 363.40 0.23516 436.81 451.13 1.7841 407.89 0.0024516 389.95 396.09 1.6230 1.8818 3.6537 410.64 0.013655 58.059 0.074959 61.253 0.016326 589.22 630.13 2.3082 1.9129 3.2994 185.83 0.23724 10.382 0.028825
69.375 370.61 0.24163 440.71 455.32 1.7955 405.28 0.0024674 393.26 399.57 1.6328 1.8882 3.7027 402.81 0.014396 57.221 0.074549 62.875 0.015905 589.65 630.29 2.3064 1.9231 3.3727 184.74 0.23710 10.467 0.029221
70.375 377.94 0.24836 444.64 459.53 1.8070 402.62 0.0024838 396.60 403.07 1.6426 1.8947 3.7550 394.92 0.015183 56.381 0.074141 64.552 0.015491 590.04 630.41 2.3044 1.9336 3.4518 183.63 0.23697 10.555 0.029633
71.375 385.37 0.25535 448.59 463.78 1.8185 399.89 0.0025007 399.96 406.61 1.6525 1.9014 3.8109 386.97 0.016021 55.540 0.073732 66.288 0.015086 590.40 630.49 2.3024 1.9444 3.5371 182.50 0.23684 10.647 0.030064
72.375 392.92 0.26264 452.57 468.05 1.8300 397.11 0.0025182 403.36 410.18 1.6625 1.9083 3.8711 378.95 0.016915 54.696 0.073324 68.087 0.014687 590.73 630.51 2.3002 1.9556 3.6297 181.34 0.23671 10.743 0.030515
73.375 400.57 0.27025 456.58 472.36 1.8416 394.26 0.0025364 406.79 413.80 1.6726 1.9153 3.9359 370.85 0.017871 53.848 0.072917 69.953 0.014295 591.01 630.49 2.2979 1.9673 3.7303 180.16 0.23658 10.842 0.030989
74.375 408.34 0.27820 460.61 476.70 1.8532 391.34 0.0025553 410.26 417.45 1.6827 1.9226 4.0060 362.67 0.018894 52.997 0.072510 71.890 0.013910 591.25 630.41 2.2955 1.9793 3.8401 178.95 0.23643 10.946 0.031488
75.375 416.23 0.28653 464.67 481.07 1.8649 388.34 0.0025751 413.76 421.15 1.6930 1.9301 4.0822 354.41 0.019993 52.142 0.072104 73.904 0.013531 591.44 630.27 2.2930 1.9919 3.9604 177.71 0.23627 11.054 0.032014
76.375 424.23 0.29527 468.77 485.48 1.8766 385.26 0.0025957 417.31 424.90 1.7033 1.9378 4.1654 346.06 0.021177 51.281 0.071699 76.001 0.013158 591.59 630.07 2.2903 2.0050 4.0927 176.44 0.23609 11.168 0.032570
77.375 432.35 0.30445 472.89 489.92 1.8884 382.09 0.0026172 420.89 428.70 1.7137 1.9459 4.2565 337.60 0.022455 50.414 0.071295 78.187 0.012790 591.68 629.80 2.2874 2.0186 4.2389 175.15 0.23588 11.287 0.033161
78.375 440.59 0.31413 477.04 494.40 1.9002 378.83 0.0026397 424.53 432.54 1.7243 1.9543 4.3570 329.05 0.023838 49.539 0.070893 80.469 0.012427 591.71 629.46 2.2844 2.0328 4.4012 173.82 0.23563 11.412 0.033789
79.375 448.95 0.32436 481.23 498.92 1.9121 375.46 0.0026634 428.21 436.45 1.7349 1.9631 4.4684 320.38 0.025341 48.657 0.070494 82.856 0.012069 591.68 629.04 2.2812 2.0475 4.5824 172.46 0.23535 11.544 0.034461
80.375 457.44 0.33521 485.46 503.48 1.9241 371.97 0.0026884 431.94 440.42 1.7457 1.9723 4.5928 311.58 0.026980 47.764 0.070099 85.359 0.011715 591.58 628.53 2.2778 2.0630 4.7859 171.07 0.23501 11.684 0.035181
81.375 466.05 0.34675 489.72 508.08 1.9361 368.36 0.0027147 435.74 444.46 1.7567 1.9820 4.7327 302.66 0.028773 46.860 0.069708 87.988 0.011365 591.40 627.92 2.2742 2.0791 5.0161 169.64 0.23461 11.832 0.035957
82.375 474.79 0.35907 494.01 512.72 1.9482 364.61 0.0027427 439.60 448.58 1.7678 1.9924 4.8914 293.60 0.030744 45.942 0.069323 90.757 0.011018 591.14 627.21 2.2703 2.0959 5.2786 168.17 0.23413 11.989 0.036797
83.375 483.66 0.37229 498.35 517.41 1.9604 360.70 0.0027724 443.53 452.78 1.7791 2.0034 5.0731 284.38 0.032920 45.010 0.068948 93.681 0.010674 590.79 626.38 2.2661 2.1136 5.5807 166.67 0.23357 12.157 0.037711
84.375 492.67 0.38655 502.74 522.15 1.9727 356.61 0.0028041 447.54 457.07 1.7907 2.0153 5.2834 275.00 0.035335 44.059 0.068586 96.781 0.010333 590.33 625.42 2.2616 2.1321 5.9321 165.13 0.23290 12.338 0.038713
85.375 501.81 0.40203 507.17 526.94 1.9851 352.33 0.0028382 451.65 461.47 1.8025 2.0281 5.5302 265.44 0.038030 43.088 0.068241 100.08 0.0099920 589.74 624.31 2.2567 2.1517 6.3459 163.54 0.23209 12.532 0.039819
86.375 511.09 0.41895 511.65 531.78 1.9975 347.82 0.0028751 455.85 465.98 1.8145 2.0420 5.8240 255.69 0.041058 42.092 0.067923 103.61 0.0096520 589.03 623.04 2.2514 2.1723 6.8405 161.91 0.23112 12.743 0.041051
87.375 520.51 0.43763 516.18 536.69 2.0101 343.04 0.0029151 460.18 470.64 1.8269 2.0574 6.1803 245.72 0.044485 41.066 0.067640 107.40 0.0093114 588.15 621.56 2.2456 2.1943 7.4422 160.23 0.22995 12.973 0.042436
88.375 530.07 0.45846 520.77 541.66 2.0229 337.95 0.0029590 464.64 475.45 1.8397 2.0745 6.6221 235.52 0.048397 40.005 0.067412 111.50 0.0089689 587.08 619.86 2.2392 2.2178 8.1900 158.49 0.22854 13.226 0.044014
89.375 539.79 0.48202 525.43 546.70 2.0357 332.48 0.0030077 469.27 480.46 1.8530 2.0936 7.1851 225.04 0.052906 38.901 0.067265 115.97 0.0086228 585.79 617.88 2.2321 2.2433 9.1445 156.69 0.22681 13.508 0.045839
90.375 549.66 0.50916 530.17 551.82 2.0488 326.55 0.0030623 474.10 485.71 1.8669 2.1156 7.9284 214.26 0.058166 37.742 0.067243 120.91 0.0082708 584.22 615.56 2.2241 2.2711 10.405 154.82 0.22467 13.825 0.047992
91.375 559.68 0.54118 534.99 557.04 2.0620 320.03 0.0031247 479.19 491.25 1.8815 2.1412 8.9568 203.11 0.064389 36.514 0.067421 126.43 0.0079097 582.29 612.82 2.2150 2.3019 12.146 152.85 0.22200 14.189 0.050600
92.375 569.87 0.58028 539.91 562.36 2.0755 312.73 0.0031976 484.62 497.18 1.8972 2.1718 10.475 191.54 0.071885 35.195 0.067931 132.72 0.0075346 579.91 609.51 2.2045 2.3370 14.705 150.75 0.21862 14.618 0.053877
93.375 580.24 0.63053 544.97 567.83 2.0893 304.34 0.0032858 490.52 503.67 1.9143 2.2100 12.945 179.43 0.081133 33.755 0.069025 140.11 0.0071373 576.87 605.42 2.1919 2.3779 18.828 148.48 0.21421 15.146 0.058225
94.375 590.79 0.70090 550.19 573.47 2.1036 294.25 0.0033985 497.17 511.01 1.9336 2.2603 17.657 166.61 0.092934 32.154 0.071243 149.20 0.0067025 572.82 600.12 2.1761 2.4283 26.557 145.93 0.20825 15.847 0.064529
95.375 601.53 0.81804 555.69 579.39 2.1185 280.99 0.0035589 505.21 519.97 1.9572 2.3343 30.014 152.73 0.10888 30.366 0.076197 161.45 0.0061937 566.92 592.61 2.1544 2.4956 46.113 142.79 0.19953 16.960 0.075419
96.375 611.98 undefined 560.69 584.80 2.1320 175.00 0.0057143 560.69 584.80 2.1320 2.5499 81.849 140.12 0.18879 18.720 0.087566 175.00 0.0057143 560.69 584.80 2.1320 2.5499 81.849 140.12 0.18879 18.720 0.087566
97.375 621.14 undefined 563.21 587.68 2.1389 175.00 0.0057143 563.21 587.68 2.1389 2.4954 50.025 142.00 0.18617 18.612 0.077290 175.00 0.0057143 563.21 587.68 2.1389 2.4954 50.025 142.00 0.18617 18.612 0.077290
98.375 630.22 undefined 565.68 590.51 2.1455 175.00 0.0057143 565.68 590.51 2.1455 2.4495 36.211 143.83 0.18346 18.292 0.072053 175.00 0.0057143 565.68 590.51 2.1455 2.4495 36.211 143.83 0.18346 18.292 0.072053
99.375 639.24 undefined 568.11 593.30 2.1520 175.00 0.0057143 568.11 593.30 2.1520 2.4109 28.509 145.62 0.18067 18.145 0.068451 175.00 0.0057143 568.11 593.30 2.1520 2.4109 28.509 145.62 0.18067 18.145 0.068451
100.38 648.21 undefined 570.51 596.05 2.1585 175.00 0.0057143 570.51 596.05 2.1585 2.3786 23.606 147.36 0.17785 18.087 0.065778 175.00 0.0057143 570.51 596.05 2.1585 2.3786 23.606 147.36 0.17785 18.087 0.065778
101.38 657.14 undefined 572.87 598.76 2.1648 175.00 0.0057143 572.87 598.76 2.1648 2.3515 20.216 149.04 0.17500 18.073 0.063703 175.00 0.0057143 572.87 598.76 2.1648 2.3515 20.216 149.04 0.17500 18.073 0.063703
102.38 666.04 undefined 575.21 601.45 2.1710 175.00 0.0057143 575.21 601.45 2.1710 2.3288 17.736 150.69 0.17215 18.083 0.062044 175.00 0.0057143 575.21 601.45 2.1710 2.3288 17.736 150.69 0.17215 18.083 0.062044
103.38 674.90 undefined 577.53 604.12 2.1772 175.00 0.0057143 577.53 604.12 2.1772 2.3097 15.844 152.29 0.16931 18.104 0.060686 175.00 0.0057143 577.53 604.12 2.1772 2.3097 15.844 152.29 0.16931 18.104 0.060686
104.38 683.73 undefined 579.83 606.77 2.1833 175.00 0.0057143 579.83 606.77 2.1833 2.2935 14.354 153.85 0.16648 18.131 0.059555 175.00 0.0057143 579.83 606.77 2.1833 2.2935 14.354 153.85 0.16648 18.131 0.059555
105.38 692.55 undefined 582.12 609.40 2.1893 175.00 0.0057143 582.12 609.40 2.1893 2.2799 13.152 155.38 0.16369 18.161 0.058598 175.00 0.0057143 582.12 609.40 2.1893 2.2799 13.152 155.38 0.16369 18.161 0.058598
106.38 701.34 undefined 584.39 612.02 2.1953 175.00 0.0057143 584.39 612.02 2.1953 2.2682 12.161 156.88 0.16094 18.193 0.057780 175.00 0.0057143 584.39 612.02 2.1953 2.2682 12.161 156.88 0.16094 18.193 0.057780
107.38 710.11 undefined 586.65 614.63 2.2013 175.00 0.0057143 586.65 614.63 2.2013 2.2583 11.331 158.36 0.15823 18.225 0.057074 175.00 0.0057143 586.65 614.63 2.2013 2.2583 11.331 158.36 0.15823 18.225 0.057074
108.38 718.86 undefined 588.91 617.23 2.2072 175.00 0.0057143 588.91 617.23 2.2072 2.2497 10.626 159.82 0.15557 18.258 0.056458 175.00 0.0057143 588.91 617.23 2.2072 2.2497 10.626 159.82 0.15557 18.258 0.056458
109.38 727.60 undefined 591.15 619.82 2.2131 175.00 0.0057143 591.15 619.82 2.2131 2.2422 10.019 161.26 0.15296 18.291 0.055919 175.00 0.0057143 591.15 619.82 2.2131 2.2422 10.019 161.26 0.15296 18.291 0.055919
110.38 736.32 undefined 593.39 622.40 2.2189 175.00 0.0057143 593.39 622.40 2.2189 2.2357 9.4921 162.68 0.15040 18.324 0.055445 175.00 0.0057143 593.39 622.40 2.2189 2.2357 9.4921 162.68 0.15040 18.324 0.055445
111.38 745.03 undefined 595.63 624.98 2.2248 175.00 0.0057143 595.63 624.98 2.2248 2.2300 9.0301 164.08 0.14789 18.357 0.055025 175.00 0.0057143 595.63 624.98 2.2248 2.2300 9.0301 164.08 0.14789 18.357 0.055025
112.38 753.73 undefined 597.85 627.55 2.2305 175.00 0.0057143 597.85 627.55 2.2305 2.2250 8.6220 165.48 0.14544 18.390 0.054652 175.00 0.0057143 597.85 627.55 2.2305 2.2250 8.6220 165.48 0.14544 18.390 0.054652
113.38 762.41 undefined 600.08 630.11 2.2363 175.00 0.0057143 600.08 630.11 2.2363 2.2206 8.2589 166.86 0.14304 18.423 0.054321 175.00 0.0057143 600.08 630.11 2.2363 2.2206 8.2589 166.86 0.14304 18.423 0.054321
114.38 771.09 undefined 602.29 632.67 2.2420 175.00 0.0057143 602.29 632.67 2.2420 2.2167 7.9339 168.23 0.14069 18.456 0.054026 175.00 0.0057143 602.29 632.67 2.2420 2.2167 7.9339 168.23 0.14069 18.456 0.054026
115.38 779.75 undefined 604.51 635.23 2.2477 175.00 0.0057143 604.51 635.23 2.2477 2.2132 7.6414 169.58 0.13839 18.489 0.053764 175.00 0.0057143 604.51 635.23 2.2477 2.2132 7.6414 169.58 0.13839 18.489 0.053764
116.38 788.41 undefined 606.72 637.78 2.2534 175.00 0.0057143 606.72 637.78 2.2534 2.2102 7.3769 170.93 0.13615 18.522 0.053529 175.00 0.0057143 606.72 637.78 2.2534 2.2102 7.3769 170.93 0.13615 18.522 0.053529
117.38 797.05 undefined 608.93 640.33 2.2591 175.00 0.0057143 608.93 640.33 2.2591 2.2076 7.1365 172.27 0.13396 18.555 0.053321 175.00 0.0057143 608.93 640.33 2.2591 2.2076 7.1365 172.27 0.13396 18.555 0.053321
118.38 805.69 undefined 611.14 642.88 2.2647 175.00 0.0057143 611.14 642.88 2.2647 2.2052 6.9173 173.60 0.13181 18.588 0.053135 175.00 0.0057143 611.14 642.88 2.2647 2.2052 6.9173 173.60 0.13181 18.588 0.053135
119.38 814.31 undefined 613.34 645.42 2.2703 175.00 0.0057143 613.34 645.42 2.2703 2.2032 6.7165 174.92 0.12972 18.620 0.052970 175.00 0.0057143 613.34 645.42 2.2703 2.2032 6.7165 174.92 0.12972 18.620 0.052970
120.38 822.93 undefined 615.54 647.97 2.2760 175.00 0.0057143 615.54 647.97 2.2760 2.2015 6.5321 176.23 0.12767 18.653 0.052824 175.00 0.0057143 615.54 647.97 2.2760 2.2015 6.5321 176.23 0.12767 18.653 0.052824
121.38 831.54 undefined 617.74 650.51 2.2815 175.00 0.0057143 617.74 650.51 2.2815 2.2001 6.3622 177.53 0.12567 18.686 0.052696 175.00 0.0057143 617.74 650.51 2.2815 2.2001 6.3622 177.53 0.12567 18.686 0.052696
122.38 840.14 undefined 619.94 653.04 2.2871 175.00 0.0057143 619.94 653.04 2.2871 2.1989 6.2051 178.83 0.12372 18.718 0.052582 175.00 0.0057143 619.94 653.04 2.2871 2.1989 6.2051 178.83 0.12372 18.718 0.052582
123.38 848.74 undefined 622.14 655.58 2.2927 175.00 0.0057143 622.14 655.58 2.2927 2.1979 6.0596 180.11 0.12181 18.751 0.052483 175.00 0.0057143 622.14 655.58 2.2927 2.1979 6.0596 180.11 0.12181 18.751 0.052483
124.38 857.33 undefined 624.34 658.12 2.2982 175.00 0.0057143 624.34 658.12 2.2982 2.1972 5.9245 181.39 0.11994 18.783 0.052398 175.00 0.0057143 624.34 658.12 2.2982 2.1972 5.9245 181.39 0.11994 18.783 0.052398
125.38 865.91 undefined 626.54 660.65 2.3037 175.00 0.0057143 626.54 660.65 2.3037 2.1966 5.7986 182.66 0.11811 18.816 0.052324 175.00 0.0057143 626.54 660.65 2.3037 2.1966 5.7986 182.66 0.11811 18.816 0.052324
126.38 874.48 undefined 628.73 663.19 2.3092 175.00 0.0057143 628.73 663.19 2.3092 2.1963 5.6812 183.92 0.11632 18.848 0.052262 175.00 0.0057143 628.73 663.19 2.3092 2.1963 5.6812 183.92 0.11632 18.848 0.052262
127.38 883.05 undefined 630.93 665.72 2.3147 175.00 0.0057143 630.93 665.72 2.3147 2.1961 5.5715 185.17 0.11457 18.881 0.052210 175.00 0.0057143 630.93 665.72 2.3147 2.1961 5.5715 185.17 0.11457 18.881 0.052210
128.38 891.62 undefined 633.13 668.25 2.3202 175.00 0.0057143 633.13 668.25 2.3202 2.1961 5.4687 186.42 0.11287 18.913 0.052167 175.00 0.0057143 633.13 668.25 2.3202 2.1961 5.4687 186.42 0.11287 18.913 0.052167
129.38 900.17 undefined 635.32 670.79 2.3256 175.00 0.0057143 635.32 670.79 2.3256 2.1963 5.3723 187.66 0.11119 18.945 0.052133 175.00 0.0057143 635.32 670.79 2.3256 2.1963 5.3723 187.66 0.11119 18.945 0.052133
130.38 908.73 undefined 637.52 673.32 2.3311 175.00 0.0057143 637.52 673.32 2.3311 2.1966 5.2817 188.89 0.10956 18.978 0.052108 175.00 0.0057143 637.52 673.32 2.3311 2.1966 5.2817 188.89 0.10956 18.978 0.052108
131.38 917.27 undefined 639.71 675.85 2.3365 175.00 0.0057143 639.71 675.85 2.3365 2.1970 5.1964 190.12 0.10796 19.010 0.052090 175.00 0.0057143 639.71 675.85 2.3365 2.1970 5.1964 190.12 0.10796 19.010 0.052090
132.38 925.81 undefined 641.91 678.39 2.3420 175.00 0.0057143 641.91 678.39 2.3420 2.1976 5.1159 191.33 0.10639 19.042 0.052080 175.00 0.0057143 641.91 678.39 2.3420 2.1976 5.1159 191.33 0.10639 19.042 0.052080
133.38 934.35 undefined 644.11 680.92 2.3474 175.00 0.0057143 644.11 680.92 2.3474 2.1983 5.0400 192.55 0.10486 19.074 0.052076 175.00 0.0057143 644.11 680.92 2.3474 2.1983 5.0400 192.55 0.10486 19.074 0.052076
134.38 942.88 undefined 646.31 683.46 2.3528 175.00 0.0057143 646.31 683.46 2.3528 2.1992 4.9683 193.75 0.10336 19.106 0.052079 175.00 0.0057143 646.31 683.46 2.3528 2.1992 4.9683 193.75 0.10336 19.106 0.052079
135.38 951.41 undefined 648.51 685.99 2.3582 175.00 0.0057143 648.51 685.99 2.3582 2.2001 4.9004 194.95 0.10189 19.139 0.052088 175.00 0.0057143 648.51 685.99 2.3582 2.2001 4.9004 194.95 0.10189 19.139 0.052088
136.38 959.93 undefined 650.71 688.53 2.3635 175.00 0.0057143 650.71 688.53 2.3635 2.2012 4.8361 196.14 0.10045 19.171 0.052102 175.00 0.0057143 650.71 688.53 2.3635 2.2012 4.8361 196.14 0.10045 19.171 0.052102
137.38 968.45 undefined 652.91 691.07 2.3689 175.00 0.0057143 652.91 691.07 2.3689 2.2024 4.7751 197.32 0.099043 19.203 0.052121 175.00 0.0057143 652.91 691.07 2.3689 2.2024 4.7751 197.32 0.099043 19.203 0.052121
138.38 976.96 undefined 655.11 693.60 2.3743 175.00 0.0057143 655.11 693.60 2.3743 2.2036 4.7171 198.50 0.097664 19.234 0.052146 175.00 0.0057143 655.11 693.60 2.3743 2.2036 4.7171 198.50 0.097664 19.234 0.052146
139.38 985.47 undefined 657.32 696.14 2.3796 175.00 0.0057143 657.32 696.14 2.3796 2.2050 4.6620 199.67 0.096313 19.266 0.052175 175.00 0.0057143 657.32 696.14 2.3796 2.2050 4.6620 199.67 0.096313 19.266 0.052175
140.38 993.97 undefined 659.52 698.68 2.3850 175.00 0.0057143 659.52 698.68 2.3850 2.2064 4.6096 200.84 0.094990 19.298 0.052208 175.00 0.0057143 659.52 698.68 2.3850 2.2064 4.6096 200.84 0.094990 19.298 0.052208
141.38 1002.5 undefined 661.73 701.23 2.3903 175.00 0.0057143 661.73 701.23 2.3903 2.2080 4.5597 202.00 0.093694 19.330 0.052245 175.00 0.0057143 661.73 701.23 2.3903 2.2080 4.5597 202.00 0.093694 19.330 0.052245
142.38 1011.0 undefined 663.94 703.77 2.3956 175.00 0.0057143 663.94 703.77 2.3956 2.2096 4.5121 203.15 0.092424 19.362 0.052287 175.00 0.0057143 663.94 703.77 2.3956 2.2096 4.5121 203.15 0.092424 19.362 0.052287
143.38 1019.5 undefined 666.15 706.32 2.4009 175.00 0.0057143 666.15 706.32 2.4009 2.2112 4.4668 204.30 0.091179 19.394 0.052332 175.00 0.0057143 666.15 706.32 2.4009 2.2112 4.4668 204.30 0.091179 19.394 0.052332
144.38 1027.9 undefined 668.36 708.86 2.4062 175.00 0.0057143 668.36 708.86 2.4062 2.2130 4.4234 205.44 0.089959 19.425 0.052381 175.00 0.0057143 668.36 708.86 2.4062 2.2130 4.4234 205.44 0.089959 19.425 0.052381
145.38 1036.4 undefined 670.58 711.41 2.4115 175.00 0.0057143 670.58 711.41 2.4115 2.2148 4.3820 206.58 0.088764 19.457 0.052433 175.00 0.0057143 670.58 711.41 2.4115 2.2148 4.3820 206.58 0.088764 19.457 0.052433
146.38 1044.9 undefined 672.79 713.96 2.4168 175.00 0.0057143 672.79 713.96 2.4168 2.2167 4.3424 207.71 0.087591 19.489 0.052488 175.00 0.0057143 672.79 713.96 2.4168 2.2167 4.3424 207.71 0.087591 19.489 0.052488
147.38 1053.4 undefined 675.01 716.51 2.4221 175.00 0.0057143 675.01 716.51 2.4221 2.2186 4.3045 208.84 0.086442 19.520 0.052547 175.00 0.0057143 675.01 716.51 2.4221 2.2186 4.3045 208.84 0.086442 19.520 0.052547
148.38 1061.9 undefined 677.23 719.06 2.4274 175.00 0.0057143 677.23 719.06 2.4274 2.2206 4.2683 209.96 0.085315 19.552 0.052608 175.00 0.0057143 677.23 719.06 2.4274 2.2206 4.2683 209.96 0.085315 19.552 0.052608
149.38 1070.3 undefined 679.45 721.62 2.4326 175.00 0.0057143 679.45 721.62 2.4326 2.2226 4.2335 211.07 0.084209 19.583 0.052672 175.00 0.0057143 679.45 721.62 2.4326 2.2226 4.2335 211.07 0.084209 19.583 0.052672
150.38 1078.8 undefined 681.67 724.18 2.4379 175.00 0.0057143 681.67 724.18 2.4379 2.2247 4.2002 212.18 0.083125 19.615 0.052738 175.00 0.0057143 681.67 724.18 2.4379 2.2247 4.2002 212.18 0.083125 19.615 0.052738
151.38 1087.3 undefined 683.90 726.74 2.4431 175.00 0.0057143 683.90 726.74 2.4431 2.2269 4.1682 213.29 0.082061 19.646 0.052808 175.00 0.0057143 683.90 726.74 2.4431 2.2269 4.1682 213.29 0.082061 19.646 0.052808
152.38 1095.7 undefined 686.13 729.30 2.4484 175.00 0.0057143 686.13 729.30 2.4484 2.2291 4.1375 214.39 0.081018 19.678 0.052879 175.00 0.0057143 686.13 729.30 2.4484 2.2291 4.1375 214.39 0.081018 19.678 0.052879
153.38 1104.2 undefined 688.36 731.86 2.4536 175.00 0.0057143 688.36 731.86 2.4536 2.2313 4.1080 215.48 0.079994 19.709 0.052953 175.00 0.0057143 688.36 731.86 2.4536 2.2313 4.1080 215.48 0.079994 19.709 0.052953
154.38 1112.6 undefined 690.59 734.43 2.4588 175.00 0.0057143 690.59 734.43 2.4588 2.2336 4.0797 216.57 0.078989 19.740 0.053029 175.00 0.0057143 690.59 734.43 2.4588 2.2336 4.0797 216.57 0.078989 19.740 0.053029
155.38 1121.1 undefined 692.83 736.99 2.4641 175.00 0.0057143 692.83 736.99 2.4641 2.2359 4.0525 217.66 0.078002 19.771 0.053107 175.00 0.0057143 692.83 736.99 2.4641 2.2359 4.0525 217.66 0.078002 19.771 0.053107
156.38 1129.5 undefined 695.06 739.56 2.4693 175.00 0.0057143 695.06 739.56 2.4693 2.2383 4.0263 218.74 0.077034 19.803 0.053188 175.00 0.0057143 695.06 739.56 2.4693 2.2383 4.0263 218.74 0.077034 19.803 0.053188
157.38 1138.0 undefined 697.30 742.14 2.4745 175.00 0.0057143 697.30 742.14 2.4745 2.2407 4.0011 219.81 0.076084 19.834 0.053270 175.00 0.0057143 697.30 742.14 2.4745 2.2407 4.0011 219.81 0.076084 19.834 0.053270
158.38 1146.4 undefined 699.54 744.71 2.4797 175.00 0.0057143 699.54 744.71 2.4797 2.2431 3.9768 220.88 0.075150 19.865 0.053354 175.00 0.0057143 699.54 744.71 2.4797 2.2431 3.9768 220.88 0.075150 19.865 0.053354
159.38 1154.9 undefined 701.79 747.29 2.4849 175.00 0.0057143 701.79 747.29 2.4849 2.2455 3.9535 221.95 0.074234 19.896 0.053440 175.00 0.0057143 701.79 747.29 2.4849 2.2455 3.9535 221.95 0.074234 19.896 0.053440
160.38 1163.3 undefined 704.03 749.87 2.4901 175.00 0.0057143 704.03 749.87 2.4901 2.2480 3.9310 223.01 0.073334 19.927 0.053527 175.00 0.0057143 704.03 749.87 2.4901 2.2480 3.9310 223.01 0.073334 19.927 0.053527
161.38 1171.7 undefined 706.28 752.45 2.4953 175.00 0.0057143 706.28 752.45 2.4953 2.2505 3.9093 224.06 0.072450 19.958 0.053617 175.00 0.0057143 706.28 752.45 2.4953 2.2505 3.9093 224.06 0.072450 19.958 0.053617
162.38 1180.2 undefined 708.54 755.03 2.5004 175.00 0.0057143 708.54 755.03 2.5004 2.2531 3.8883 225.11 0.071582 19.989 0.053708 175.00 0.0057143 708.54 755.03 2.5004 2.2531 3.8883 225.11 0.071582 19.989 0.053708
163.38 1188.6 undefined 710.79 757.62 2.5056 175.00 0.0057143 710.79 757.62 2.5056 2.2557 3.8681 226.16 0.070729 20.020 0.053800 175.00 0.0057143 710.79 757.62 2.5056 2.2557 3.8681 226.16 0.070729 20.020 0.053800
164.38 1197.0 undefined 713.05 760.21 2.5108 175.00 0.0057143 713.05 760.21 2.5108 2.2583 3.8487 227.21 0.069890 20.051 0.053894 175.00 0.0057143 713.05 760.21 2.5108 2.2583 3.8487 227.21 0.069890 20.051 0.053894
165.38 1205.4 undefined 715.31 762.80 2.5159 175.00 0.0057143 715.31 762.80 2.5159 2.2609 3.8298 228.24 0.069067 20.082 0.053990 175.00 0.0057143 715.31 762.80 2.5159 2.2609 3.8298 228.24 0.069067 20.082 0.053990
166.38 1213.8 undefined 717.57 765.39 2.5211 175.00 0.0057143 717.57 765.39 2.5211 2.2635 3.8117 229.28 0.068257 20.113 0.054087 175.00 0.0057143 717.57 765.39 2.5211 2.2635 3.8117 229.28 0.068257 20.113 0.054087
167.38 1222.3 undefined 719.83 767.99 2.5262 175.00 0.0057143 719.83 767.99 2.5262 2.2662 3.7942 230.31 0.067462 20.144 0.054185 175.00 0.0057143 719.83 767.99 2.5262 2.2662 3.7942 230.31 0.067462 20.144 0.054185
168.38 1230.7 undefined 722.10 770.59 2.5314 175.00 0.0057143 722.10 770.59 2.5314 2.2689 3.7772 231.34 0.066680 20.174 0.054285 175.00 0.0057143 722.10 770.59 2.5314 2.2689 3.7772 231.34 0.066680 20.174 0.054285
169.38 1239.1 undefined 724.37 773.19 2.5365 175.00 0.0057143 724.37 773.19 2.5365 2.2716 3.7608 232.36 0.065911 20.205 0.054386 175.00 0.0057143 724.37 773.19 2.5365 2.2716 3.7608 232.36 0.065911 20.205 0.054386
170.38 1247.5 undefined 726.64 775.79 2.5416 175.00 0.0057143 726.64 775.79 2.5416 2.2744 3.7450 233.38 0.065155 20.236 0.054488 175.00 0.0057143 726.64 775.79 2.5416 2.2744 3.7450 233.38 0.065155 20.236 0.054488
171.38 1255.9 undefined 728.92 778.40 2.5468 175.00 0.0057143 728.92 778.40 2.5468 2.2771 3.7297 234.39 0.064412 20.266 0.054591 175.00 0.0057143 728.92 778.40 2.5468 2.2771 3.7297 234.39 0.064412 20.266 0.054591
172.38 1264.3 undefined 731.20 781.01 2.5519 175.00 0.0057143 731.20 781.01 2.5519 2.2799 3.7149 235.40 0.063681 20.297 0.054696 175.00 0.0057143 731.20 781.01 2.5519 2.2799 3.7149 235.40 0.063681 20.297 0.054696
173.38 1272.7 undefined 733.48 783.62 2.5570 175.00 0.0057143 733.48 783.62 2.5570 2.2827 3.7006 236.41 0.062962 20.328 0.054801 175.00 0.0057143 733.48 783.62 2.5570 2.2827 3.7006 236.41 0.062962 20.328 0.054801
174.38 1281.1 undefined 735.76 786.24 2.5621 175.00 0.0057143 735.76 786.24 2.5621 2.2855 3.6867 237.41 0.062255 20.358 0.054908 175.00 0.0057143 735.76 786.24 2.5621 2.2855 3.6867 237.41 0.062255 20.358 0.054908
175.38 1289.5 undefined 738.05 788.86 2.5672 175.00 0.0057143 738.05 788.86 2.5672 2.2883 3.6733 238.41 0.061560 20.389 0.055016 175.00 0.0057143 738.05 788.86 2.5672 2.2883 3.6733 238.41 0.061560 20.389 0.055016
176.38 1297.9 undefined 740.34 791.48 2.5723 175.00 0.0057143 740.34 791.48 2.5723 2.2912 3.6604 239.40 0.060876 20.419 0.055125 175.00 0.0057143 740.34 791.48 2.5723 2.2912 3.6604 239.40 0.060876 20.419 0.055125
177.38 1306.3 undefined 742.63 794.10 2.5774 175.00 0.0057143 742.63 794.10 2.5774 2.2940 3.6478 240.39 0.060203 20.449 0.055235 175.00 0.0057143 742.63 794.10 2.5774 2.2940 3.6478 240.39 0.060203 20.449 0.055235
178.38 1314.6 undefined 744.93 796.72 2.5825 175.00 0.0057143 744.93 796.72 2.5825 2.2969 3.6356 241.38 0.059540 20.480 0.055345 175.00 0.0057143 744.93 796.72 2.5825 2.2969 3.6356 241.38 0.059540 20.480 0.055345
179.38 1323.0 undefined 747.23 799.35 2.5876 175.00 0.0057143 747.23 799.35 2.5876 2.2998 3.6238 242.36 0.058888 20.510 0.055457 175.00 0.0057143 747.23 799.35 2.5876 2.2998 3.6238 242.36 0.058888 20.510 0.055457
180.38 1331.4 undefined 749.53 801.98 2.5927 175.00 0.0057143 749.53 801.98 2.5927 2.3027 3.6124 243.34 0.058247 20.541 0.055570 175.00 0.0057143 749.53 801.98 2.5927 2.3027 3.6124 243.34 0.058247 20.541 0.055570
181.38 1339.8 undefined 751.83 804.62 2.5977 175.00 0.0057143 751.83 804.62 2.5977 2.3056 3.6014 244.32 0.057615 20.571 0.055684 175.00 0.0057143 751.83 804.62 2.5977 2.3056 3.6014 244.32 0.057615 20.571 0.055684
182.38 1348.2 undefined 754.14 807.26 2.6028 175.00 0.0057143 754.14 807.26 2.6028 2.3085 3.5907 245.29 0.056994 20.601 0.055798 175.00 0.0057143 754.14 807.26 2.6028 2.3085 3.5907 245.29 0.056994 20.601 0.055798
183.38 1356.5 undefined 756.45 809.90 2.6079 175.00 0.0057143 756.45 809.90 2.6079 2.3115 3.5803 246.26 0.056382 20.631 0.055914 175.00 0.0057143 756.45 809.90 2.6079 2.3115 3.5803 246.26 0.056382 20.631 0.055914
184.38 1364.9 undefined 758.76 812.54 2.6129 175.00 0.0057143 758.76 812.54 2.6129 2.3144 3.5702 247.23 0.055779 20.661 0.056030 175.00 0.0057143 758.76 812.54 2.6129 2.3144 3.5702 247.23 0.055779 20.661 0.056030
185.38 1373.3 undefined 761.08 815.18 2.6180 175.00 0.0057143 761.08 815.18 2.6180 2.3174 3.5605 248.19 0.055186 20.692 0.056147 175.00 0.0057143 761.08 815.18 2.6180 2.3174 3.5605 248.19 0.055186 20.692 0.056147
186.38 1381.6 undefined 763.40 817.83 2.6230 175.00 0.0057143 763.40 817.83 2.6230 2.3203 3.5511 249.15 0.054602 20.722 0.056265 175.00 0.0057143 763.40 817.83 2.6230 2.3203 3.5511 249.15 0.054602 20.722 0.056265
187.38 1390.0 undefined 765.72 820.48 2.6281 175.00 0.0057143 765.72 820.48 2.6281 2.3233 3.5419 250.10 0.054027 20.752 0.056384 175.00 0.0057143 765.72 820.48 2.6281 2.3233 3.5419 250.10 0.054027 20.752 0.056384
188.38 1398.4 undefined 768.04 823.14 2.6331 175.00 0.0057143 768.04 823.14 2.6331 2.3263 3.5330 251.05 0.053460 20.782 0.056503 175.00 0.0057143 768.04 823.14 2.6331 2.3263 3.5330 251.05 0.053460 20.782 0.056503
189.38 1406.7 undefined 770.37 825.80 2.6382 175.00 0.0057143 770.37 825.80 2.6382 2.3293 3.5244 252.00 0.052902 20.812 0.056624 175.00 0.0057143 770.37 825.80 2.6382 2.3293 3.5244 252.00 0.052902 20.812 0.056624
190.38 1415.1 undefined 772.70 828.46 2.6432 175.00 0.0057143 772.70 828.46 2.6432 2.3323 3.5161 252.95 0.052352 20.842 0.056745 175.00 0.0057143 772.70 828.46 2.6432 2.3323 3.5161 252.95 0.052352 20.842 0.056745
191.38 1423.4 undefined 775.04 831.12 2.6482 175.00 0.0057143 775.04 831.12 2.6482 2.3353 3.5080 253.89 0.051811 20.871 0.056866 175.00 0.0057143 775.04 831.12 2.6482 2.3353 3.5080 253.89 0.051811 20.871 0.056866
192.38 1431.8 undefined 777.37 833.78 2.6533 175.00 0.0057143 777.37 833.78 2.6533 2.3384 3.5002 254.83 0.051277 20.901 0.056989 175.00 0.0057143 777.37 833.78 2.6533 2.3384 3.5002 254.83 0.051277 20.901 0.056989
193.38 1440.1 undefined 779.71 836.45 2.6583 175.00 0.0057143 779.71 836.45 2.6583 2.3414 3.4925 255.76 0.050751 20.931 0.057112 175.00 0.0057143 779.71 836.45 2.6583 2.3414 3.4925 255.76 0.050751 20.931 0.057112
194.38 1448.5 undefined 782.06 839.13 2.6633 175.00 0.0057143 782.06 839.13 2.6633 2.3445 3.4852 256.70 0.050233 20.961 0.057236 175.00 0.0057143 782.06 839.13 2.6633 2.3445 3.4852 256.70 0.050233 20.961 0.057236
195.38 1456.8 undefined 784.40 841.80 2.6683 175.00 0.0057143 784.40 841.80 2.6683 2.3475 3.4780 257.63 0.049723 20.991 0.057360 175.00 0.0057143 784.40 841.80 2.6683 2.3475 3.4780 257.63 0.049723 20.991 0.057360
196.38 1465.2 undefined 786.75 844.48 2.6733 175.00 0.0057143 786.75 844.48 2.6733 2.3506 3.4711 258.55 0.049220 21.020 0.057486 175.00 0.0057143 786.75 844.48 2.6733 2.3506 3.4711 258.55 0.049220 21.020 0.057486
197.38 1473.5 undefined 789.10 847.16 2.6783 175.00 0.0057143 789.10 847.16 2.6783 2.3536 3.4644 259.47 0.048724 21.050 0.057612 175.00 0.0057143 789.10 847.16 2.6783 2.3536 3.4644 259.47 0.048724 21.050 0.057612
198.38 1481.9 undefined 791.46 849.84 2.6833 175.00 0.0057143 791.46 849.84 2.6833 2.3567 3.4579 260.39 0.048235 21.080 0.057738 175.00 0.0057143 791.46 849.84 2.6833 2.3567 3.4579 260.39 0.048235 21.080 0.057738
199.38 1490.2 undefined 793.82 852.53 2.6883 175.00 0.0057143 793.82 852.53 2.6883 2.3598 3.4515 261.31 0.047753 21.109 0.057865 175.00 0.0057143 793.82 852.53 2.6883 2.3598 3.4515 261.31 0.047753 21.109 0.057865
200.38 1498.5 undefined 796.18 855.22 2.6933 175.00 0.0057143 796.18 855.22 2.6933 2.3629 3.4454 262.23 0.047278 21.139 0.057993 175.00 0.0057143 796.18 855.22 2.6933 2.3629 3.4454 262.23 0.047278 21.139 0.057993
201.38 1506.9 undefined 798.54 857.91 2.6983 175.00 0.0057143 798.54 857.91 2.6983 2.3660 3.4395 263.14 0.046810 21.169 0.058121 175.00 0.0057143 798.54 857.91 2.6983 2.3660 3.4395 263.14 0.046810 21.169 0.058121
202.38 1515.2 undefined 800.91 860.61 2.7033 175.00 0.0057143 800.91 860.61 2.7033 2.3691 3.4337 264.04 0.046348 21.198 0.058250 175.00 0.0057143 800.91 860.61 2.7033 2.3691 3.4337 264.04 0.046348 21.198 0.058250
203.38 1523.5 undefined 803.28 863.31 2.7083 175.00 0.0057143 803.28 863.31 2.7083 2.3722 3.4281 264.95 0.045892 21.228 0.058379 175.00 0.0057143 803.28 863.31 2.7083 2.3722 3.4281 264.95 0.045892 21.228 0.058379
204.38 1531.9 undefined 805.65 866.01 2.7132 175.00 0.0057143 805.65 866.01 2.7132 2.3753 3.4227 265.85 0.045443 21.257 0.058509 175.00 0.0057143 805.65 866.01 2.7132 2.3753 3.4227 265.85 0.045443 21.257 0.058509
205.38 1540.2 undefined 808.03 868.71 2.7182 175.00 0.0057143 808.03 868.71 2.7182 2.3785 3.4175 266.75 0.045001 21.286 0.058640 175.00 0.0057143 808.03 868.71 2.7182 2.3785 3.4175 266.75 0.045001 21.286 0.058640
206.38 1548.5 undefined 810.41 871.42 2.7232 175.00 0.0057143 810.41 871.42 2.7232 2.3816 3.4124 267.65 0.044564 21.316 0.058771 175.00 0.0057143 810.41 871.42 2.7232 2.3816 3.4124 267.65 0.044564 21.316 0.058771
207.38 1556.8 undefined 812.79 874.13 2.7281 175.00 0.0057143 812.79 874.13 2.7281 2.3847 3.4075 268.54 0.044133 21.345 0.058903 175.00 0.0057143 812.79 874.13 2.7281 2.3847 3.4075 268.54 0.044133 21.345 0.058903
208.38 1565.1 undefined 815.18 876.85 2.7331 175.00 0.0057143 815.18 876.85 2.7331 2.3879 3.4027 269.43 0.043708 21.374 0.059035 175.00 0.0057143 815.18 876.85 2.7331 2.3879 3.4027 269.43 0.043708 21.374 0.059035
209.38 1573.5 undefined 817.57 879.56 2.7381 175.00 0.0057143 817.57 879.56 2.7381 2.3910 3.3981 270.32 0.043289 21.404 0.059168 175.00 0.0057143 817.57 879.56 2.7381 2.3910 3.3981 270.32 0.043289 21.404 0.059168
210.38 1581.8 undefined 819.96 882.28 2.7430 175.00 0.0057143 819.96 882.28 2.7430 2.3942 3.3936 271.21 0.042875 21.433 0.059301 175.00 0.0057143 819.96 882.28 2.7430 2.3942 3.3936 271.21 0.042875 21.433 0.059301
211.38 1590.1 undefined 822.36 885.01 2.7480 175.00 0.0057143 822.36 885.01 2.7480 2.3973 3.3893 272.09 0.042467 21.462 0.059435 175.00 0.0057143 822.36 885.01 2.7480 2.3973 3.3893 272.09 0.042467 21.462 0.059435
212.38 1598.4 undefined 824.76 887.73 2.7529 175.00 0.0057143 824.76 887.73 2.7529 2.4005 3.3851 272.97 0.042064 21.491 0.059569 175.00 0.0057143 824.76 887.73 2.7529 2.4005 3.3851 272.97 0.042064 21.491 0.059569
213.38 1606.7 undefined 827.16 890.46 2.7578 175.00 0.0057143 827.16 890.46 2.7578 2.4037 3.3810 273.85 0.041667 21.520 0.059704 175.00 0.0057143 827.16 890.46 2.7578 2.4037 3.3810 273.85 0.041667 21.520 0.059704
214.38 1615.0 undefined 829.57 893.19 2.7628 175.00 0.0057143 829.57 893.19 2.7628 2.4068 3.3771 274.72 0.041275 21.549 0.059839 175.00 0.0057143 829.57 893.19 2.7628 2.4068 3.3771 274.72 0.041275 21.549 0.059839
215.38 1623.3 undefined 831.97 895.93 2.7677 175.00 0.0057143 831.97 895.93 2.7677 2.4100 3.3733 275.59 0.040888 21.579 0.059975 175.00 0.0057143 831.97 895.93 2.7677 2.4100 3.3733 275.59 0.040888 21.579 0.059975
216.38 1631.6 undefined 834.39 898.67 2.7726 175.00 0.0057143 834.39 898.67 2.7726 2.4132 3.3696 276.46 0.040506 21.608 0.060111 175.00 0.0057143 834.39 898.67 2.7726 2.4132 3.3696 276.46 0.040506 21.608 0.060111
217.38 1639.9 undefined 836.80 901.41 2.7776 175.00 0.0057143 836.80 901.41 2.7776 2.4164 3.3661 277.33 0.040129 21.637 0.060248 175.00 0.0057143 836.80 901.41 2.7776 2.4164 3.3661 277.33 0.040129 21.637 0.060248
218.38 1648.2 undefined 839.22 904.15 2.7825 175.00 0.0057143 839.22 904.15 2.7825 2.4196 3.3626 278.19 0.039757 21.665 0.060385 175.00 0.0057143 839.22 904.15 2.7825 2.4196 3.3626 278.19 0.039757 21.665 0.060385
219.38 1656.5 undefined 841.64 906.90 2.7874 175.00 0.0057143 841.64 906.90 2.7874 2.4228 3.3593 279.06 0.039390 21.694 0.060523 175.00 0.0057143 841.64 906.90 2.7874 2.4228 3.3593 279.06 0.039390 21.694 0.060523
220.38 1664.8 undefined 844.06 909.65 2.7923 175.00 0.0057143 844.06 909.65 2.7923 2.4260 3.3561 279.91 0.039027 21.723 0.060661 175.00 0.0057143 844.06 909.65 2.7923 2.4260 3.3561 279.91 0.039027 21.723 0.060661
221.38 1673.1 undefined 846.49 912.41 2.7973 175.00 0.0057143 846.49 912.41 2.7973 2.4292 3.3530 280.77 0.038669 21.752 0.060799 175.00 0.0057143 846.49 912.41 2.7973 2.4292 3.3530 280.77 0.038669 21.752 0.060799
222.38 1681.4 undefined 848.92 915.17 2.8022 175.00 0.0057143 848.92 915.17 2.8022 2.4324 3.3500 281.63 0.038316 21.781 0.060938 175.00 0.0057143 848.92 915.17 2.8022 2.4324 3.3500 281.63 0.038316 21.781 0.060938
223.38 1689.7 undefined 851.36 917.93 2.8071 175.00 0.0057143 851.36 917.93 2.8071 2.4356 3.3471 282.48 0.037967 21.810 0.061077 175.00 0.0057143 851.36 917.93 2.8071 2.4356 3.3471 282.48 0.037967 21.810 0.061077
224.38 1698.0 undefined 853.79 920.69 2.8120 175.00 0.0057143 853.79 920.69 2.8120 2.4388 3.3443 283.33 0.037623 21.838 0.061217 175.00 0.0057143 853.79 920.69 2.8120 2.4388 3.3443 283.33 0.037623 21.838 0.061217
225.38 1706.2 undefined 856.23 923.46 2.8169 175.00 0.0057143 856.23 923.46 2.8169 2.4420 3.3416 284.17 0.037283 21.867 0.061357 175.00 0.0057143 856.23 923.46 2.8169 2.4420 3.3416 284.17 0.037283 21.867 0.061357
226.38 1714.5 undefined 858.68 926.23 2.8218 175.00 0.0057143 858.68 926.23 2.8218 2.4452 3.3390 285.02 0.036947 21.896 0.061498 175.00 0.0057143 858.68 926.23 2.8218 2.4452 3.3390 285.02 0.036947 21.896 0.061498
227.38 1722.8 undefined 861.12 929.00 2.8267 175.00 0.0057143 861.12 929.00 2.8267 2.4484 3.3365 285.86 0.036615 21.925 0.061639 175.00 0.0057143 861.12 929.00 2.8267 2.4484 3.3365 285.86 0.036615 21.925 0.061639
228.38 1731.1 undefined 863.57 931.78 2.8316 175.00 0.0057143 863.57 931.78 2.8316 2.4516 3.3341 286.70 0.036287 21.953 0.061780 175.00 0.0057143 863.57 931.78 2.8316 2.4516 3.3341 286.70 0.036287 21.953 0.061780
229.38 1739.4 undefined 866.03 934.55 2.8364 175.00 0.0057143 866.03 934.55 2.8364 2.4549 3.3318 287.54 0.035964 21.982 0.061922 175.00 0.0057143 866.03 934.55 2.8364 2.4549 3.3318 287.54 0.035964 21.982 0.061922
230.38 1747.6 undefined 868.48 937.34 2.8413 175.00 0.0057143 868.48 937.34 2.8413 2.4581 3.3296 288.37 0.035644 22.010 0.062064 175.00 0.0057143 868.48 937.34 2.8413 2.4581 3.3296 288.37 0.035644 22.010 0.062064
231.38 1755.9 undefined 870.94 940.12 2.8462 175.00 0.0057143 870.94 940.12 2.8462 2.4613 3.3274 289.20 0.035328 22.039 0.062206 175.00 0.0057143 870.94 940.12 2.8462 2.4613 3.3274 289.20 0.035328 22.039 0.062206
232.38 1764.2 undefined 873.41 942.91 2.8511 175.00 0.0057143 873.41 942.91 2.8511 2.4646 3.3254 290.03 0.035016 22.067 0.062349 175.00 0.0057143 873.41 942.91 2.8511 2.4646 3.3254 290.03 0.035016 22.067 0.062349
233.38 1772.4 undefined 875.87 945.70 2.8560 175.00 0.0057143 875.87 945.70 2.8560 2.4678 3.3234 290.86 0.034708 22.096 0.062492 175.00 0.0057143 875.87 945.70 2.8560 2.4678 3.3234 290.86 0.034708 22.096 0.062492
234.38 1780.7 undefined 878.34 948.50 2.8608 175.00 0.0057143 878.34 948.50 2.8608 2.4710 3.3215 291.69 0.034404 22.124 0.062636 175.00 0.0057143 878.34 948.50 2.8608 2.4710 3.3215 291.69 0.034404 22.124 0.062636
235.38 1789.0 undefined 880.81 951.30 2.8657 175.00 0.0057143 880.81 951.30 2.8657 2.4743 3.3197 292.51 0.034103 22.152 0.062779 175.00 0.0057143 880.81 951.30 2.8657 2.4743 3.3197 292.51 0.034103 22.152 0.062779
236.38 1797.2 undefined 883.29 954.10 2.8706 175.00 0.0057143 883.29 954.10 2.8706 2.4775 3.3179 293.33 0.033806 22.181 0.062924 175.00 0.0057143 883.29 954.10 2.8706 2.4775 3.3179 293.33 0.033806 22.181 0.062924
237.38 1805.5 undefined 885.77 956.90 2.8754 175.00 0.0057143 885.77 956.90 2.8754 2.4808 3.3163 294.15 0.033512 22.209 0.063068 175.00 0.0057143 885.77 956.90 2.8754 2.4808 3.3163 294.15 0.033512 22.209 0.063068
238.38 1813.8 undefined 888.25 959.71 2.8803 175.00 0.0057143 888.25 959.71 2.8803 2.4840 3.3147 294.97 0.033222 22.237 0.063213 175.00 0.0057143 888.25 959.71 2.8803 2.4840 3.3147 294.97 0.033222 22.237 0.063213
239.38 1822.0 undefined 890.74 962.52 2.8851 175.00 0.0057143 890.74 962.52 2.8851 2.4873 3.3132 295.78 0.032935 22.266 0.063358 175.00 0.0057143 890.74 962.52 2.8851 2.4873 3.3132 295.78 0.032935 22.266 0.063358
240.38 1830.3 undefined 893.23 965.34 2.8900 175.00 0.0057143 893.23 965.34 2.8900 2.4905 3.3117 296.59 0.032652 22.294 0.063504 175.00 0.0057143 893.23 965.34 2.8900 2.4905 3.3117 296.59 0.032652 22.294 0.063504
241.38 1838.5 undefined 895.72 968.15 2.8948 175.00 0.0057143 895.72 968.15 2.8948 2.4938 3.3103 297.40 0.032372 22.322 0.063650 175.00 0.0057143 895.72 968.15 2.8948 2.4938 3.3103 297.40 0.032372 22.322 0.063650
242.38 1846.8 undefined 898.21 970.97 2.8997 175.00 0.0057143 898.21 970.97 2.8997 2.4970 3.3090 298.21 0.032095 22.350 0.063796 175.00 0.0057143 898.21 970.97 2.8997 2.4970 3.3090 298.21 0.032095 22.350 0.063796
243.38 1855.0 undefined 900.71 973.80 2.9045 175.00 0.0057143 900.71 973.80 2.9045 2.5003 3.3078 299.02 0.031821 22.378 0.063942 175.00 0.0057143 900.71 973.80 2.9045 2.5003 3.3078 299.02 0.031821 22.378 0.063942
244.38 1863.3 undefined 903.21 976.62 2.9094 175.00 0.0057143 903.21 976.62 2.9094 2.5035 3.3066 299.82 0.031551 22.406 0.064089 175.00 0.0057143 903.21 976.62 2.9094 2.5035 3.3066 299.82 0.031551 22.406 0.064089
245.38 1871.5 undefined 905.72 979.46 2.9142 175.00 0.0057143 905.72 979.46 2.9142 2.5068 3.3055 300.62 0.031284 22.434 0.064236 175.00 0.0057143 905.72 979.46 2.9142 2.5068 3.3055 300.62 0.031284 22.434 0.064236
246.38 1879.8 undefined 908.23 982.29 2.9190 175.00 0.0057143 908.23 982.29 2.9190 2.5100 3.3044 301.42 0.031019 22.462 0.064383 175.00 0.0057143 908.23 982.29 2.9190 2.5100 3.3044 301.42 0.031019 22.462 0.064383
247.38 1888.0 undefined 910.74 985.12 2.9239 175.00 0.0057143 910.74 985.12 2.9239 2.5133 3.3034 302.22 0.030758 22.490 0.064531 175.00 0.0057143 910.74 985.12 2.9239 2.5133 3.3034 302.22 0.030758 22.490 0.064531
248.38 1896.3 undefined 913.25 987.96 2.9287 175.00 0.0057143 913.25 987.96 2.9287 2.5166 3.3025 303.02 0.030500 22.518 0.064678 175.00 0.0057143 913.25 987.96 2.9287 2.5166 3.3025 303.02 0.030500 22.518 0.064678
249.38 1904.5 undefined 915.77 990.81 2.9335 175.00 0.0057143 915.77 990.81 2.9335 2.5198 3.3016 303.81 0.030245 22.546 0.064826 175.00 0.0057143 915.77 990.81 2.9335 2.5198 3.3016 303.81 0.030245 22.546 0.064826
250.38 1912.7 undefined 918.29 993.65 2.9383 175.00 0.0057143 918.29 993.65 2.9383 2.5231 3.3008 304.60 0.029992 22.574 0.064975 175.00 0.0057143 918.29 993.65 2.9383 2.5231 3.3008 304.60 0.029992 22.574 0.064975
251.38 1921.0 undefined 920.82 996.50 2.9431 175.00 0.0057143 920.82 996.50 2.9431 2.5264 3.3000 305.39 0.029743 22.602 0.065123 175.00 0.0057143 920.82 996.50 2.9431 2.5264 3.3000 305.39 0.029743 22.602 0.065123
252.38 1929.2 undefined 923.35 999.36 2.9480 175.00 0.0057143 923.35 999.36 2.9480 2.5296 3.2993 306.18 0.029496 22.630 0.065272 175.00 0.0057143 923.35 999.36 2.9480 2.5296 3.2993 306.18 0.029496 22.630 0.065272
253.38 1937.4 undefined 925.88 1002.2 2.9528 175.00 0.0057143 925.88 1002.2 2.9528 2.5329 3.2986 306.96 0.029252 22.658 0.065420 175.00 0.0057143 925.88 1002.2 2.9528 2.5329 3.2986 306.96 0.029252 22.658 0.065420
254.38 1945.7 undefined 928.41 1005.1 2.9576 175.00 0.0057143 928.41 1005.1 2.9576 2.5361 3.2980 307.75 0.029010 22.685 0.065570 175.00 0.0057143 928.41 1005.1 2.9576 2.5361 3.2980 307.75 0.029010 22.685 0.065570
255.38 1953.9 undefined 930.95 1007.9 2.9624 175.00 0.0057143 930.95 1007.9 2.9624 2.5394 3.2975 308.53 0.028772 22.713 0.065719 175.00 0.0057143 930.95 1007.9 2.9624 2.5394 3.2975 308.53 0.028772 22.713 0.065719
256.38 1962.1 undefined 933.49 1010.8 2.9672 175.00 0.0057143 933.49 1010.8 2.9672 2.5427 3.2969 309.31 0.028536 22.741 0.065868 175.00 0.0057143 933.49 1010.8 2.9672 2.5427 3.2969 309.31 0.028536 22.741 0.065868
257.38 1970.4 undefined 936.04 1013.7 2.9720 175.00 0.0057143 936.04 1013.7 2.9720 2.5460 3.2965 310.08 0.028302 22.768 0.066017 175.00 0.0057143 936.04 1013.7 2.9720 2.5460 3.2965 310.08 0.028302 22.768 0.066017
258.38 1978.6 undefined 938.58 1016.5 2.9768 175.00 0.0057143 938.58 1016.5 2.9768 2.5492 3.2961 310.86 0.028071 22.796 0.066167 175.00 0.0057143 938.58 1016.5 2.9768 2.5492 3.2961 310.86 0.028071 22.796 0.066167
259.38 1986.8 undefined 941.13 1019.4 2.9816 175.00 0.0057143 941.13 1019.4 2.9816 2.5525 3.2957 311.63 0.027843 22.824 0.066317 175.00 0.0057143 941.13 1019.4 2.9816 2.5525 3.2957 311.63 0.027843 22.824 0.066317
260.38 1995.0 undefined 943.69 1022.3 2.9864 175.00 0.0057143 943.69 1022.3 2.9864 2.5558 3.2954 312.40 0.027617 22.851 0.066467 175.00 0.0057143 943.69 1022.3 2.9864 2.5558 3.2954 312.40 0.027617 22.851 0.066467
261.38 2003.3 undefined 946.25 1025.2 2.9912 175.00 0.0057143 946.25 1025.2 2.9912 2.5590 3.2951 313.17 0.027394 22.879 0.066616 175.00 0.0057143 946.25 1025.2 2.9912 2.5590 3.2951 313.17 0.027394 22.879 0.066616
262.38 2011.5 undefined 948.81 1028.1 2.9959 175.00 0.0057143 948.81 1028.1 2.9959 2.5623 3.2949 313.94 0.027173 22.906 0.066766 175.00 0.0057143 948.81 1028.1 2.9959 2.5623 3.2949 313.94 0.027173 22.906 0.066766
263.38 2019.7 undefined 951.37 1030.9 3.0007 175.00 0.0057143 951.37 1030.9 3.0007 2.5656 3.2947 314.71 0.026954 22.934 0.066916 175.00 0.0057143 951.37 1030.9 3.0007 2.5656 3.2947 314.71 0.026954 22.934 0.066916
264.38 2027.9 undefined 953.94 1033.8 3.0055 175.00 0.0057143 953.94 1033.8 3.0055 2.5688 3.2946 315.47 0.026738 22.961 0.067066 175.00 0.0057143 953.94 1033.8 3.0055 2.5688 3.2946 315.47 0.026738 22.961 0.067066
265.38 2036.1 undefined 956.51 1036.7 3.0103 175.00 0.0057143 956.51 1036.7 3.0103 2.5721 3.2945 316.24 0.026524 22.988 0.067216 175.00 0.0057143 956.51 1036.7 3.0103 2.5721 3.2945 316.24 0.026524 22.988 0.067216
266.38 2044.3 undefined 959.08 1039.6 3.0151 175.00 0.0057143 959.08 1039.6 3.0151 2.5754 3.2944 317.00 0.026312 23.016 0.067365 175.00 0.0057143 959.08 1039.6 3.0151 2.5754 3.2944 317.00 0.026312 23.016 0.067365
267.38 2052.6 undefined 961.66 1042.5 3.0198 175.00 0.0057143 961.66 1042.5 3.0198 2.5786 3.2944 317.75 0.026102 23.043 0.067514 175.00 0.0057143 961.66 1042.5 3.0198 2.5786 3.2944 317.75 0.026102 23.043 0.067514
268.38 2060.8 undefined 964.24 1045.4 3.0246 175.00 0.0057143 964.24 1045.4 3.0246 2.5819 3.2944 318.51 0.025895 23.070 0.067664 175.00 0.0057143 964.24 1045.4 3.0246 2.5819 3.2944 318.51 0.025895 23.070 0.067664
269.38 2069.0 undefined 966.82 1048.3 3.0294 175.00 0.0057143 966.82 1048.3 3.0294 2.5852 3.2945 319.27 0.025690 23.098 0.067812 175.00 0.0057143 966.82 1048.3 3.0294 2.5852 3.2945 319.27 0.025690 23.098 0.067812
270.38 2077.2 undefined 969.41 1051.2 3.0341 175.00 0.0057143 969.41 1051.2 3.0341 2.5885 3.2946 320.02 0.025487 23.125 0.067961 175.00 0.0057143 969.41 1051.2 3.0341 2.5885 3.2946 320.02 0.025487 23.125 0.067961
271.38 2085.4 undefined 972.00 1054.2 3.0389 175.00 0.0057143 972.00 1054.2 3.0389 2.5917 3.2947 320.77 0.025286 23.152 0.068109 175.00 0.0057143 972.00 1054.2 3.0389 2.5917 3.2947 320.77 0.025286 23.152 0.068109
272.38 2093.6 undefined 974.59 1057.1 3.0437 175.00 0.0057143 974.59 1057.1 3.0437 2.5950 3.2949 321.52 0.025088 23.179 0.068256 175.00 0.0057143 974.59 1057.1 3.0437 2.5950 3.2949 321.52 0.025088 23.179 0.068256
273.38 2101.8 undefined 977.19 1060.0 3.0484 175.00 0.0057143 977.19 1060.0 3.0484 2.5983 3.2951 322.27 0.024891 23.206 0.068402 175.00 0.0057143 977.19 1060.0 3.0484 2.5983 3.2951 322.27 0.024891 23.206 0.068402
274.38 2110.0 undefined 979.79 1062.9 3.0532 175.00 0.0057143 979.79 1062.9 3.0532 2.6015 3.2954 323.02 0.024696 23.234 0.068548 175.00 0.0057143 979.79 1062.9 3.0532 2.6015 3.2954 323.02 0.024696 23.234 0.068548
275.38 2118.2 undefined 982.39 1065.8 3.0579 175.00 0.0057143 982.39 1065.8 3.0579 2.6048 3.2957 323.76 0.024504 23.261 0.068692 175.00 0.0057143 982.39 1065.8 3.0579 2.6048 3.2957 323.76 0.024504 23.261 0.068692
276.38 2126.4 undefined 985.00 1068.8 3.0627 175.00 0.0057143 985.00 1068.8 3.0627 2.6081 3.2960 324.50 0.024313 23.288 0.068834 175.00 0.0057143 985.00 1068.8 3.0627 2.6081 3.2960 324.50 0.024313 23.288 0.068834
277.38 2134.6 undefined 987.61 1071.7 3.0674 175.00 0.0057143 987.61 1071.7 3.0674 2.6113 3.2963 325.24 0.024124 23.315 0.068973 175.00 0.0057143 987.61 1071.7 3.0674 2.6113 3.2963 325.24 0.024124 23.315 0.068973
278.38 2142.8 undefined 990.22 1074.6 3.0721 175.00 0.0057143 990.22 1074.6 3.0721 2.6146 3.2967 325.98 0.023937 23.342 0.069109 175.00 0.0057143 990.22 1074.6 3.0721 2.6146 3.2967 325.98 0.023937 23.342 0.069109
279.38 2151.0 undefined 992.84 1077.6 3.0769 175.00 0.0057143 992.84 1077.6 3.0769 2.6179 3.2971 326.72 0.023752 23.369 0.069240 175.00 0.0057143 992.84 1077.6 3.0769 2.6179 3.2971 326.72 0.023752 23.369 0.069240
280.38 2159.2 undefined 995.46 1080.5 3.0816 175.00 0.0057143 995.46 1080.5 3.0816 2.6211 3.2976 327.46 0.023569 23.396 0.069359 175.00 0.0057143 995.46 1080.5 3.0816 2.6211 3.2976 327.46 0.023569 23.396 0.069359
281.38 2167.4 undefined 998.08 1083.5 3.0864 175.00 0.0057143 998.08 1083.5 3.0864 2.6244 3.2980 328.19 0.023388 23.422 0.069443 175.00 0.0057143 998.08 1083.5 3.0864 2.6244 3.2980 328.19 0.023388 23.422 0.069443
282.38 2175.5 undefined 1000.7 1086.4 3.0911 175.00 0.0057143 1000.7 1086.4 3.0911 2.6276 3.2985 328.93 0.023209 23.449 0.069555 175.00 0.0057143 1000.7 1086.4 3.0911 2.6276 3.2985 328.93 0.023209 23.449 0.069555
283.38 2183.7 undefined 1003.3 1089.4 3.0958 175.00 0.0057143 1003.3 1089.4 3.0958 2.6309 3.2991 329.66 0.023031 23.476 0.069729 175.00 0.0057143 1003.3 1089.4 3.0958 2.6309 3.2991 329.66 0.023031 23.476 0.069729
284.38 2191.9 undefined 1006.0 1092.3 3.1005 175.00 0.0057143 1006.0 1092.3 3.1005 2.6342 3.2996 330.39 0.022856 23.503 0.069903 175.00 0.0057143 1006.0 1092.3 3.1005 2.6342 3.2996 330.39 0.022856 23.503 0.069903
285.38 2200.1 undefined 1008.6 1095.3 3.1053 175.00 0.0057143 1008.6 1095.3 3.1053 2.6374 3.3002 331.11 0.022682 23.530 0.070078 175.00 0.0057143 1008.6 1095.3 3.1053 2.6374 3.3002 331.11 0.022682 23.530 0.070078
286.38 2208.3 undefined 1011.2 1098.2 3.1100 175.00 0.0057143 1011.2 1098.2 3.1100 2.6407 3.3008 331.84 0.022509 23.556 0.070253 175.00 0.0057143 1011.2 1098.2 3.1100 2.6407 3.3008 331.84 0.022509 23.556 0.070253
287.38 2216.5 undefined 1013.9 1101.2 3.1147 175.00 0.0057143 1013.9 1101.2 3.1147 2.6439 3.3015 332.56 0.022339 23.583 0.070428 175.00 0.0057143 1013.9 1101.2 3.1147 2.6439 3.3015 332.56 0.022339 23.583 0.070428
288.38 2224.7 undefined 1016.5 1104.2 3.1194 175.00 0.0057143 1016.5 1104.2 3.1194 2.6472 3.3022 333.29 0.022170 23.610 0.070604 175.00 0.0057143 1016.5 1104.2 3.1194 2.6472 3.3022 333.29 0.022170 23.610 0.070604
289.38 2232.8 undefined 1019.2 1107.2 3.1241 175.00 0.0057143 1019.2 1107.2 3.1241 2.6504 3.3029 334.01 0.022002 23.636 0.070780 175.00 0.0057143 1019.2 1107.2 3.1241 2.6504 3.3029 334.01 0.022002 23.636 0.070780
290.38 2241.0 undefined 1021.8 1110.1 3.1288 175.00 0.0057143 1021.8 1110.1 3.1288 2.6537 3.3036 334.73 0.021837 23.663 0.070956 175.00 0.0057143 1021.8 1110.1 3.1288 2.6537 3.3036 334.73 0.021837 23.663 0.070956
291.38 2249.2 undefined 1024.5 1113.1 3.1336 175.00 0.0057143 1024.5 1113.1 3.1336 2.6569 3.3044 335.45 0.021673 23.690 0.071132 175.00 0.0057143 1024.5 1113.1 3.1336 2.6569 3.3044 335.45 0.021673 23.690 0.071132
292.38 2257.4 undefined 1027.1 1116.1 3.1383 175.00 0.0057143 1027.1 1116.1 3.1383 2.6602 3.3051 336.16 0.021510 23.716 0.071309 175.00 0.0057143 1027.1 1116.1 3.1383 2.6602 3.3051 336.16 0.021510 23.716 0.071309
293.38 2265.5 undefined 1029.8 1119.1 3.1430 175.00 0.0057143 1029.8 1119.1 3.1430 2.6634 3.3059 336.88 0.021349 23.743 0.071486 175.00 0.0057143 1029.8 1119.1 3.1430 2.6634 3.3059 336.88 0.021349 23.743 0.071486
294.38 2273.7 undefined 1032.5 1122.1 3.1477 175.00 0.0057143 1032.5 1122.1 3.1477 2.6667 3.3068 337.59 0.021190 23.769 0.071663 175.00 0.0057143 1032.5 1122.1 3.1477 2.6667 3.3068 337.59 0.021190 23.769 0.071663
295.38 2281.9 undefined 1035.1 1125.0 3.1524 175.00 0.0057143 1035.1 1125.0 3.1524 2.6699 3.3076 338.31 0.021032 23.796 0.071841 175.00 0.0057143 1035.1 1125.0 3.1524 2.6699 3.3076 338.31 0.021032 23.796 0.071841
296.38 2290.1 undefined 1037.8 1128.0 3.1571 175.00 0.0057143 1037.8 1128.0 3.1571 2.6732 3.3085 339.02 0.020876 23.822 0.072018 175.00 0.0057143 1037.8 1128.0 3.1571 2.6732 3.3085 339.02 0.020876 23.822 0.072018
297.38 2298.2 undefined 1040.5 1131.0 3.1617 175.00 0.0057143 1040.5 1131.0 3.1617 2.6764 3.3094 339.72 0.020721 23.849 0.072197 175.00 0.0057143 1040.5 1131.0 3.1617 2.6764 3.3094 339.72 0.020721 23.849 0.072197
298.38 2306.4 undefined 1043.2 1134.0 3.1664 175.00 0.0057143 1043.2 1134.0 3.1664 2.6797 3.3103 340.43 0.020568 23.875 0.072375 175.00 0.0057143 1043.2 1134.0 3.1664 2.6797 3.3103 340.43 0.020568 23.875 0.072375
299.38 2314.6 undefined 1045.8 1137.0 3.1711 175.00 0.0057143 1045.8 1137.0 3.1711 2.6829 3.3113 341.14 0.020416 23.901 0.072554 175.00 0.0057143 1045.8 1137.0 3.1711 2.6829 3.3113 341.14 0.020416 23.901 0.072554
300.38 2322.7 undefined 1048.5 1140.0 3.1758 175.00 0.0057143 1048.5 1140.0 3.1758 2.6861 3.3122 341.84 0.020266 23.928 0.072733 175.00 0.0057143 1048.5 1140.0 3.1758 2.6861 3.3122 341.84 0.020266 23.928 0.072733