Temperature (C) Pressure (psia) Quality (l+v) Internal Energy (l+v, kJ/kg) Enthalpy (l+v, kJ/kg) Entropy (l+v, J/g*K) Density (l, kg/m3) Volume (l, m3/kg) Internal Energy (l, kJ/kg) Enthalpy (l, kJ/kg) Entropy (l, J/g*K) Cv (l, J/g*K) Cp (l, J/g*K) Sound Spd. (l, m/s) Joule-Thomson (l, F/psia) Viscosity (l, uPa*s) Therm. Cond. (l, W/m*K) Density (v, kg/m3) Volume (v, m3/kg) Internal Energy (v, kJ/kg) Enthalpy (v, kJ/kg) Entropy (v, J/g*K) Cv (v, J/g*K) Cp (v, J/g*K) Sound Spd. (v, m/s) Joule-Thomson (v, F/psia) Viscosity (v, uPa*s) Therm. Cond. (v, W/m*K)
-187.62 2.4953e-08 5.3198e-09 -196.64 -196.64 -1.3959 733.13 0.0013640 -196.64 -196.64 -1.3959 1.3553 1.9158 2136.4 -0.0077592 10960. 0.20792 1.0669e-08 9.3732e+07 350.13 366.26 5.1858 0.69067 0.87923 143.28 6.1051 2.3259 0.0017061
-186.62 3.7339e-08 7.8684e-09 -194.73 -194.73 -1.3736 732.08 0.0013660 -194.73 -194.73 -1.3736 1.3539 1.9166 2129.6 -0.0077546 10073. 0.20765 1.5780e-08 6.3371e+07 350.82 367.14 5.1200 0.69462 0.88317 144.03 5.9178 2.3534 0.0017533
-185.62 5.5322e-08 1.1525e-08 -192.81 -192.81 -1.3516 731.04 0.0013679 -192.81 -192.81 -1.3516 1.3525 1.9174 2122.9 -0.0077498 9276.1 0.20737 2.3112e-08 4.3267e+07 351.52 368.02 5.0561 0.69857 0.88713 144.77 5.7383 2.3808 0.0018007
-184.62 8.1182e-08 1.6721e-08 -190.89 -190.89 -1.3298 730.00 0.0013699 -190.89 -190.89 -1.3298 1.3513 1.9182 2116.1 -0.0077448 8557.8 0.20708 3.3533e-08 2.9821e+07 352.22 368.91 4.9939 0.70253 0.89108 145.51 5.5662 2.4083 0.0018485
-183.62 1.1803e-07 2.4039e-08 -188.97 -188.97 -1.3083 728.96 0.0013718 -188.97 -188.97 -1.3083 1.3501 1.9191 2109.3 -0.0077395 7909.8 0.20678 4.8211e-08 2.0742e+07 352.92 369.81 4.9333 0.70648 0.89504 146.24 5.4011 2.4357 0.0018965
-182.62 1.7009e-07 3.4258e-08 -187.05 -187.05 -1.2869 727.92 0.0013738 -187.05 -187.05 -1.2869 1.3490 1.9201 2102.5 -0.0077340 7324.3 0.20647 6.8704e-08 1.4555e+07 353.63 370.70 4.8744 0.71043 0.89899 146.97 5.2426 2.4632 0.0019448
-181.62 2.4299e-07 4.8406e-08 -185.13 -185.13 -1.2658 726.88 0.0013757 -185.13 -185.13 -1.2658 1.3480 1.9210 2095.7 -0.0077283 6794.5 0.20616 9.7079e-08 1.0301e+07 354.35 371.60 4.8170 0.71438 0.90294 147.69 5.0904 2.4906 0.0019934
-180.62 3.4425e-07 6.7836e-08 -183.21 -183.21 -1.2450 725.85 0.0013777 -183.21 -183.21 -1.2450 1.3470 1.9220 2088.9 -0.0077225 6314.4 0.20584 1.3605e-07 7.3504e+06 355.06 372.51 4.7612 0.71833 0.90688 148.41 4.9442 2.5181 0.0020423
-179.62 4.8378e-07 9.4314e-08 -181.29 -181.29 -1.2243 724.81 0.0013797 -181.29 -181.29 -1.2243 1.3461 1.9231 2082.0 -0.0077164 5878.8 0.20551 1.8915e-07 5.2868e+06 355.78 373.42 4.7068 0.72227 0.91082 149.13 4.8038 2.5456 0.0020915
-178.62 6.7459e-07 1.3012e-07 -179.37 -179.37 -1.2038 723.78 0.0013816 -179.37 -179.37 -1.2038 1.3453 1.9241 2075.2 -0.0077102 5482.9 0.20517 2.6096e-07 3.8320e+06 356.51 374.33 4.6538 0.72620 0.91475 149.84 4.6688 2.5731 0.0021410
-177.62 9.3358e-07 1.7819e-07 -177.44 -177.44 -1.1836 722.75 0.0013836 -177.44 -177.44 -1.1836 1.3445 1.9252 2068.4 -0.0077039 5122.6 0.20483 3.5737e-07 2.7982e+06 357.23 375.25 4.6022 0.73012 0.91867 150.54 4.5390 2.6005 0.0021907
-176.62 1.2826e-06 2.4227e-07 -175.52 -175.52 -1.1635 721.72 0.0013856 -175.52 -175.52 -1.1635 1.3437 1.9263 2061.5 -0.0076973 4794.1 0.20447 4.8588e-07 2.0581e+06 357.97 376.17 4.5519 0.73403 0.92258 151.25 4.4142 2.6280 0.0022408
-175.62 1.7496e-06 3.2710e-07 -173.59 -173.59 -1.1437 720.69 0.0013876 -173.59 -173.59 -1.1437 1.3430 1.9274 2054.7 -0.0076907 4494.3 0.20411 6.5601e-07 1.5244e+06 358.70 377.09 4.5029 0.73792 0.92648 151.95 4.2941 2.6555 0.0022912
-174.62 2.3705e-06 4.3866e-07 -171.66 -171.66 -1.1240 719.66 0.0013895 -171.66 -171.66 -1.1240 1.3423 1.9286 2047.9 -0.0076838 4220.2 0.20375 8.7976e-07 1.1367e+06 359.44 378.02 4.4551 0.74181 0.93036 152.64 4.1784 2.6830 0.0023418
-173.62 3.1903e-06 5.8444e-07 -169.73 -169.73 -1.1045 718.64 0.0013915 -169.73 -169.73 -1.1045 1.3417 1.9298 2041.0 -0.0076769 3969.3 0.20338 1.1721e-06 8.5314e+05 360.19 378.95 4.4085 0.74568 0.93423 153.33 4.0671 2.7105 0.0023928
-172.62 4.2661e-06 7.7374e-07 -167.80 -167.80 -1.0852 717.61 0.0013935 -167.80 -167.80 -1.0852 1.3411 1.9310 2034.2 -0.0076698 3739.3 0.20300 1.5518e-06 6.4441e+05 360.93 379.89 4.3631 0.74953 0.93809 154.02 3.9599 2.7379 0.0024440
-171.62 5.6692e-06 1.0181e-06 -165.87 -165.87 -1.0661 716.58 0.0013955 -165.87 -165.87 -1.0661 1.3405 1.9322 2027.3 -0.0076625 3528.0 0.20261 2.0419e-06 4.8974e+05 361.69 380.83 4.3188 0.75337 0.94193 154.71 3.8566 2.7654 0.0024955
-170.62 7.4884e-06 1.3317e-06 -163.94 -163.94 -1.0471 715.56 0.0013975 -163.94 -163.94 -1.0472 1.3400 1.9334 2020.5 -0.0076552 3333.8 0.20222 2.6708e-06 3.7442e+05 362.44 381.77 4.2755 0.75720 0.94575 155.39 3.7570 2.7929 0.0025473
-169.62 9.8334e-06 1.7318e-06 -162.00 -162.00 -1.0284 714.54 0.0013995 -162.00 -162.00 -1.0284 1.3395 1.9347 2013.6 -0.0076477 3154.9 0.20182 3.4733e-06 2.8791e+05 363.20 382.72 4.2334 0.76100 0.94956 156.07 3.6609 2.8204 0.0025994
-168.62 1.2839e-05 2.2395e-06 -160.07 -160.07 -1.0098 713.52 0.0014015 -160.07 -160.07 -1.0098 1.3390 1.9359 2006.8 -0.0076401 2989.9 0.20141 4.4917e-06 2.2263e+05 363.96 383.67 4.1922 0.76479 0.95335 156.74 3.5683 2.8479 0.0026518
-167.62 1.6672e-05 2.8805e-06 -158.13 -158.13 -0.99132 712.49 0.0014035 -158.13 -158.13 -0.99134 1.3386 1.9372 2000.0 -0.0076323 2837.5 0.20100 5.7771e-06 1.7310e+05 364.73 384.63 4.1521 0.76856 0.95712 157.41 3.4790 2.8754 0.0027045
-166.62 2.1533e-05 3.6853e-06 -156.19 -156.19 -0.97304 711.47 0.0014055 -156.19 -156.19 -0.97306 1.3382 1.9385 1993.1 -0.0076245 2696.5 0.20058 7.3914e-06 1.3529e+05 365.50 385.59 4.1129 0.77232 0.96087 158.08 3.3927 2.9029 0.0027575
-165.62 2.7666e-05 4.6910e-06 -154.25 -154.25 -0.95492 710.45 0.0014075 -154.25 -154.25 -0.95494 1.3378 1.9398 1986.3 -0.0076165 2566.0 0.20016 9.4084e-06 1.0629e+05 366.27 386.55 4.0746 0.77605 0.96460 158.75 3.3095 2.9304 0.0028108
-164.62 3.5367e-05 5.9414e-06 -152.31 -152.31 -0.93695 709.44 0.0014096 -152.31 -152.31 -0.93698 1.3375 1.9411 1979.4 -0.0076084 2444.9 0.19973 1.1916e-05 83918. 367.05 387.52 4.0372 0.77976 0.96832 159.41 3.2291 2.9579 0.0028643
-163.62 4.4989e-05 7.4889e-06 -150.37 -150.37 -0.91913 708.42 0.0014116 -150.37 -150.37 -0.91917 1.3371 1.9424 1972.6 -0.0076002 2332.3 0.19930 1.5020e-05 66577. 367.83 388.49 4.0008 0.78346 0.97201 160.07 3.1514 2.9854 0.0029182
-162.62 5.6956e-05 9.3951e-06 -148.42 -148.42 -0.90146 707.40 0.0014136 -148.43 -148.43 -0.90151 1.3368 1.9437 1965.8 -0.0075919 2227.7 0.19886 1.8844e-05 53068. 368.62 389.46 3.9651 0.78713 0.97569 160.72 3.0764 3.0129 0.0029723
-161.62 7.1773e-05 1.1733e-05 -146.48 -146.48 -0.88394 706.38 0.0014157 -146.48 -146.48 -0.88400 1.3365 1.9451 1959.0 -0.0075834 2130.2 0.19841 2.3533e-05 42494. 369.41 390.44 3.9304 0.79079 0.97935 161.38 3.0038 3.0404 0.0030268
-160.62 9.0036e-05 1.4588e-05 -144.53 -144.53 -0.86656 705.37 0.0014177 -144.54 -144.54 -0.86663 1.3363 1.9465 1952.1 -0.0075748 2039.2 0.19796 2.9258e-05 34178. 370.20 391.42 3.8964 0.79443 0.98298 162.03 2.9337 3.0679 0.0030815
-159.62 0.00011245 1.8059e-05 -142.58 -142.58 -0.84931 704.35 0.0014197 -142.59 -142.59 -0.84940 1.3360 1.9478 1945.3 -0.0075661 1954.2 0.19751 3.6221e-05 27609. 371.00 392.40 3.8632 0.79805 0.98660 162.68 2.8658 3.0955 0.0031365
-158.62 0.00013985 2.2263e-05 -140.63 -140.63 -0.83221 703.34 0.0014218 -140.64 -140.64 -0.83231 1.3358 1.9492 1938.5 -0.0075573 1874.8 0.19705 4.4652e-05 22395. 371.80 393.39 3.8307 0.80164 0.99020 163.32 2.8002 3.1230 0.0031918
-157.62 0.00017320 2.7333e-05 -138.68 -138.68 -0.81523 702.32 0.0014238 -138.69 -138.69 -0.81536 1.3356 1.9506 1931.7 -0.0075484 1800.3 0.19658 5.4822e-05 18241. 372.60 394.38 3.7990 0.80522 0.99378 163.96 2.7367 3.1505 0.0032474
-156.62 0.00021364 3.3425e-05 -136.72 -136.72 -0.79839 701.31 0.0014259 -136.74 -136.74 -0.79854 1.3354 1.9520 1924.9 -0.0075393 1730.5 0.19611 6.7040e-05 14916. 373.41 395.38 3.7680 0.80878 0.99734 164.60 2.6752 3.1780 0.0033033
-155.62 0.00026248 4.0717e-05 -134.77 -134.77 -0.78167 700.30 0.0014280 -134.79 -134.79 -0.78185 1.3352 1.9534 1918.1 -0.0075302 1664.9 0.19564 8.1666e-05 12245. 374.22 396.38 3.7377 0.81232 1.0009 165.24 2.6157 3.2055 0.0033595
-154.62 0.00032125 4.9413e-05 -132.81 -132.81 -0.76508 699.29 0.0014300 -132.83 -132.83 -0.76530 1.3350 1.9548 1911.3 -0.0075209 1603.3 0.19516 9.9109e-05 10090. 375.03 397.38 3.7081 0.81585 1.0044 165.87 2.5580 3.2330 0.0034160
-153.62 0.00039171 5.9747e-05 -130.85 -130.85 -0.74860 698.27 0.0014321 -130.88 -130.88 -0.74887 1.3349 1.9563 1904.5 -0.0075114 1545.3 0.19468 0.00011984 8344.6 375.85 398.39 3.6792 0.81935 1.0079 166.50 2.5022 3.2606 0.0034727
-152.62 0.00047590 7.1986e-05 -128.89 -128.88 -0.73225 697.26 0.0014342 -128.92 -128.92 -0.73256 1.3348 1.9577 1897.8 -0.0075019 1490.6 0.19419 0.00014439 6925.9 376.67 399.40 3.6509 0.82284 1.0114 167.13 2.4481 3.2881 0.0035298
-151.62 0.00057613 8.6430e-05 -126.92 -126.92 -0.71601 696.25 0.0014363 -126.96 -126.96 -0.71638 1.3346 1.9592 1891.0 -0.0074922 1438.9 0.19370 0.00017336 5768.4 377.49 400.41 3.6232 0.82631 1.0149 167.76 2.3957 3.3156 0.0035872
-150.62 0.00069507 0.00010342 -124.95 -124.95 -0.69987 695.24 0.0014384 -125.00 -125.00 -0.70032 1.3345 1.9606 1884.2 -0.0074824 1390.2 0.19320 0.00020744 4820.7 378.32 401.42 3.5962 0.82976 1.0183 168.38 2.3448 3.3431 0.0036448
-149.62 0.00083574 0.00012334 -122.98 -122.98 -0.68385 694.23 0.0014404 -123.04 -123.04 -0.68438 1.3345 1.9621 1877.4 -0.0074724 1344.0 0.19270 0.00024740 4042.0 379.15 402.44 3.5697 0.83319 1.0218 169.00 2.2956 3.3706 0.0037027
-148.62 0.0010016 0.00014663 -121.01 -121.00 -0.66793 693.22 0.0014425 -121.08 -121.08 -0.66855 1.3344 1.9636 1870.7 -0.0074623 1300.3 0.19220 0.00029412 3400.0 379.99 403.47 3.5438 0.83661 1.0252 169.62 2.2478 3.3982 0.0037610
-147.62 0.0011965 0.00017378 -119.03 -119.02 -0.65211 692.21 0.0014447 -119.11 -119.11 -0.65284 1.3343 1.9651 1863.9 -0.0074521 1258.9 0.19169 0.00034856 2869.0 380.83 404.49 3.5185 0.84001 1.0286 170.24 2.2014 3.4257 0.0038195
-146.62 0.0014249 0.00020531 -117.05 -117.04 -0.63639 691.20 0.0014468 -117.15 -117.15 -0.63724 1.3343 1.9666 1857.2 -0.0074417 1219.6 0.19117 0.00041181 2428.3 381.67 405.52 3.4938 0.84340 1.0320 170.85 2.1565 3.4532 0.0038783
-145.62 0.0016917 0.00024185 -115.06 -115.06 -0.62076 690.19 0.0014489 -115.18 -115.18 -0.62175 1.3343 1.9682 1850.4 -0.0074312 1182.3 0.19066 0.00048510 2061.4 382.51 406.56 3.4695 0.84677 1.0353 171.46 2.1128 3.4807 0.0039374
-144.62 0.0020026 0.00028405 -113.07 -113.06 -0.60522 689.18 0.0014510 -113.21 -113.21 -0.60637 1.3343 1.9697 1843.7 -0.0074206 1146.8 0.19014 0.00056976 1755.1 383.36 407.59 3.4458 0.85012 1.0387 172.07 2.0705 3.5082 0.0039967
-143.62 0.0023637 0.00033268 -111.08 -111.07 -0.58976 688.17 0.0014531 -111.24 -111.24 -0.59110 1.3343 1.9713 1836.9 -0.0074098 1113.0 0.18962 0.00066731 1498.6 384.21 408.63 3.4226 0.85346 1.0420 172.68 2.0294 3.5358 0.0040564
-142.62 0.0027820 0.00038856 -109.08 -109.07 -0.57439 687.16 0.0014553 -109.27 -109.27 -0.57593 1.3343 1.9728 1830.2 -0.0073988 1080.8 0.18909 0.00077939 1283.1 385.07 409.68 3.3999 0.85679 1.0454 173.28 1.9896 3.5633 0.0041164
-141.62 0.0032653 0.00045260 -107.07 -107.06 -0.55909 686.15 0.0014574 -107.30 -107.30 -0.56087 1.3343 1.9744 1823.5 -0.0073878 1050.1 0.18856 0.00090784 1101.5 385.93 410.72 3.3777 0.86011 1.0487 173.88 1.9508 3.5908 0.0041766
-140.62 0.0038222 0.00052580 -105.06 -105.05 -0.54386 685.14 0.0014596 -105.32 -105.32 -0.54591 1.3344 1.9760 1816.7 -0.0073765 1020.7 0.18803 0.0010547 948.16 386.79 411.77 3.3560 0.86341 1.0520 174.48 1.9133 3.6183 0.0042372
-139.62 0.0044623 0.00060927 -103.05 -103.03 -0.52869 684.13 0.0014617 -103.34 -103.34 -0.53105 1.3344 1.9776 1810.0 -0.0073651 992.74 0.18749 0.0012221 818.26 387.65 412.83 3.3347 0.86670 1.0553 175.08 1.8768 3.6459 0.0042980
-138.62 0.0051963 0.00070421 -101.02 -101.00 -0.51359 683.12 0.0014639 -101.37 -101.37 -0.51629 1.3345 1.9792 1803.3 -0.0073536 965.97 0.18695 0.0014125 707.94 388.52 413.88 3.3139 0.86998 1.0586 175.67 1.8413 3.6734 0.0043592
-137.62 0.0060358 0.00081195 -98.989 -98.968 -0.49854 682.11 0.0014660 -99.386 -99.386 -0.50162 1.3346 1.9808 1796.6 -0.0073419 940.35 0.18641 0.0016287 614.00 389.39 414.94 3.2935 0.87325 1.0619 176.26 1.8069 3.7009 0.0044206
-136.62 0.0069938 0.00093393 -96.949 -96.925 -0.48354 681.10 0.0014682 -97.404 -97.404 -0.48705 1.3347 1.9825 1789.9 -0.0073301 915.81 0.18586 0.0018733 533.80 390.26 416.00 3.2735 0.87650 1.0651 176.85 1.7734 3.7284 0.0044823
-135.62 0.0080843 0.0010717 -94.900 -94.872 -0.46859 680.09 0.0014704 -95.421 -95.421 -0.47258 1.3348 1.9841 1783.2 -0.0073180 892.30 0.18531 0.0021497 465.17 391.14 417.07 3.2540 0.87975 1.0684 177.44 1.7409 3.7559 0.0045443
-134.62 0.0093230 0.0012270 -92.841 -92.808 -0.45367 679.08 0.0014726 -93.436 -93.436 -0.45820 1.3350 1.9858 1776.5 -0.0073059 869.75 0.18476 0.0024613 406.30 392.02 418.14 3.2348 0.88299 1.0716 178.02 1.7093 3.7834 0.0046066
-133.62 0.010727 0.0014017 -90.771 -90.734 -0.43878 678.07 0.0014748 -91.450 -91.449 -0.44391 1.3351 1.9875 1769.8 -0.0072935 848.11 0.18421 0.0028116 355.67 392.91 419.21 3.2161 0.88622 1.0749 178.61 1.6786 3.8109 0.0046691
-132.62 0.012315 0.0015977 -88.689 -88.647 -0.42391 677.06 0.0014770 -89.461 -89.461 -0.42971 1.3353 1.9892 1763.1 -0.0072810 827.32 0.18365 0.0032049 312.03 393.79 420.29 3.1977 0.88944 1.0781 179.19 1.6488 3.8385 0.0047320
-131.62 0.014106 0.0018172 -86.595 -86.546 -0.40906 676.04 0.0014792 -87.471 -87.471 -0.41560 1.3354 1.9909 1756.4 -0.0072684 807.34 0.18309 0.0036453 274.33 394.68 421.36 3.1798 0.89266 1.0813 179.76 1.6197 3.8660 0.0047951
-130.62 0.016124 0.0020626 -84.487 -84.432 -0.39422 675.03 0.0014814 -85.479 -85.479 -0.40157 1.3356 1.9926 1749.7 -0.0072555 788.12 0.18253 0.0041375 241.69 395.58 422.44 3.1622 0.89586 1.0846 180.34 1.5915 3.8935 0.0048586
-129.62 0.018392 0.0023364 -82.365 -82.301 -0.37938 674.02 0.0014836 -83.486 -83.486 -0.38763 1.3358 1.9944 1743.0 -0.0072425 769.63 0.18196 0.0046867 213.37 396.47 423.53 3.1450 0.89906 1.0878 180.91 1.5641 3.9210 0.0049223
-128.62 0.020935 0.0026412 -80.226 -80.154 -0.36453 673.01 0.0014859 -81.491 -81.490 -0.37378 1.3360 1.9961 1736.3 -0.0072294 751.83 0.18140 0.0052981 188.75 397.37 424.62 3.1281 0.90226 1.0910 181.48 1.5374 3.9485 0.0049863
-127.62 0.023783 0.0029799 -78.070 -77.988 -0.34967 672.00 0.0014881 -79.494 -79.493 -0.36001 1.3363 1.9979 1729.6 -0.0072160 734.67 0.18083 0.0059776 167.29 398.27 425.71 3.1116 0.90545 1.0942 182.05 1.5114 3.9760 0.0050506
-126.62 0.026966 0.0033557 -75.895 -75.802 -0.33477 670.98 0.0014904 -77.495 -77.495 -0.34632 1.3365 1.9997 1722.9 -0.0072025 718.14 0.18025 0.0067313 148.56 399.18 426.80 3.0954 0.90863 1.0974 182.62 1.4861 4.0035 0.0051152
-125.62 0.030515 0.0037717 -73.701 -73.595 -0.31985 669.97 0.0014926 -75.494 -75.494 -0.33272 1.3368 2.0015 1716.2 -0.0071888 702.18 0.17968 0.0075660 132.17 400.09 427.89 3.0795 0.91181 1.1006 183.18 1.4615 4.0310 0.0051800
-124.62 0.034467 0.0042316 -71.484 -71.365 -0.30487 668.95 0.0014949 -73.492 -73.492 -0.31919 1.3371 2.0033 1709.5 -0.0071749 686.79 0.17910 0.0084885 117.81 401.00 428.99 3.0640 0.91499 1.1038 183.74 1.4375 4.0584 0.0052452
-123.62 0.038859 0.0047391 -69.244 -69.110 -0.28984 667.94 0.0014971 -71.488 -71.487 -0.30574 1.3374 2.0051 1702.8 -0.0071609 671.93 0.17852 0.0095065 105.19 401.91 430.10 3.0488 0.91816 1.1070 184.30 1.4141 4.0859 0.0053106
-122.62 0.043731 0.0052981 -66.979 -66.829 -0.27475 666.92 0.0014994 -69.482 -69.481 -0.29237 1.3377 2.0070 1696.2 -0.0071466 657.57 0.17794 0.010628 94.092 402.83 431.20 3.0339 0.92134 1.1102 184.86 1.3913 4.1134 0.0053764
-121.62 0.049128 0.0059129 -64.687 -64.518 -0.25957 665.91 0.0015017 -67.474 -67.473 -0.27907 1.3380 2.0089 1689.5 -0.0071322 643.70 0.17736 0.011861 84.309 403.75 432.31 3.0193 0.92451 1.1134 185.41 1.3691 4.1409 0.0054424
-120.62 0.055096 0.0065879 -62.367 -62.177 -0.24430 664.89 0.0015040 -65.464 -65.463 -0.26585 1.3384 2.0107 1682.8 -0.0071176 630.28 0.17678 0.013215 75.669 404.67 433.42 3.0050 0.92767 1.1166 185.96 1.3475 4.1683 0.0055087
-119.62 0.061684 0.0073280 -60.015 -59.802 -0.22894 663.87 0.0015063 -63.452 -63.452 -0.25271 1.3387 2.0126 1676.1 -0.0071028 617.30 0.17619 0.014700 68.027 405.60 434.53 2.9909 0.93084 1.1198 186.51 1.3264 4.1958 0.0055752
-118.62 0.068946 0.0081381 -57.630 -57.393 -0.21345 662.86 0.0015086 -61.439 -61.438 -0.23963 1.3391 2.0146 1669.4 -0.0070878 604.74 0.17560 0.016325 61.255 406.53 435.64 2.9772 0.93401 1.1231 187.06 1.3058 4.2233 0.0056421
-117.62 0.076937 0.0090235 -55.210 -54.945 -0.19784 661.84 0.0015109 -59.423 -59.422 -0.22663 1.3395 2.0165 1662.8 -0.0070726 592.58 0.17501 0.018101 55.245 407.46 436.76 2.9638 0.93718 1.1263 187.60 1.2857 4.2507 0.0057092
-116.62 0.085718 0.0099898 -52.752 -52.457 -0.18209 660.82 0.0015133 -57.406 -57.405 -0.21370 1.3400 2.0184 1656.1 -0.0070573 580.80 0.17442 0.020040 49.901 408.39 437.88 2.9506 0.94035 1.1295 188.14 1.2660 4.2782 0.0057767
-115.62 0.095353 0.011043 -50.255 -49.926 -0.16618 659.80 0.0015156 -55.386 -55.385 -0.20084 1.3404 2.0204 1649.4 -0.0070417 569.38 0.17383 0.022152 45.142 409.33 439.01 2.9377 0.94352 1.1327 188.68 1.2468 4.3056 0.0058444
-114.62 0.10591 0.012189 -47.714 -47.349 -0.15011 658.78 0.0015180 -53.365 -53.364 -0.18805 1.3409 2.0224 1642.7 -0.0070260 558.32 0.17323 0.024451 40.898 410.27 440.13 2.9250 0.94669 1.1360 189.22 1.2281 4.3330 0.0059123
-113.62 0.11746 0.013434 -45.127 -44.723 -0.13384 657.76 0.0015203 -51.342 -51.340 -0.17533 1.3413 2.0244 1636.0 -0.0070100 547.59 0.17264 0.026949 37.107 411.21 441.26 2.9126 0.94987 1.1392 189.75 1.2097 4.3604 0.0059806
-112.62 0.13008 0.014786 -42.493 -42.044 -0.11738 656.73 0.0015227 -49.316 -49.315 -0.16267 1.3418 2.0264 1629.3 -0.0069938 537.18 0.17204 0.029661 33.715 412.16 442.39 2.9005 0.95305 1.1424 190.28 1.1918 4.3879 0.0060491
-111.62 0.14384 0.016251 -39.807 -39.311 -0.10070 655.71 0.0015251 -47.289 -47.287 -0.15008 1.3424 2.0285 1622.7 -0.0069774 527.08 0.17144 0.032600 30.675 413.10 443.53 2.8885 0.95623 1.1457 190.81 1.1742 4.4153 0.0061180
-110.62 0.15884 0.017837 -37.067 -36.519 -0.083786 654.69 0.0015274 -45.259 -45.258 -0.13755 1.3429 2.0305 1616.0 -0.0069609 517.28 0.17084 0.035781 27.948 414.06 444.66 2.8769 0.95942 1.1490 191.34 1.1570 4.4427 0.0061871
-109.62 0.17516 0.019551 -34.269 -33.665 -0.066624 653.66 0.0015298 -43.228 -43.226 -0.12509 1.3435 2.0326 1609.3 -0.0069441 507.76 0.17024 0.039220 25.497 415.01 445.80 2.8654 0.96261 1.1522 191.86 1.1402 4.4701 0.0062564
-108.62 0.19290 0.021402 -31.410 -30.745 -0.049195 652.64 0.0015322 -41.194 -41.192 -0.11269 1.3441 2.0347 1602.6 -0.0069271 498.51 0.16964 0.042933 23.292 415.96 446.94 2.8542 0.96581 1.1555 192.38 1.1236 4.4974 0.0063261
-107.62 0.21215 0.023398 -28.487 -27.756 -0.031482 651.61 0.0015347 -39.158 -39.156 -0.10036 1.3447 2.0369 1595.9 -0.0069098 489.52 0.16903 0.046937 21.305 416.92 448.09 2.8433 0.96901 1.1588 192.90 1.1075 4.5248 0.0063960
-106.62 0.23301 0.025548 -25.496 -24.693 -0.013466 650.58 0.0015371 -37.120 -37.118 -0.088082 1.3453 2.0390 1589.2 -0.0068924 480.79 0.16843 0.051250 19.512 417.88 449.23 2.8325 0.97222 1.1621 193.41 1.0916 4.5522 0.0064662
-105.62 0.25561 0.027862 -22.433 -21.552 0.0048699 649.55 0.0015395 -35.080 -35.078 -0.075868 1.3460 2.0412 1582.6 -0.0068747 472.30 0.16782 0.055891 17.892 418.85 450.38 2.8220 0.97544 1.1655 193.93 1.0760 4.5795 0.0065367
-104.62 0.28004 0.030348 -19.295 -18.330 0.023546 648.52 0.0015420 -33.038 -33.035 -0.063714 1.3467 2.0434 1575.9 -0.0068569 464.04 0.16721 0.060878 16.426 419.81 451.53 2.8116 0.97867 1.1688 194.44 1.0608 4.6069 0.0066074
-103.62 0.30643 0.033017 -16.078 -15.021 0.042581 647.49 0.0015444 -30.994 -30.991 -0.051619 1.3474 2.0456 1569.2 -0.0068387 456.00 0.16660 0.066231 15.099 420.78 452.68 2.8015 0.98191 1.1722 194.94 1.0458 4.6342 0.0066785
-102.62 0.33490 0.035878 -12.777 -11.622 0.061995 646.46 0.0015469 -28.947 -28.944 -0.039582 1.3481 2.0478 1562.5 -0.0068204 448.18 0.16600 0.071971 13.894 421.75 453.84 2.7916 0.98516 1.1755 195.44 1.0310 4.6615 0.0067498
-101.62 0.36558 0.038944 -9.3883 -8.1280 0.081808 645.43 0.0015494 -26.898 -26.894 -0.027602 1.3489 2.0501 1555.8 -0.0068018 440.57 0.16539 0.078120 12.801 422.73 454.99 2.7818 0.98841 1.1789 195.95 1.0166 4.6888 0.0068213
-100.62 0.39862 0.042223 -5.9078 -4.5336 0.10204 644.39 0.0015519 -24.847 -24.843 -0.015678 1.3497 2.0524 1549.1 -0.0067830 433.16 0.16478 0.084699 11.807 423.70 456.15 2.7723 0.99168 1.1823 196.44 1.0024 4.7161 0.0068932
-99.625 0.43414 0.045729 -2.3310 -0.83431 0.12271 643.36 0.0015544 -22.794 -22.789 -0.0038103 1.3505 2.0547 1542.4 -0.0067639 425.95 0.16416 0.091731 10.901 424.68 457.31 2.7630 0.99496 1.1858 196.94 0.98838 4.7434 0.0069653
-98.625 0.47230 0.049473 1.3469 2.9751 0.14385 642.32 0.0015569 -20.738 -20.733 0.0080027 1.3514 2.0570 1535.7 -0.0067447 418.92 0.16355 0.099240 10.077 425.66 458.48 2.7538 0.99825 1.1892 197.43 0.97464 4.7707 0.0070377
-97.625 0.51325 0.053467 5.1304 6.8997 0.16546 641.28 0.0015594 -18.680 -18.674 0.019762 1.3522 2.0594 1529.0 -0.0067251 412.07 0.16294 0.10725 9.3239 426.65 459.64 2.7448 1.0016 1.1927 197.92 0.96112 4.7979 0.0071103
-96.625 0.55714 0.057724 9.0243 10.945 0.18758 640.24 0.0015619 -16.620 -16.614 0.031467 1.3531 2.0618 1522.3 -0.0067053 405.39 0.16233 0.11579 8.6365 427.63 460.81 2.7360 1.0049 1.1962 198.40 0.94783 4.8251 0.0071832
-95.625 0.60416 0.062256 13.034 15.116 0.21023 639.20 0.0015645 -14.557 -14.550 0.043120 1.3540 2.0642 1515.7 -0.0066853 398.88 0.16171 0.12488 8.0078 428.62 461.98 2.7274 1.0082 1.1997 198.88 0.93475 4.8524 0.0072564
-94.625 0.65446 0.067077 17.163 19.419 0.23343 638.16 0.0015670 -12.491 -12.484 0.054721 1.3550 2.0667 1509.0 -0.0066650 392.53 0.16110 0.13455 7.4323 429.61 463.15 2.7189 1.0116 1.2032 199.36 0.92188 4.8796 0.0073299
-93.625 0.70822 0.072201 21.419 23.860 0.25720 637.12 0.0015696 -10.424 -10.416 0.066271 1.3560 2.0691 1502.3 -0.0066444 386.34 0.16048 0.14482 6.9050 430.60 464.32 2.7107 1.0149 1.2068 199.83 0.90921 4.9068 0.0074036
-92.625 0.76564 0.077642 25.805 28.444 0.28156 636.07 0.0015722 -8.3535 -8.3452 0.077771 1.3570 2.0716 1495.6 -0.0066236 380.31 0.15987 0.15573 6.4212 431.60 465.49 2.7025 1.0183 1.2104 200.30 0.89673 4.9340 0.0074776
-91.625 0.82689 0.083414 30.327 33.178 0.30654 635.02 0.0015747 -6.2808 -6.2719 0.089220 1.3580 2.0742 1488.9 -0.0066025 374.41 0.15925 0.16731 5.9769 432.59 466.67 2.6946 1.0217 1.2140 200.77 0.88445 4.9611 0.0075518
-90.625 0.89218 0.089532 34.991 38.067 0.33217 633.98 0.0015773 -4.2056 -4.1959 0.10062 1.3591 2.0767 1482.2 -0.0065811 368.66 0.15864 0.17958 5.5685 433.59 467.84 2.6868 1.0251 1.2177 201.24 0.87236 4.9883 0.0076263
-89.625 0.96172 0.096013 39.803 43.118 0.35846 632.93 0.0015800 -2.1279 -2.1174 0.11197 1.3602 2.0793 1475.5 -0.0065595 363.05 0.15802 0.19258 5.1928 434.59 469.02 2.6791 1.0285 1.2213 201.70 0.86045 5.0154 0.0077011
-88.625 1.0357 0.10287 44.767 48.338 0.38543 631.88 0.0015826 -0.047516 -0.036215 0.12328 1.3613 2.0819 1468.8 -0.0065375 357.56 0.15740 0.20633 4.8466 435.59 470.20 2.6717 1.0320 1.2250 202.15 0.84873 5.0425 0.0077761
-87.625 1.1144 0.11012 49.891 53.732 0.41312 630.83 0.0015852 2.0355 2.0476 0.13454 1.3625 2.0846 1462.1 -0.0065153 352.21 0.15679 0.22087 4.5276 436.60 471.39 2.6643 1.0354 1.2288 202.61 0.83718 5.0696 0.0078514
-86.625 1.1979 0.11779 55.179 59.309 0.44155 629.77 0.0015879 4.1211 4.1342 0.14575 1.3637 2.0873 1455.4 -0.0064928 346.98 0.15617 0.23623 4.2331 437.61 472.57 2.6571 1.0389 1.2325 203.06 0.82580 5.0967 0.0079270
-85.625 1.2866 0.12587 60.638 65.074 0.47074 628.72 0.0015905 6.2094 6.2235 0.15691 1.3649 2.0900 1448.8 -0.0064701 341.87 0.15555 0.25245 3.9612 438.61 473.75 2.6501 1.0424 1.2363 203.50 0.81460 5.1237 0.0080028
-84.625 1.3806 0.13441 66.274 71.034 0.50071 627.66 0.0015932 8.3004 8.3155 0.16803 1.3661 2.0927 1442.1 -0.0064470 336.87 0.15494 0.26956 3.7097 439.63 474.94 2.6432 1.0460 1.2402 203.95 0.80356 5.1508 0.0080789
-83.625 1.4803 0.14341 72.093 77.196 0.53150 626.60 0.0015959 10.394 10.410 0.17911 1.3674 2.0955 1435.4 -0.0064236 331.99 0.15432 0.28760 3.4771 440.64 476.13 2.6364 1.0495 1.2440 204.38 0.79269 5.1778 0.0081553
-82.625 1.5858 0.15288 78.102 83.569 0.56312 625.54 0.0015986 12.491 12.508 0.19014 1.3687 2.0983 1428.7 -0.0063999 327.22 0.15370 0.30659 3.2616 441.65 477.31 2.6298 1.0531 1.2479 204.82 0.78199 5.2048 0.0082319
-81.625 1.6975 0.16286 84.306 90.158 0.59560 624.48 0.0016013 14.590 14.609 0.20113 1.3700 2.1012 1422.0 -0.0063759 322.55 0.15309 0.32659 3.0619 442.67 478.50 2.6233 1.0567 1.2519 205.25 0.77144 5.2318 0.0083088
-80.625 1.8155 0.17335 90.713 96.971 0.62896 623.42 0.0016041 16.692 16.712 0.21208 1.3714 2.1041 1415.4 -0.0063516 317.99 0.15247 0.34763 2.8766 443.69 479.70 2.6169 1.0603 1.2558 205.67 0.76106 5.2587 0.0083860
-79.625 1.9402 0.18438 97.328 104.02 0.66323 622.36 0.0016068 18.797 18.819 0.22299 1.3728 2.1070 1408.7 -0.0063270 313.52 0.15186 0.36974 2.7046 444.71 480.89 2.6106 1.0639 1.2598 206.10 0.75083 5.2857 0.0084634
-78.625 2.0718 0.19597 104.16 111.30 0.69844 621.29 0.0016096 20.905 20.928 0.23385 1.3742 2.1099 1402.0 -0.0063021 309.15 0.15124 0.39296 2.5448 445.73 482.08 2.6045 1.0676 1.2639 206.51 0.74076 5.3126 0.0085411
-77.625 2.2107 0.20814 111.21 118.83 0.73460 620.22 0.0016123 23.016 23.040 0.24468 1.3757 2.1129 1395.3 -0.0062768 304.88 0.15062 0.41735 2.3961 446.75 483.27 2.5985 1.0712 1.2680 206.93 0.73084 5.3395 0.0086190
-76.625 2.3571 0.22090 118.49 126.62 0.77175 619.15 0.0016151 25.130 25.156 0.25546 1.3772 2.1159 1388.7 -0.0062512 300.69 0.15001 0.44292 2.2577 447.78 484.47 2.5926 1.0749 1.2721 207.34 0.72107 5.3664 0.0086972
-75.625 2.5113 0.23429 126.01 134.67 0.80991 618.08 0.0016179 27.247 27.275 0.26620 1.3787 2.1190 1382.0 -0.0062253 296.59 0.14939 0.46974 2.1288 448.81 485.67 2.5869 1.0787 1.2762 207.74 0.71146 5.3933 0.0087757
-74.625 2.6736 0.24831 133.77 142.99 0.84910 617.01 0.0016207 29.366 29.396 0.27691 1.3802 2.1221 1375.4 -0.0061990 292.58 0.14878 0.49783 2.0087 449.83 486.86 2.5812 1.0824 1.2804 208.14 0.70200 5.4201 0.0088544
-73.625 2.8444 0.26300 141.78 151.59 0.88935 615.93 0.0016236 31.489 31.521 0.28758 1.3818 2.1252 1368.7 -0.0061724 288.65 0.14816 0.52725 1.8966 450.86 488.06 2.5757 1.0862 1.2847 208.54 0.69268 5.4469 0.0089334
-72.625 3.0240 0.27837 150.05 160.48 0.93068 614.85 0.0016264 33.615 33.649 0.29821 1.3834 2.1284 1362.0 -0.0061454 284.81 0.14755 0.55804 1.7920 451.90 489.26 2.5703 1.0900 1.2889 208.93 0.68351 5.4737 0.0090126
-71.625 3.2127 0.29444 158.58 169.66 0.97311 613.78 0.0016293 35.745 35.781 0.30880 1.3851 2.1316 1355.4 -0.0061181 281.03 0.14694 0.59024 1.6942 452.93 490.46 2.5650 1.0938 1.2932 209.32 0.67448 5.5005 0.0090922
-70.625 3.4108 0.31125 167.38 179.14 1.0167 612.69 0.0016321 37.877 37.915 0.31935 1.3867 2.1349 1348.7 -0.0060904 277.34 0.14632 0.62390 1.6028 453.96 491.66 2.5598 1.0976 1.2976 209.70 0.66560 5.5273 0.0091720
-69.625 3.6187 0.32881 176.46 188.94 1.0614 611.61 0.0016350 40.013 40.053 0.32987 1.3884 2.1382 1342.1 -0.0060624 273.72 0.14571 0.65906 1.5173 455.00 492.86 2.5547 1.1015 1.3020 210.08 0.65687 5.5540 0.0092520
-68.625 3.8367 0.34714 185.83 199.06 1.1073 610.53 0.0016379 42.152 42.195 0.34036 1.3902 2.1415 1335.5 -0.0060339 270.17 0.14510 0.69577 1.4372 456.04 494.06 2.5497 1.1054 1.3064 210.45 0.64827 5.5807 0.0093324
-67.625 4.0652 0.36628 195.49 209.50 1.1544 609.44 0.0016409 44.294 44.340 0.35080 1.3919 2.1449 1328.8 -0.0060051 266.69 0.14449 0.73408 1.3622 457.08 495.26 2.5448 1.1093 1.3109 210.82 0.63981 5.6074 0.0094130
-66.625 4.3046 0.38624 205.45 220.29 1.2028 608.35 0.0016438 46.439 46.488 0.36122 1.3937 2.1483 1322.2 -0.0059760 263.28 0.14388 0.77404 1.2919 458.12 496.46 2.5400 1.1133 1.3154 211.18 0.63150 5.6341 0.0094939
-65.625 4.5551 0.40705 215.71 231.42 1.2523 607.26 0.0016467 48.588 48.640 0.37160 1.3955 2.1518 1315.6 -0.0059464 259.93 0.14327 0.81570 1.2259 459.16 497.67 2.5353 1.1172 1.3200 211.54 0.62332 5.6608 0.0095750
-64.625 4.8173 0.42874 226.29 242.90 1.3032 606.16 0.0016497 50.740 50.795 0.38195 1.3974 2.1553 1308.9 -0.0059164 256.65 0.14266 0.85910 1.1640 460.21 498.87 2.5307 1.1212 1.3246 211.89 0.61527 5.6874 0.0096564
-63.625 5.0915 0.45133 237.20 254.75 1.3554 605.07 0.0016527 52.896 52.954 0.39226 1.3993 2.1588 1302.3 -0.0058861 253.42 0.14205 0.90429 1.1058 461.25 500.07 2.5262 1.1252 1.3293 212.24 0.60736 5.7140 0.0097382
-62.625 5.3781 0.47484 248.43 266.97 1.4089 603.97 0.0016557 55.055 55.117 0.40254 1.4012 2.1624 1295.7 -0.0058553 250.26 0.14144 0.95134 1.0511 462.30 501.28 2.5218 1.1293 1.3340 212.58 0.59958 5.7406 0.0098201
-61.625 5.6774 0.49931 260.00 279.57 1.4637 602.87 0.0016587 57.218 57.283 0.41279 1.4031 2.1660 1289.1 -0.0058241 247.16 0.14084 1.0003 0.99972 463.35 502.48 2.5175 1.1333 1.3387 212.92 0.59194 5.7672 0.0099024
-60.625 5.9899 0.52476 271.92 292.57 1.5199 601.77 0.0016618 59.385 59.453 0.42301 1.4051 2.1697 1282.5 -0.0057925 244.12 0.14023 1.0512 0.95131 464.40 503.68 2.5133 1.1374 1.3435 213.26 0.58442 5.7938 0.0099850
-59.625 6.3160 0.55122 284.19 305.96 1.5775 600.66 0.0016648 61.554 61.627 0.43320 1.4071 2.1734 1275.9 -0.0057605 241.13 0.13962 1.1041 0.90573 465.45 504.89 2.5091 1.1415 1.3483 213.58 0.57704 5.8203 0.010068
-58.625 6.6561 0.57871 296.82 319.76 1.6365 599.55 0.0016679 63.728 63.805 0.44335 1.4091 2.1772 1269.3 -0.0057280 238.19 0.13902 1.1591 0.86277 466.50 506.09 2.5051 1.1457 1.3532 213.90 0.56978 5.8468 0.010151
-57.625 7.0107 0.60727 309.81 333.98 1.6969 598.44 0.0016710 65.905 65.986 0.45348 1.4111 2.1810 1262.7 -0.0056951 235.31 0.13842 1.2161 0.82228 467.55 507.30 2.5011 1.1498 1.3581 214.22 0.56265 5.8733 0.010234
-56.625 7.3801 0.63692 323.18 348.63 1.7588 597.33 0.0016741 68.086 68.172 0.46358 1.4132 2.1848 1256.1 -0.0056617 232.48 0.13781 1.2754 0.78408 468.60 508.50 2.4972 1.1540 1.3631 214.53 0.55564 5.8998 0.010318
-55.625 7.7648 0.66769 336.94 363.71 1.8222 596.22 0.0016772 70.271 70.361 0.47364 1.4153 2.1887 1249.5 -0.0056279 229.69 0.13721 1.3369 0.74802 469.66 509.71 2.4934 1.1582 1.3681 214.84 0.54875 5.9263 0.010402
-54.625 8.1652 0.69961 351.08 379.23 1.8871 595.10 0.0016804 72.460 72.554 0.48368 1.4174 2.1927 1242.9 -0.0055937 226.96 0.13661 1.4006 0.71396 470.72 510.91 2.4897 1.1624 1.3731 215.14 0.54199 5.9527 0.010486
-53.625 8.5819 0.73271 365.63 395.21 1.9535 593.98 0.0016836 74.652 74.752 0.49369 1.4196 2.1967 1236.3 -0.0055589 224.27 0.13601 1.4667 0.68178 471.77 512.11 2.4860 1.1667 1.3782 215.43 0.53535 5.9792 0.010571
-52.625 9.0151 0.76702 380.58 411.66 2.0214 592.86 0.0016867 76.849 76.954 0.50368 1.4218 2.2007 1229.8 -0.0055237 221.63 0.13541 1.5353 0.65136 472.83 513.32 2.4824 1.1710 1.3834 215.72 0.52882 6.0056 0.010656
-51.625 9.4655 0.80258 395.94 428.57 2.0909 591.73 0.0016900 79.049 79.159 0.51363 1.4240 2.2048 1223.2 -0.0054880 219.04 0.13482 1.6062 0.62258 473.89 514.52 2.4789 1.1752 1.3886 216.00 0.52241 6.0320 0.010741
-50.625 9.9335 0.83940 411.72 445.97 2.1620 590.60 0.0016932 81.253 81.369 0.52356 1.4262 2.2089 1216.6 -0.0054519 216.48 0.13422 1.6797 0.59534 474.95 515.73 2.4755 1.1796 1.3938 216.28 0.51612 6.0584 0.010827
-49.625 10.419 0.87753 427.94 463.86 2.2347 589.47 0.0016964 83.462 83.584 0.53347 1.4285 2.2131 1210.1 -0.0054152 213.98 0.13363 1.7558 0.56954 476.01 516.93 2.4722 1.1839 1.3991 216.55 0.50994 6.0848 0.010913
-48.625 10.924 0.91700 444.59 482.25 2.3090 588.34 0.0016997 85.674 85.802 0.54334 1.4308 2.2173 1203.5 -0.0053780 211.51 0.13303 1.8345 0.54510 477.07 518.13 2.4689 1.1883 1.4044 216.82 0.50387 6.1112 0.010999
-47.625 11.448 0.95783 461.68 501.15 2.3850 587.20 0.0017030 87.891 88.025 0.55319 1.4331 2.2216 1196.9 -0.0053403 209.08 0.13244 1.9159 0.52194 478.14 519.33 2.4657 1.1927 1.4098 217.08 0.49792 6.1375 0.011085
-46.625 11.990 undefined 479.20 520.53 2.4625 2.0000 0.50000 479.20 520.53 2.4625 1.1971 1.4153 217.33 0.49207 6.1639 0.011172 2.0000 0.50000 479.20 520.53 2.4625 1.1971 1.4153 217.33 0.49207 6.1639 0.011172
-45.625 12.047 undefined 480.40 521.93 2.4678 2.0000 0.50000 480.40 521.93 2.4678 1.2007 1.4185 217.81 0.48547 6.1915 0.011262 2.0000 0.50000 480.40 521.93 2.4678 1.2007 1.4185 217.81 0.48547 6.1915 0.011262
-44.625 12.103 undefined 481.60 523.33 2.4731 2.0000 0.50000 481.60 523.33 2.4731 1.2042 1.4217 218.28 0.47898 6.2192 0.011351 2.0000 0.50000 481.60 523.33 2.4731 1.2042 1.4217 218.28 0.47898 6.2192 0.011351
-43.625 12.160 undefined 482.81 524.73 2.4783 2.0000 0.50000 482.81 524.73 2.4783 1.2079 1.4250 218.76 0.47261 6.2469 0.011441 2.0000 0.50000 482.81 524.73 2.4783 1.2079 1.4250 218.76 0.47261 6.2469 0.011441
-42.625 12.217 undefined 484.02 526.14 2.4836 2.0000 0.50000 484.02 526.14 2.4836 1.2115 1.4283 219.23 0.46634 6.2745 0.011531 2.0000 0.50000 484.02 526.14 2.4836 1.2115 1.4283 219.23 0.46634 6.2745 0.011531
-41.625 12.274 undefined 485.23 527.54 2.4889 2.0000 0.50000 485.23 527.54 2.4889 1.2151 1.4316 219.70 0.46019 6.3022 0.011622 2.0000 0.50000 485.23 527.54 2.4889 1.2151 1.4316 219.70 0.46019 6.3022 0.011622
-40.625 12.331 undefined 486.45 528.96 2.4941 2.0000 0.50000 486.45 528.96 2.4941 1.2187 1.4349 220.17 0.45413 6.3298 0.011713 2.0000 0.50000 486.45 528.96 2.4941 1.2187 1.4349 220.17 0.45413 6.3298 0.011713
-39.625 12.387 undefined 487.67 530.37 2.4993 2.0000 0.50000 487.67 530.37 2.4993 1.2224 1.4383 220.64 0.44819 6.3574 0.011804 2.0000 0.50000 487.67 530.37 2.4993 1.2224 1.4383 220.64 0.44819 6.3574 0.011804
-38.625 12.444 undefined 488.89 531.79 2.5046 2.0000 0.50000 488.89 531.79 2.5046 1.2260 1.4416 221.11 0.44234 6.3850 0.011895 2.0000 0.50000 488.89 531.79 2.5046 1.2260 1.4416 221.11 0.44234 6.3850 0.011895
-37.625 12.501 undefined 490.12 533.22 2.5098 2.0000 0.50000 490.12 533.22 2.5098 1.2297 1.4450 221.57 0.43660 6.4126 0.011987 2.0000 0.50000 490.12 533.22 2.5098 1.2297 1.4450 221.57 0.43660 6.4126 0.011987
-36.625 12.558 undefined 491.35 534.64 2.5150 2.0000 0.50000 491.35 534.64 2.5150 1.2334 1.4484 222.04 0.43095 6.4402 0.012079 2.0000 0.50000 491.35 534.64 2.5150 1.2334 1.4484 222.04 0.43095 6.4402 0.012079
-35.625 12.614 undefined 492.59 536.07 2.5202 2.0000 0.50000 492.59 536.07 2.5202 1.2371 1.4518 222.50 0.42540 6.4678 0.012171 2.0000 0.50000 492.59 536.07 2.5202 1.2371 1.4518 222.50 0.42540 6.4678 0.012171
-34.625 12.671 undefined 493.83 537.51 2.5254 2.0000 0.50000 493.83 537.51 2.5254 1.2408 1.4552 222.96 0.41994 6.4954 0.012264 2.0000 0.50000 493.83 537.51 2.5254 1.2408 1.4552 222.96 0.41994 6.4954 0.012264
-33.625 12.727 undefined 495.07 538.95 2.5306 2.0000 0.50000 495.07 538.95 2.5306 1.2445 1.4587 223.42 0.41458 6.5230 0.012357 2.0000 0.50000 495.07 538.95 2.5306 1.2445 1.4587 223.42 0.41458 6.5230 0.012357
-32.625 12.784 undefined 496.32 540.39 2.5358 2.0000 0.50000 496.32 540.39 2.5358 1.2482 1.4621 223.88 0.40930 6.5505 0.012450 2.0000 0.50000 496.32 540.39 2.5358 1.2482 1.4621 223.88 0.40930 6.5505 0.012450
-31.625 12.841 undefined 497.57 541.83 2.5410 2.0000 0.50000 497.57 541.83 2.5410 1.2520 1.4656 224.33 0.40412 6.5781 0.012543 2.0000 0.50000 497.57 541.83 2.5410 1.2520 1.4656 224.33 0.40412 6.5781 0.012543
-30.625 12.897 undefined 498.82 543.28 2.5462 2.0000 0.50000 498.82 543.28 2.5462 1.2558 1.4691 224.79 0.39902 6.6056 0.012637 2.0000 0.50000 498.82 543.28 2.5462 1.2558 1.4691 224.79 0.39902 6.6056 0.012637
-29.625 12.954 undefined 500.08 544.73 2.5514 2.0000 0.50000 500.08 544.73 2.5514 1.2595 1.4726 225.24 0.39401 6.6332 0.012731 2.0000 0.50000 500.08 544.73 2.5514 1.2595 1.4726 225.24 0.39401 6.6332 0.012731
-28.625 13.010 undefined 501.34 546.19 2.5565 2.0000 0.50000 501.34 546.19 2.5565 1.2633 1.4761 225.70 0.38908 6.6607 0.012825 2.0000 0.50000 501.34 546.19 2.5565 1.2633 1.4761 225.70 0.38908 6.6607 0.012825
-27.625 13.067 undefined 502.60 547.65 2.5617 2.0000 0.50000 502.60 547.65 2.5617 1.2671 1.4797 226.15 0.38423 6.6882 0.012920 2.0000 0.50000 502.60 547.65 2.5617 1.2671 1.4797 226.15 0.38423 6.6882 0.012920
-26.625 13.123 undefined 503.87 549.11 2.5669 2.0000 0.50000 503.87 549.11 2.5669 1.2709 1.4832 226.60 0.37946 6.7157 0.013015 2.0000 0.50000 503.87 549.11 2.5669 1.2709 1.4832 226.60 0.37946 6.7157 0.013015
-25.625 13.180 undefined 505.15 550.58 2.5720 2.0000 0.50000 505.15 550.58 2.5720 1.2748 1.4868 227.05 0.37478 6.7432 0.013110 2.0000 0.50000 505.15 550.58 2.5720 1.2748 1.4868 227.05 0.37478 6.7432 0.013110
-24.625 13.236 undefined 506.42 552.05 2.5772 2.0000 0.50000 506.42 552.05 2.5772 1.2786 1.4904 227.50 0.37017 6.7707 0.013206 2.0000 0.50000 506.42 552.05 2.5772 1.2786 1.4904 227.50 0.37017 6.7707 0.013206
-23.625 13.292 undefined 507.70 553.53 2.5823 2.0000 0.50000 507.70 553.53 2.5823 1.2824 1.4940 227.94 0.36563 6.7982 0.013302 2.0000 0.50000 507.70 553.53 2.5823 1.2824 1.4940 227.94 0.36563 6.7982 0.013302
-22.625 13.349 undefined 508.99 555.01 2.5874 2.0000 0.50000 508.99 555.01 2.5874 1.2863 1.4977 228.39 0.36117 6.8257 0.013398 2.0000 0.50000 508.99 555.01 2.5874 1.2863 1.4977 228.39 0.36117 6.8257 0.013398
-21.625 13.405 undefined 510.28 556.49 2.5926 2.0000 0.50000 510.28 556.49 2.5926 1.2902 1.5013 228.83 0.35679 6.8531 0.013494 2.0000 0.50000 510.28 556.49 2.5926 1.2902 1.5013 228.83 0.35679 6.8531 0.013494
-20.625 13.462 undefined 511.57 557.98 2.5977 2.0000 0.50000 511.57 557.98 2.5977 1.2941 1.5050 229.27 0.35247 6.8806 0.013591 2.0000 0.50000 511.57 557.98 2.5977 1.2941 1.5050 229.27 0.35247 6.8806 0.013591
-19.625 13.518 undefined 512.86 559.47 2.6028 2.0000 0.50000 512.86 559.47 2.6028 1.2980 1.5087 229.72 0.34823 6.9080 0.013688 2.0000 0.50000 512.86 559.47 2.6028 1.2980 1.5087 229.72 0.34823 6.9080 0.013688
-18.625 13.574 undefined 514.16 560.96 2.6079 2.0000 0.50000 514.16 560.96 2.6079 1.3019 1.5124 230.16 0.34405 6.9355 0.013785 2.0000 0.50000 514.16 560.96 2.6079 1.3019 1.5124 230.16 0.34405 6.9355 0.013785
-17.625 13.631 undefined 515.47 562.46 2.6130 2.0000 0.50000 515.47 562.46 2.6130 1.3058 1.5161 230.60 0.33994 6.9629 0.013882 2.0000 0.50000 515.47 562.46 2.6130 1.3058 1.5161 230.60 0.33994 6.9629 0.013882
-16.625 13.687 undefined 516.78 563.96 2.6182 2.0000 0.50000 516.78 563.96 2.6182 1.3098 1.5198 231.03 0.33590 6.9903 0.013980 2.0000 0.50000 516.78 563.96 2.6182 1.3098 1.5198 231.03 0.33590 6.9903 0.013980
-15.625 13.743 undefined 518.09 565.47 2.6233 2.0000 0.50000 518.09 565.47 2.6233 1.3137 1.5235 231.47 0.33192 7.0177 0.014078 2.0000 0.50000 518.09 565.47 2.6233 1.3137 1.5235 231.47 0.33192 7.0177 0.014078
-14.625 13.800 undefined 519.40 566.98 2.6284 2.0000 0.50000 519.40 566.98 2.6284 1.3177 1.5273 231.91 0.32800 7.0451 0.014177 2.0000 0.50000 519.40 566.98 2.6284 1.3177 1.5273 231.91 0.32800 7.0451 0.014177
-13.625 13.856 undefined 520.72 568.49 2.6334 2.0000 0.50000 520.72 568.49 2.6334 1.3217 1.5311 232.34 0.32415 7.0725 0.014276 2.0000 0.50000 520.72 568.49 2.6334 1.3217 1.5311 232.34 0.32415 7.0725 0.014276
-12.625 13.912 undefined 522.05 570.01 2.6385 2.0000 0.50000 522.05 570.01 2.6385 1.3256 1.5349 232.77 0.32036 7.0999 0.014375 2.0000 0.50000 522.05 570.01 2.6385 1.3256 1.5349 232.77 0.32036 7.0999 0.014375
-11.625 13.968 undefined 523.37 571.53 2.6436 2.0000 0.50000 523.37 571.53 2.6436 1.3296 1.5387 233.21 0.31662 7.1272 0.014474 2.0000 0.50000 523.37 571.53 2.6436 1.3296 1.5387 233.21 0.31662 7.1272 0.014474
-10.625 14.024 undefined 524.71 573.05 2.6487 2.0000 0.50000 524.71 573.05 2.6487 1.3337 1.5425 233.64 0.31295 7.1546 0.014573 2.0000 0.50000 524.71 573.05 2.6487 1.3337 1.5425 233.64 0.31295 7.1546 0.014573
-9.6250 14.081 undefined 526.04 574.58 2.6538 2.0000 0.50000 526.04 574.58 2.6538 1.3377 1.5463 234.07 0.30933 7.1819 0.014673 2.0000 0.50000 526.04 574.58 2.6538 1.3377 1.5463 234.07 0.30933 7.1819 0.014673
-8.6250 14.137 undefined 527.38 576.12 2.6589 2.0000 0.50000 527.38 576.12 2.6589 1.3417 1.5502 234.49 0.30577 7.2093 0.014773 2.0000 0.50000 527.38 576.12 2.6589 1.3417 1.5502 234.49 0.30577 7.2093 0.014773
-7.6250 14.193 undefined 528.73 577.65 2.6639 2.0000 0.50000 528.73 577.65 2.6639 1.3458 1.5540 234.92 0.30227 7.2366 0.014874 2.0000 0.50000 528.73 577.65 2.6639 1.3458 1.5540 234.92 0.30227 7.2366 0.014874
-6.6250 14.249 undefined 530.07 579.20 2.6690 2.0000 0.50000 530.07 579.20 2.6690 1.3498 1.5579 235.35 0.29882 7.2639 0.014975 2.0000 0.50000 530.07 579.20 2.6690 1.3498 1.5579 235.35 0.29882 7.2639 0.014975
-5.6250 14.305 undefined 531.42 580.74 2.6741 2.0000 0.50000 531.42 580.74 2.6741 1.3539 1.5618 235.77 0.29542 7.2912 0.015076 2.0000 0.50000 531.42 580.74 2.6741 1.3539 1.5618 235.77 0.29542 7.2912 0.015076
-4.6250 14.361 undefined 532.78 582.29 2.6791 2.0000 0.50000 532.78 582.29 2.6791 1.3580 1.5657 236.20 0.29207 7.3185 0.015177 2.0000 0.50000 532.78 582.29 2.6791 1.3580 1.5657 236.20 0.29207 7.3185 0.015177
-3.6250 14.418 undefined 534.14 583.84 2.6842 2.0000 0.50000 534.14 583.84 2.6842 1.3621 1.5696 236.62 0.28878 7.3458 0.015279 2.0000 0.50000 534.14 583.84 2.6842 1.3621 1.5696 236.62 0.28878 7.3458 0.015279
-2.6250 14.474 undefined 535.50 585.40 2.6892 2.0000 0.50000 535.50 585.40 2.6892 1.3662 1.5736 237.05 0.28553 7.3731 0.015381 2.0000 0.50000 535.50 585.40 2.6892 1.3662 1.5736 237.05 0.28553 7.3731 0.015381
-1.6250 14.530 undefined 536.87 586.96 2.6943 2.0000 0.50000 536.87 586.96 2.6943 1.3703 1.5775 237.47 0.28234 7.4003 0.015483 2.0000 0.50000 536.87 586.96 2.6943 1.3703 1.5775 237.47 0.28234 7.4003 0.015483
-0.62500 14.586 undefined 538.25 588.53 2.6993 2.0000 0.50000 538.25 588.53 2.6993 1.3744 1.5815 237.89 0.27919 7.4276 0.015585 2.0000 0.50000 538.25 588.53 2.6993 1.3744 1.5815 237.89 0.27919 7.4276 0.015585
0.37500 14.642 undefined 539.62 590.10 2.7044 2.0000 0.50000 539.62 590.10 2.7044 1.3785 1.5854 238.31 0.27609 7.4548 0.015688 2.0000 0.50000 539.62 590.10 2.7044 1.3785 1.5854 238.31 0.27609 7.4548 0.015688
1.3750 14.698 undefined 541.00 591.67 2.7094 2.0000 0.50000 541.00 591.67 2.7094 1.3827 1.5894 238.73 0.27303 7.4820 0.015791 2.0000 0.50000 541.00 591.67 2.7094 1.3827 1.5894 238.73 0.27303 7.4820 0.015791
2.3750 14.754 undefined 542.39 593.25 2.7144 2.0000 0.50000 542.39 593.25 2.7144 1.3868 1.5934 239.14 0.27003 7.5093 0.015895 2.0000 0.50000 542.39 593.25 2.7144 1.3868 1.5934 239.14 0.27003 7.5093 0.015895
3.3750 14.810 undefined 543.78 594.83 2.7195 2.0000 0.50000 543.78 594.83 2.7195 1.3910 1.5974 239.56 0.26706 7.5365 0.015998 2.0000 0.50000 543.78 594.83 2.7195 1.3910 1.5974 239.56 0.26706 7.5365 0.015998
4.3750 14.866 undefined 545.17 596.42 2.7245 2.0000 0.50000 545.17 596.42 2.7245 1.3952 1.6015 239.97 0.26414 7.5637 0.016102 2.0000 0.50000 545.17 596.42 2.7245 1.3952 1.6015 239.97 0.26414 7.5637 0.016102
5.3750 14.922 undefined 546.57 598.01 2.7295 2.0000 0.50000 546.57 598.01 2.7295 1.3994 1.6055 240.39 0.26126 7.5909 0.016207 2.0000 0.50000 546.57 598.01 2.7295 1.3994 1.6055 240.39 0.26126 7.5909 0.016207
6.3750 14.978 undefined 547.97 599.60 2.7345 2.0000 0.50000 547.97 599.60 2.7345 1.4036 1.6095 240.80 0.25843 7.6180 0.016311 2.0000 0.50000 547.97 599.60 2.7345 1.4036 1.6095 240.80 0.25843 7.6180 0.016311
7.3750 15.034 undefined 549.37 601.20 2.7396 2.0000 0.50000 549.37 601.20 2.7396 1.4078 1.6136 241.22 0.25564 7.6452 0.016416 2.0000 0.50000 549.37 601.20 2.7396 1.4078 1.6136 241.22 0.25564 7.6452 0.016416
8.3750 15.090 undefined 550.78 602.80 2.7446 2.0000 0.50000 550.78 602.80 2.7446 1.4120 1.6177 241.63 0.25288 7.6724 0.016521 2.0000 0.50000 550.78 602.80 2.7446 1.4120 1.6177 241.63 0.25288 7.6724 0.016521
9.3750 15.146 undefined 552.20 604.41 2.7496 2.0000 0.50000 552.20 604.41 2.7496 1.4162 1.6217 242.04 0.25017 7.6995 0.016627 2.0000 0.50000 552.20 604.41 2.7496 1.4162 1.6217 242.04 0.25017 7.6995 0.016627
10.375 15.202 undefined 553.62 606.02 2.7546 2.0000 0.50000 553.62 606.02 2.7546 1.4204 1.6258 242.45 0.24750 7.7266 0.016732 2.0000 0.50000 553.62 606.02 2.7546 1.4204 1.6258 242.45 0.24750 7.7266 0.016732
11.375 15.258 undefined 555.04 607.64 2.7596 2.0000 0.50000 555.04 607.64 2.7596 1.4247 1.6299 242.86 0.24486 7.7538 0.016838 2.0000 0.50000 555.04 607.64 2.7596 1.4247 1.6299 242.86 0.24486 7.7538 0.016838
12.375 15.314 undefined 556.47 609.26 2.7646 2.0000 0.50000 556.47 609.26 2.7646 1.4289 1.6340 243.26 0.24227 7.7809 0.016945 2.0000 0.50000 556.47 609.26 2.7646 1.4289 1.6340 243.26 0.24227 7.7809 0.016945
13.375 15.370 undefined 557.90 610.88 2.7696 2.0000 0.50000 557.90 610.88 2.7696 1.4332 1.6382 243.67 0.23971 7.8080 0.017051 2.0000 0.50000 557.90 610.88 2.7696 1.4332 1.6382 243.67 0.23971 7.8080 0.017051
14.375 15.426 undefined 559.33 612.51 2.7746 2.0000 0.50000 559.33 612.51 2.7746 1.4374 1.6423 244.08 0.23718 7.8351 0.017158 2.0000 0.50000 559.33 612.51 2.7746 1.4374 1.6423 244.08 0.23718 7.8351 0.017158
15.375 15.482 undefined 560.77 614.14 2.7796 2.0000 0.50000 560.77 614.14 2.7796 1.4417 1.6464 244.48 0.23470 7.8622 0.017265 2.0000 0.50000 560.77 614.14 2.7796 1.4417 1.6464 244.48 0.23470 7.8622 0.017265
16.375 15.537 undefined 562.22 615.78 2.7846 2.0000 0.50000 562.22 615.78 2.7846 1.4460 1.6506 244.89 0.23225 7.8892 0.017373 2.0000 0.50000 562.22 615.78 2.7846 1.4460 1.6506 244.89 0.23225 7.8892 0.017373
17.375 15.593 undefined 563.66 617.42 2.7896 2.0000 0.50000 563.66 617.42 2.7896 1.4503 1.6547 245.29 0.22983 7.9163 0.017480 2.0000 0.50000 563.66 617.42 2.7896 1.4503 1.6547 245.29 0.22983 7.9163 0.017480
18.375 15.649 undefined 565.12 619.06 2.7946 2.0000 0.50000 565.12 619.06 2.7946 1.4546 1.6589 245.69 0.22744 7.9433 0.017589 2.0000 0.50000 565.12 619.06 2.7946 1.4546 1.6589 245.69 0.22744 7.9433 0.017589
19.375 15.705 undefined 566.57 620.71 2.7996 2.0000 0.50000 566.57 620.71 2.7996 1.4589 1.6631 246.10 0.22509 7.9704 0.017697 2.0000 0.50000 566.57 620.71 2.7996 1.4589 1.6631 246.10 0.22509 7.9704 0.017697
20.375 15.761 undefined 568.03 622.37 2.8046 2.0000 0.50000 568.03 622.37 2.8046 1.4632 1.6673 246.50 0.22278 7.9974 0.017805 2.0000 0.50000 568.03 622.37 2.8046 1.4632 1.6673 246.50 0.22278 7.9974 0.017805
21.375 15.817 undefined 569.50 624.03 2.8096 2.0000 0.50000 569.50 624.03 2.8096 1.4675 1.6715 246.90 0.22049 8.0244 0.017914 2.0000 0.50000 569.50 624.03 2.8096 1.4675 1.6715 246.90 0.22049 8.0244 0.017914
22.375 15.873 undefined 570.97 625.69 2.8145 2.0000 0.50000 570.97 625.69 2.8145 1.4718 1.6757 247.30 0.21824 8.0514 0.018024 2.0000 0.50000 570.97 625.69 2.8145 1.4718 1.6757 247.30 0.21824 8.0514 0.018024
23.375 15.928 undefined 572.44 627.35 2.8195 2.0000 0.50000 572.44 627.35 2.8195 1.4762 1.6799 247.70 0.21602 8.0784 0.018133 2.0000 0.50000 572.44 627.35 2.8195 1.4762 1.6799 247.70 0.21602 8.0784 0.018133
24.375 15.984 undefined 573.92 629.02 2.8245 2.0000 0.50000 573.92 629.02 2.8245 1.4805 1.6841 248.09 0.21382 8.1054 0.018243 2.0000 0.50000 573.92 629.02 2.8245 1.4805 1.6841 248.09 0.21382 8.1054 0.018243
25.375 16.040 undefined 575.40 630.70 2.8295 2.0000 0.50000 575.40 630.70 2.8295 1.4849 1.6883 248.49 0.21166 8.1323 0.018353 2.0000 0.50000 575.40 630.70 2.8295 1.4849 1.6883 248.49 0.21166 8.1323 0.018353
26.375 16.096 undefined 576.89 632.38 2.8344 2.0000 0.50000 576.89 632.38 2.8344 1.4892 1.6926 248.89 0.20953 8.1593 0.018463 2.0000 0.50000 576.89 632.38 2.8344 1.4892 1.6926 248.89 0.20953 8.1593 0.018463
27.375 16.152 undefined 578.38 634.06 2.8394 2.0000 0.50000 578.38 634.06 2.8394 1.4936 1.6968 249.28 0.20743 8.1862 0.018574 2.0000 0.50000 578.38 634.06 2.8394 1.4936 1.6968 249.28 0.20743 8.1862 0.018574
28.375 16.207 undefined 579.88 635.75 2.8444 2.0000 0.50000 579.88 635.75 2.8444 1.4979 1.7011 249.68 0.20536 8.2132 0.018685 2.0000 0.50000 579.88 635.75 2.8444 1.4979 1.7011 249.68 0.20536 8.2132 0.018685
29.375 16.263 undefined 581.38 637.44 2.8494 2.0000 0.50000 581.38 637.44 2.8494 1.5023 1.7053 250.07 0.20331 8.2401 0.018796 2.0000 0.50000 581.38 637.44 2.8494 1.5023 1.7053 250.07 0.20331 8.2401 0.018796
30.375 16.319 undefined 582.88 639.14 2.8543 2.0000 0.50000 582.88 639.14 2.8543 1.5067 1.7096 250.46 0.20129 8.2670 0.018908 2.0000 0.50000 582.88 639.14 2.8543 1.5067 1.7096 250.46 0.20129 8.2670 0.018908
31.375 16.375 undefined 584.39 640.84 2.8593 2.0000 0.50000 584.39 640.84 2.8593 1.5110 1.7138 250.86 0.19930 8.2939 0.019020 2.0000 0.50000 584.39 640.84 2.8593 1.5110 1.7138 250.86 0.19930 8.2939 0.019020
32.375 16.431 undefined 585.90 642.55 2.8642 2.0000 0.50000 585.90 642.55 2.8642 1.5154 1.7181 251.25 0.19734 8.3208 0.019132 2.0000 0.50000 585.90 642.55 2.8642 1.5154 1.7181 251.25 0.19734 8.3208 0.019132
33.375 16.486 undefined 587.42 644.26 2.8692 2.0000 0.50000 587.42 644.26 2.8692 1.5198 1.7224 251.64 0.19540 8.3477 0.019244 2.0000 0.50000 587.42 644.26 2.8692 1.5198 1.7224 251.64 0.19540 8.3477 0.019244
34.375 16.542 undefined 588.94 645.97 2.8742 2.0000 0.50000 588.94 645.97 2.8742 1.5242 1.7267 252.03 0.19349 8.3745 0.019357 2.0000 0.50000 588.94 645.97 2.8742 1.5242 1.7267 252.03 0.19349 8.3745 0.019357
35.375 16.598 undefined 590.47 647.69 2.8791 2.0000 0.50000 590.47 647.69 2.8791 1.5286 1.7310 252.42 0.19160 8.4014 0.019470 2.0000 0.50000 590.47 647.69 2.8791 1.5286 1.7310 252.42 0.19160 8.4014 0.019470
36.375 16.653 undefined 592.00 649.41 2.8841 2.0000 0.50000 592.00 649.41 2.8841 1.5330 1.7353 252.81 0.18974 8.4282 0.019583 2.0000 0.50000 592.00 649.41 2.8841 1.5330 1.7353 252.81 0.18974 8.4282 0.019583
37.375 16.709 undefined 593.54 651.14 2.8890 2.0000 0.50000 593.54 651.14 2.8890 1.5374 1.7396 253.20 0.18790 8.4550 0.019697 2.0000 0.50000 593.54 651.14 2.8890 1.5374 1.7396 253.20 0.18790 8.4550 0.019697
38.375 16.765 undefined 595.08 652.87 2.8940 2.0000 0.50000 595.08 652.87 2.8940 1.5418 1.7439 253.58 0.18609 8.4818 0.019811 2.0000 0.50000 595.08 652.87 2.8940 1.5418 1.7439 253.58 0.18609 8.4818 0.019811
39.375 16.821 undefined 596.62 654.61 2.8989 2.0000 0.50000 596.62 654.61 2.8989 1.5463 1.7483 253.97 0.18430 8.5087 0.019925 2.0000 0.50000 596.62 654.61 2.8989 1.5463 1.7483 253.97 0.18430 8.5087 0.019925
40.375 16.876 undefined 598.17 656.35 2.9039 2.0000 0.50000 598.17 656.35 2.9039 1.5507 1.7526 254.36 0.18254 8.5354 0.020039 2.0000 0.50000 598.17 656.35 2.9039 1.5507 1.7526 254.36 0.18254 8.5354 0.020039
41.375 16.932 undefined 599.72 658.09 2.9088 2.0000 0.50000 599.72 658.09 2.9088 1.5551 1.7569 254.74 0.18080 8.5622 0.020154 2.0000 0.50000 599.72 658.09 2.9088 1.5551 1.7569 254.74 0.18080 8.5622 0.020154
42.375 16.988 undefined 601.28 659.84 2.9138 2.0000 0.50000 601.28 659.84 2.9138 1.5596 1.7613 255.12 0.17908 8.5890 0.020269 2.0000 0.50000 601.28 659.84 2.9138 1.5596 1.7613 255.12 0.17908 8.5890 0.020269
43.375 17.043 undefined 602.84 661.60 2.9187 2.0000 0.50000 602.84 661.60 2.9187 1.5640 1.7656 255.51 0.17738 8.6157 0.020385 2.0000 0.50000 602.84 661.60 2.9187 1.5640 1.7656 255.51 0.17738 8.6157 0.020385
44.375 17.099 undefined 604.41 663.35 2.9236 2.0000 0.50000 604.41 663.35 2.9236 1.5684 1.7699 255.89 0.17571 8.6425 0.020500 2.0000 0.50000 604.41 663.35 2.9236 1.5684 1.7699 255.89 0.17571 8.6425 0.020500
45.375 17.155 undefined 605.98 665.12 2.9286 2.0000 0.50000 605.98 665.12 2.9286 1.5729 1.7743 256.27 0.17405 8.6692 0.020616 2.0000 0.50000 605.98 665.12 2.9286 1.5729 1.7743 256.27 0.17405 8.6692 0.020616
46.375 17.210 undefined 607.55 666.88 2.9335 2.0000 0.50000 607.55 666.88 2.9335 1.5773 1.7787 256.66 0.17242 8.6959 0.020732 2.0000 0.50000 607.55 666.88 2.9335 1.5773 1.7787 256.66 0.17242 8.6959 0.020732
47.375 17.266 undefined 609.13 668.65 2.9384 2.0000 0.50000 609.13 668.65 2.9384 1.5818 1.7830 257.04 0.17081 8.7226 0.020849 2.0000 0.50000 609.13 668.65 2.9384 1.5818 1.7830 257.04 0.17081 8.7226 0.020849
48.375 17.322 undefined 610.72 670.43 2.9434 2.0000 0.50000 610.72 670.43 2.9434 1.5862 1.7874 257.42 0.16922 8.7493 0.020966 2.0000 0.50000 610.72 670.43 2.9434 1.5862 1.7874 257.42 0.16922 8.7493 0.020966
49.375 17.377 undefined 612.30 672.21 2.9483 2.0000 0.50000 612.30 672.21 2.9483 1.5907 1.7918 257.80 0.16765 8.7760 0.021083 2.0000 0.50000 612.30 672.21 2.9483 1.5907 1.7918 257.80 0.16765 8.7760 0.021083
50.375 17.433 undefined 613.90 674.00 2.9532 2.0000 0.50000 613.90 674.00 2.9532 1.5951 1.7961 258.18 0.16610 8.8027 0.021200 2.0000 0.50000 613.90 674.00 2.9532 1.5951 1.7961 258.18 0.16610 8.8027 0.021200
51.375 17.489 undefined 615.50 675.78 2.9582 2.0000 0.50000 615.50 675.78 2.9582 1.5996 1.8005 258.55 0.16457 8.8293 0.021318 2.0000 0.50000 615.50 675.78 2.9582 1.5996 1.8005 258.55 0.16457 8.8293 0.021318
52.375 17.544 undefined 617.10 677.58 2.9631 2.0000 0.50000 617.10 677.58 2.9631 1.6041 1.8049 258.93 0.16306 8.8560 0.021436 2.0000 0.50000 617.10 677.58 2.9631 1.6041 1.8049 258.93 0.16306 8.8560 0.021436
53.375 17.600 undefined 618.70 679.38 2.9680 2.0000 0.50000 618.70 679.38 2.9680 1.6085 1.8093 259.31 0.16157 8.8826 0.021554 2.0000 0.50000 618.70 679.38 2.9680 1.6085 1.8093 259.31 0.16157 8.8826 0.021554
54.375 17.655 undefined 620.31 681.18 2.9730 2.0000 0.50000 620.31 681.18 2.9730 1.6130 1.8137 259.69 0.16010 8.9092 0.021673 2.0000 0.50000 620.31 681.18 2.9730 1.6130 1.8137 259.69 0.16010 8.9092 0.021673
55.375 17.711 undefined 621.93 682.99 2.9779 2.0000 0.50000 621.93 682.99 2.9779 1.6175 1.8181 260.06 0.15865 8.9358 0.021791 2.0000 0.50000 621.93 682.99 2.9779 1.6175 1.8181 260.06 0.15865 8.9358 0.021791
56.375 17.767 undefined 623.55 684.80 2.9828 2.0000 0.50000 623.55 684.80 2.9828 1.6220 1.8225 260.44 0.15721 8.9624 0.021911 2.0000 0.50000 623.55 684.80 2.9828 1.6220 1.8225 260.44 0.15721 8.9624 0.021911
57.375 17.822 undefined 625.17 686.61 2.9877 2.0000 0.50000 625.17 686.61 2.9877 1.6264 1.8269 260.81 0.15580 8.9890 0.022030 2.0000 0.50000 625.17 686.61 2.9877 1.6264 1.8269 260.81 0.15580 8.9890 0.022030
58.375 17.878 undefined 626.80 688.43 2.9926 2.0000 0.50000 626.80 688.43 2.9926 1.6309 1.8313 261.18 0.15440 9.0155 0.022150 2.0000 0.50000 626.80 688.43 2.9926 1.6309 1.8313 261.18 0.15440 9.0155 0.022150
59.375 17.933 undefined 628.43 690.26 2.9976 2.0000 0.50000 628.43 690.26 2.9976 1.6354 1.8357 261.56 0.15302 9.0421 0.022270 2.0000 0.50000 628.43 690.26 2.9976 1.6354 1.8357 261.56 0.15302 9.0421 0.022270
60.375 17.989 undefined 630.07 692.09 3.0025 2.0000 0.50000 630.07 692.09 3.0025 1.6399 1.8401 261.93 0.15165 9.0686 0.022390 2.0000 0.50000 630.07 692.09 3.0025 1.6399 1.8401 261.93 0.15165 9.0686 0.022390
61.375 18.044 undefined 631.71 693.92 3.0074 2.0000 0.50000 631.71 693.92 3.0074 1.6444 1.8445 262.30 0.15031 9.0952 0.022511 2.0000 0.50000 631.71 693.92 3.0074 1.6444 1.8445 262.30 0.15031 9.0952 0.022511
62.375 18.100 undefined 633.36 695.76 3.0123 2.0000 0.50000 633.36 695.76 3.0123 1.6489 1.8489 262.67 0.14898 9.1217 0.022632 2.0000 0.50000 633.36 695.76 3.0123 1.6489 1.8489 262.67 0.14898 9.1217 0.022632
63.375 18.156 undefined 635.01 697.60 3.0172 2.0000 0.50000 635.01 697.60 3.0172 1.6534 1.8533 263.05 0.14766 9.1482 0.022753 2.0000 0.50000 635.01 697.60 3.0172 1.6534 1.8533 263.05 0.14766 9.1482 0.022753
64.375 18.211 undefined 636.67 699.45 3.0221 2.0000 0.50000 636.67 699.45 3.0221 1.6579 1.8577 263.42 0.14636 9.1747 0.022874 2.0000 0.50000 636.67 699.45 3.0221 1.6579 1.8577 263.42 0.14636 9.1747 0.022874
65.375 18.267 undefined 638.33 701.30 3.0270 2.0000 0.50000 638.33 701.30 3.0270 1.6624 1.8622 263.79 0.14508 9.2011 0.022996 2.0000 0.50000 638.33 701.30 3.0270 1.6624 1.8622 263.79 0.14508 9.2011 0.022996
66.375 18.322 undefined 639.99 703.16 3.0320 2.0000 0.50000 639.99 703.16 3.0320 1.6668 1.8666 264.15 0.14382 9.2276 0.023118 2.0000 0.50000 639.99 703.16 3.0320 1.6668 1.8666 264.15 0.14382 9.2276 0.023118
67.375 18.378 undefined 641.66 705.02 3.0369 2.0000 0.50000 641.66 705.02 3.0369 1.6713 1.8710 264.52 0.14257 9.2541 0.023240 2.0000 0.50000 641.66 705.02 3.0369 1.6713 1.8710 264.52 0.14257 9.2541 0.023240
68.375 18.433 undefined 643.34 706.88 3.0418 2.0000 0.50000 643.34 706.88 3.0418 1.6758 1.8754 264.89 0.14133 9.2805 0.023363 2.0000 0.50000 643.34 706.88 3.0418 1.6758 1.8754 264.89 0.14133 9.2805 0.023363
69.375 18.489 undefined 645.01 708.75 3.0467 2.0000 0.50000 645.01 708.75 3.0467 1.6803 1.8799 265.26 0.14011 9.3069 0.023486 2.0000 0.50000 645.01 708.75 3.0467 1.6803 1.8799 265.26 0.14011 9.3069 0.023486
70.375 18.544 undefined 646.70 710.63 3.0516 2.0000 0.50000 646.70 710.63 3.0516 1.6848 1.8843 265.63 0.13891 9.3333 0.023609 2.0000 0.50000 646.70 710.63 3.0516 1.6848 1.8843 265.63 0.13891 9.3333 0.023609
71.375 18.600 undefined 648.38 712.50 3.0565 2.0000 0.50000 648.38 712.50 3.0565 1.6893 1.8887 265.99 0.13771 9.3597 0.023733 2.0000 0.50000 648.38 712.50 3.0565 1.6893 1.8887 265.99 0.13771 9.3597 0.023733
72.375 18.655 undefined 650.07 714.39 3.0614 2.0000 0.50000 650.07 714.39 3.0614 1.6938 1.8932 266.36 0.13654 9.3861 0.023856 2.0000 0.50000 650.07 714.39 3.0614 1.6938 1.8932 266.36 0.13654 9.3861 0.023856
73.375 18.711 undefined 651.77 716.27 3.0663 2.0000 0.50000 651.77 716.27 3.0663 1.6983 1.8976 266.72 0.13538 9.4125 0.023981 2.0000 0.50000 651.77 716.27 3.0663 1.6983 1.8976 266.72 0.13538 9.4125 0.023981
74.375 18.766 undefined 653.47 718.17 3.0712 2.0000 0.50000 653.47 718.17 3.0712 1.7028 1.9020 267.09 0.13423 9.4388 0.024105 2.0000 0.50000 653.47 718.17 3.0712 1.7028 1.9020 267.09 0.13423 9.4388 0.024105
75.375 18.822 undefined 655.18 720.06 3.0761 2.0000 0.50000 655.18 720.06 3.0761 1.7073 1.9065 267.45 0.13309 9.4652 0.024230 2.0000 0.50000 655.18 720.06 3.0761 1.7073 1.9065 267.45 0.13309 9.4652 0.024230
76.375 18.877 undefined 656.89 721.96 3.0810 2.0000 0.50000 656.89 721.96 3.0810 1.7118 1.9109 267.82 0.13197 9.4915 0.024355 2.0000 0.50000 656.89 721.96 3.0810 1.7118 1.9109 267.82 0.13197 9.4915 0.024355
77.375 18.933 undefined 658.60 723.87 3.0859 2.0000 0.50000 658.60 723.87 3.0859 1.7163 1.9154 268.18 0.13087 9.5178 0.024480 2.0000 0.50000 658.60 723.87 3.0859 1.7163 1.9154 268.18 0.13087 9.5178 0.024480
78.375 18.988 undefined 660.32 725.78 3.0908 2.0000 0.50000 660.32 725.78 3.0908 1.7209 1.9198 268.54 0.12977 9.5441 0.024605 2.0000 0.50000 660.32 725.78 3.0908 1.7209 1.9198 268.54 0.12977 9.5441 0.024605
79.375 19.044 undefined 662.04 727.69 3.0957 2.0000 0.50000 662.04 727.69 3.0957 1.7254 1.9242 268.90 0.12869 9.5704 0.024731 2.0000 0.50000 662.04 727.69 3.0957 1.7254 1.9242 268.90 0.12869 9.5704 0.024731
80.375 19.099 undefined 663.77 729.61 3.1006 2.0000 0.50000 663.77 729.61 3.1006 1.7299 1.9287 269.26 0.12762 9.5967 0.024857 2.0000 0.50000 663.77 729.61 3.1006 1.7299 1.9287 269.26 0.12762 9.5967 0.024857
81.375 19.155 undefined 665.50 731.54 3.1055 2.0000 0.50000 665.50 731.54 3.1055 1.7344 1.9331 269.62 0.12657 9.6230 0.024984 2.0000 0.50000 665.50 731.54 3.1055 1.7344 1.9331 269.62 0.12657 9.6230 0.024984
82.375 19.210 undefined 667.24 733.46 3.1104 2.0000 0.50000 667.24 733.46 3.1104 1.7389 1.9376 269.99 0.12552 9.6492 0.025110 2.0000 0.50000 667.24 733.46 3.1104 1.7389 1.9376 269.99 0.12552 9.6492 0.025110
83.375 19.266 undefined 668.98 735.40 3.1152 2.0000 0.50000 668.98 735.40 3.1152 1.7434 1.9420 270.34 0.12449 9.6754 0.025237 2.0000 0.50000 668.98 735.40 3.1152 1.7434 1.9420 270.34 0.12449 9.6754 0.025237
84.375 19.321 undefined 670.73 737.33 3.1201 2.0000 0.50000 670.73 737.33 3.1201 1.7479 1.9465 270.70 0.12348 9.7017 0.025365 2.0000 0.50000 670.73 737.33 3.1201 1.7479 1.9465 270.70 0.12348 9.7017 0.025365
85.375 19.377 undefined 672.48 739.27 3.1250 2.0000 0.50000 672.48 739.27 3.1250 1.7524 1.9509 271.06 0.12247 9.7279 0.025492 2.0000 0.50000 672.48 739.27 3.1250 1.7524 1.9509 271.06 0.12247 9.7279 0.025492
86.375 19.432 undefined 674.23 741.22 3.1299 2.0000 0.50000 674.23 741.22 3.1299 1.7569 1.9553 271.42 0.12147 9.7541 0.025620 2.0000 0.50000 674.23 741.22 3.1299 1.7569 1.9553 271.42 0.12147 9.7541 0.025620
87.375 19.487 undefined 675.99 743.17 3.1348 2.0000 0.50000 675.99 743.17 3.1348 1.7614 1.9598 271.78 0.12049 9.7802 0.025748 2.0000 0.50000 675.99 743.17 3.1348 1.7614 1.9598 271.78 0.12049 9.7802 0.025748
88.375 19.543 undefined 677.75 745.12 3.1397 2.0000 0.50000 677.75 745.12 3.1397 1.7659 1.9642 272.14 0.11952 9.8064 0.025877 2.0000 0.50000 677.75 745.12 3.1397 1.7659 1.9642 272.14 0.11952 9.8064 0.025877
89.375 19.598 undefined 679.52 747.08 3.1446 2.0000 0.50000 679.52 747.08 3.1446 1.7704 1.9687 272.49 0.11856 9.8325 0.026006 2.0000 0.50000 679.52 747.08 3.1446 1.7704 1.9687 272.49 0.11856 9.8325 0.026006
90.375 19.654 undefined 681.29 749.05 3.1495 2.0000 0.50000 681.29 749.05 3.1495 1.7749 1.9731 272.85 0.11761 9.8587 0.026135 2.0000 0.50000 681.29 749.05 3.1495 1.7749 1.9731 272.85 0.11761 9.8587 0.026135
91.375 19.709 undefined 683.07 751.02 3.1543 2.0000 0.50000 683.07 751.02 3.1543 1.7794 1.9776 273.20 0.11667 9.8848 0.026264 2.0000 0.50000 683.07 751.02 3.1543 1.7794 1.9776 273.20 0.11667 9.8848 0.026264
92.375 19.765 undefined 684.85 752.99 3.1592 2.0000 0.50000 684.85 752.99 3.1592 1.7839 1.9820 273.56 0.11574 9.9109 0.026394 2.0000 0.50000 684.85 752.99 3.1592 1.7839 1.9820 273.56 0.11574 9.9109 0.026394
93.375 19.820 undefined 686.64 754.97 3.1641 2.0000 0.50000 686.64 754.97 3.1641 1.7884 1.9864 273.92 0.11483 9.9370 0.026524 2.0000 0.50000 686.64 754.97 3.1641 1.7884 1.9864 273.92 0.11483 9.9370 0.026524
94.375 19.876 undefined 688.43 756.95 3.1690 2.0000 0.50000 688.43 756.95 3.1690 1.7928 1.9909 274.27 0.11392 9.9631 0.026654 2.0000 0.50000 688.43 756.95 3.1690 1.7928 1.9909 274.27 0.11392 9.9631 0.026654
95.375 19.931 undefined 690.22 758.93 3.1738 2.0000 0.50000 690.22 758.93 3.1738 1.7973 1.9953 274.62 0.11302 9.9892 0.026784 2.0000 0.50000 690.22 758.93 3.1738 1.7973 1.9953 274.62 0.11302 9.9892 0.026784
96.375 19.986 undefined 692.02 760.92 3.1787 2.0000 0.50000 692.02 760.92 3.1787 1.8018 1.9998 274.98 0.11214 10.015 0.026915 2.0000 0.50000 692.02 760.92 3.1787 1.8018 1.9998 274.98 0.11214 10.015 0.026915
97.375 20.042 undefined 693.83 762.92 3.1836 2.0000 0.50000 693.83 762.92 3.1836 1.8063 2.0042 275.33 0.11126 10.041 0.027046 2.0000 0.50000 693.83 762.92 3.1836 1.8063 2.0042 275.33 0.11126 10.041 0.027046
98.375 20.097 undefined 695.64 764.92 3.1885 2.0000 0.50000 695.64 764.92 3.1885 1.8108 2.0086 275.68 0.11039 10.067 0.027178 2.0000 0.50000 695.64 764.92 3.1885 1.8108 2.0086 275.68 0.11039 10.067 0.027178
99.375 20.153 undefined 697.45 766.92 3.1933 2.0000 0.50000 697.45 766.92 3.1933 1.8153 2.0131 276.03 0.10954 10.093 0.027309 2.0000 0.50000 697.45 766.92 3.1933 1.8153 2.0131 276.03 0.10954 10.093 0.027309
100.38 20.208 undefined 699.27 768.93 3.1982 2.0000 0.50000 699.27 768.93 3.1982 1.8198 2.0175 276.38 0.10869 10.119 0.027441 2.0000 0.50000 699.27 768.93 3.1982 1.8198 2.0175 276.38 0.10869 10.119 0.027441
101.38 20.263 undefined 701.09 770.94 3.2031 2.0000 0.50000 701.09 770.94 3.2031 1.8243 2.0219 276.74 0.10785 10.145 0.027573 2.0000 0.50000 701.09 770.94 3.2031 1.8243 2.0219 276.74 0.10785 10.145 0.027573
102.38 20.319 undefined 702.92 772.96 3.2080 2.0000 0.50000 702.92 772.96 3.2080 1.8287 2.0264 277.09 0.10703 10.171 0.027706 2.0000 0.50000 702.92 772.96 3.2080 1.8287 2.0264 277.09 0.10703 10.171 0.027706
103.38 20.374 undefined 704.75 774.98 3.2128 2.0000 0.50000 704.75 774.98 3.2128 1.8332 2.0308 277.44 0.10621 10.197 0.027839 2.0000 0.50000 704.75 774.98 3.2128 1.8332 2.0308 277.44 0.10621 10.197 0.027839
104.38 20.430 undefined 706.58 777.01 3.2177 2.0000 0.50000 706.58 777.01 3.2177 1.8377 2.0352 277.79 0.10540 10.223 0.027972 2.0000 0.50000 706.58 777.01 3.2177 1.8377 2.0352 277.79 0.10540 10.223 0.027972
105.38 20.485 undefined 708.42 779.04 3.2226 2.0000 0.50000 708.42 779.04 3.2226 1.8422 2.0397 278.13 0.10460 10.249 0.028105 2.0000 0.50000 708.42 779.04 3.2226 1.8422 2.0397 278.13 0.10460 10.249 0.028105
106.38 20.540 undefined 710.27 781.08 3.2274 2.0000 0.50000 710.27 781.08 3.2274 1.8466 2.0441 278.48 0.10381 10.275 0.028239 2.0000 0.50000 710.27 781.08 3.2274 1.8466 2.0441 278.48 0.10381 10.275 0.028239
107.38 20.596 undefined 712.11 783.12 3.2323 2.0000 0.50000 712.11 783.12 3.2323 1.8511 2.0485 278.83 0.10302 10.301 0.028373 2.0000 0.50000 712.11 783.12 3.2323 1.8511 2.0485 278.83 0.10302 10.301 0.028373
108.38 20.651 undefined 713.97 785.16 3.2372 2.0000 0.50000 713.97 785.16 3.2372 1.8556 2.0529 279.18 0.10225 10.327 0.028507 2.0000 0.50000 713.97 785.16 3.2372 1.8556 2.0529 279.18 0.10225 10.327 0.028507
109.38 20.706 undefined 715.83 787.21 3.2420 2.0000 0.50000 715.83 787.21 3.2420 1.8601 2.0574 279.53 0.10148 10.353 0.028642 2.0000 0.50000 715.83 787.21 3.2420 1.8601 2.0574 279.53 0.10148 10.353 0.028642
110.38 20.762 undefined 717.69 789.26 3.2469 2.0000 0.50000 717.69 789.26 3.2469 1.8645 2.0618 279.87 0.10073 10.378 0.028777 2.0000 0.50000 717.69 789.26 3.2469 1.8645 2.0618 279.87 0.10073 10.378 0.028777
111.38 20.817 undefined 719.56 791.32 3.2517 2.0000 0.50000 719.56 791.32 3.2517 1.8690 2.0662 280.22 0.099978 10.404 0.028912 2.0000 0.50000 719.56 791.32 3.2517 1.8690 2.0662 280.22 0.099978 10.404 0.028912
112.38 20.873 undefined 721.43 793.38 3.2566 2.0000 0.50000 721.43 793.38 3.2566 1.8734 2.0706 280.57 0.099237 10.430 0.029047 2.0000 0.50000 721.43 793.38 3.2566 1.8734 2.0706 280.57 0.099237 10.430 0.029047
113.38 20.928 undefined 723.30 795.45 3.2615 2.0000 0.50000 723.30 795.45 3.2615 1.8779 2.0750 280.91 0.098505 10.456 0.029183 2.0000 0.50000 723.30 795.45 3.2615 1.8779 2.0750 280.91 0.098505 10.456 0.029183
114.38 20.983 undefined 725.18 797.52 3.2663 2.0000 0.50000 725.18 797.52 3.2663 1.8823 2.0794 281.26 0.097780 10.482 0.029319 2.0000 0.50000 725.18 797.52 3.2663 1.8823 2.0794 281.26 0.097780 10.482 0.029319
115.38 21.039 undefined 727.07 799.59 3.2712 2.0000 0.50000 727.07 799.59 3.2712 1.8868 2.0838 281.60 0.097063 10.507 0.029456 2.0000 0.50000 727.07 799.59 3.2712 1.8868 2.0838 281.60 0.097063 10.507 0.029456
116.38 21.094 undefined 728.96 801.67 3.2760 2.0000 0.50000 728.96 801.67 3.2760 1.8912 2.0883 281.95 0.096354 10.533 0.029592 2.0000 0.50000 728.96 801.67 3.2760 1.8912 2.0883 281.95 0.096354 10.533 0.029592
117.38 21.149 undefined 730.85 803.76 3.2809 2.0000 0.50000 730.85 803.76 3.2809 1.8957 2.0927 282.29 0.095652 10.559 0.029729 2.0000 0.50000 730.85 803.76 3.2809 1.8957 2.0927 282.29 0.095652 10.559 0.029729
118.38 21.205 undefined 732.75 805.85 3.2857 2.0000 0.50000 732.75 805.85 3.2857 1.9001 2.0971 282.63 0.094958 10.585 0.029866 2.0000 0.50000 732.75 805.85 3.2857 1.9001 2.0971 282.63 0.094958 10.585 0.029866
119.38 21.260 undefined 734.65 807.94 3.2906 2.0000 0.50000 734.65 807.94 3.2906 1.9046 2.1015 282.98 0.094271 10.610 0.030004 2.0000 0.50000 734.65 807.94 3.2906 1.9046 2.1015 282.98 0.094271 10.610 0.030004
120.38 21.315 undefined 736.56 810.04 3.2955 2.0000 0.50000 736.56 810.04 3.2955 1.9090 2.1059 283.32 0.093592 10.636 0.030142 2.0000 0.50000 736.56 810.04 3.2955 1.9090 2.1059 283.32 0.093592 10.636 0.030142
121.38 21.371 undefined 738.47 812.14 3.3003 2.0000 0.50000 738.47 812.14 3.3003 1.9135 2.1103 283.66 0.092920 10.662 0.030280 2.0000 0.50000 738.47 812.14 3.3003 1.9135 2.1103 283.66 0.092920 10.662 0.030280
122.38 21.426 undefined 740.38 814.25 3.3052 2.0000 0.50000 740.38 814.25 3.3052 1.9179 2.1146 284.00 0.092255 10.688 0.030418 2.0000 0.50000 740.38 814.25 3.3052 1.9179 2.1146 284.00 0.092255 10.688 0.030418
123.38 21.481 undefined 742.30 816.36 3.3100 2.0000 0.50000 742.30 816.36 3.3100 1.9223 2.1190 284.34 0.091597 10.713 0.030557 2.0000 0.50000 742.30 816.36 3.3100 1.9223 2.1190 284.34 0.091597 10.713 0.030557
124.38 21.537 undefined 744.23 818.47 3.3148 2.0000 0.50000 744.23 818.47 3.3148 1.9267 2.1234 284.68 0.090946 10.739 0.030696 2.0000 0.50000 744.23 818.47 3.3148 1.9267 2.1234 284.68 0.090946 10.739 0.030696
125.38 21.592 undefined 746.16 820.59 3.3197 2.0000 0.50000 746.16 820.59 3.3197 1.9312 2.1278 285.02 0.090301 10.764 0.030835 2.0000 0.50000 746.16 820.59 3.3197 1.9312 2.1278 285.02 0.090301 10.764 0.030835
126.38 21.647 undefined 748.09 822.72 3.3245 2.0000 0.50000 748.09 822.72 3.3245 1.9356 2.1322 285.36 0.089664 10.790 0.030975 2.0000 0.50000 748.09 822.72 3.3245 1.9356 2.1322 285.36 0.089664 10.790 0.030975
127.38 21.703 undefined 750.03 824.85 3.3294 2.0000 0.50000 750.03 824.85 3.3294 1.9400 2.1366 285.70 0.089033 10.816 0.031114 2.0000 0.50000 750.03 824.85 3.3294 1.9400 2.1366 285.70 0.089033 10.816 0.031114
128.38 21.758 undefined 751.97 826.98 3.3342 2.0000 0.50000 751.97 826.98 3.3342 1.9444 2.1409 286.04 0.088409 10.841 0.031254 2.0000 0.50000 751.97 826.98 3.3342 1.9444 2.1409 286.04 0.088409 10.841 0.031254
129.38 21.813 undefined 753.92 829.12 3.3391 2.0000 0.50000 753.92 829.12 3.3391 1.9488 2.1453 286.38 0.087791 10.867 0.031395 2.0000 0.50000 753.92 829.12 3.3391 1.9488 2.1453 286.38 0.087791 10.867 0.031395
130.38 21.869 undefined 755.87 831.26 3.3439 2.0000 0.50000 755.87 831.26 3.3439 1.9532 2.1497 286.72 0.087180 10.892 0.031536 2.0000 0.50000 755.87 831.26 3.3439 1.9532 2.1497 286.72 0.087180 10.892 0.031536
131.38 21.924 undefined 757.82 833.40 3.3487 2.0000 0.50000 757.82 833.40 3.3487 1.9576 2.1540 287.06 0.086575 10.918 0.031677 2.0000 0.50000 757.82 833.40 3.3487 1.9576 2.1540 287.06 0.086575 10.918 0.031677
132.38 21.979 undefined 759.78 835.55 3.3536 2.0000 0.50000 759.78 835.55 3.3536 1.9620 2.1584 287.39 0.085976 10.943 0.031818 2.0000 0.50000 759.78 835.55 3.3536 1.9620 2.1584 287.39 0.085976 10.943 0.031818
133.38 22.035 undefined 761.75 837.71 3.3584 2.0000 0.50000 761.75 837.71 3.3584 1.9664 2.1628 287.73 0.085383 10.969 0.031959 2.0000 0.50000 761.75 837.71 3.3584 1.9664 2.1628 287.73 0.085383 10.969 0.031959
134.38 22.090 undefined 763.72 839.87 3.3633 2.0000 0.50000 763.72 839.87 3.3633 1.9708 2.1671 288.07 0.084796 10.994 0.032101 2.0000 0.50000 763.72 839.87 3.3633 1.9708 2.1671 288.07 0.084796 10.994 0.032101
135.38 22.145 undefined 765.69 842.03 3.3681 2.0000 0.50000 765.69 842.03 3.3681 1.9752 2.1715 288.41 0.084216 11.020 0.032244 2.0000 0.50000 765.69 842.03 3.3681 1.9752 2.1715 288.41 0.084216 11.020 0.032244
136.38 22.200 undefined 767.67 844.20 3.3729 2.0000 0.50000 767.67 844.20 3.3729 1.9796 2.1758 288.74 0.083641 11.045 0.032386 2.0000 0.50000 767.67 844.20 3.3729 1.9796 2.1758 288.74 0.083641 11.045 0.032386
137.38 22.256 undefined 769.65 846.37 3.3778 2.0000 0.50000 769.65 846.37 3.3778 1.9840 2.1802 289.08 0.083072 11.071 0.032529 2.0000 0.50000 769.65 846.37 3.3778 1.9840 2.1802 289.08 0.083072 11.071 0.032529
138.38 22.311 undefined 771.63 848.55 3.3826 2.0000 0.50000 771.63 848.55 3.3826 1.9883 2.1845 289.41 0.082509 11.096 0.032672 2.0000 0.50000 771.63 848.55 3.3826 1.9883 2.1845 289.41 0.082509 11.096 0.032672
139.38 22.366 undefined 773.62 850.73 3.3874 2.0000 0.50000 773.62 850.73 3.3874 1.9927 2.1888 289.75 0.081951 11.122 0.032815 2.0000 0.50000 773.62 850.73 3.3874 1.9927 2.1888 289.75 0.081951 11.122 0.032815
140.38 22.422 undefined 775.62 852.92 3.3923 2.0000 0.50000 775.62 852.92 3.3923 1.9971 2.1932 290.08 0.081399 11.147 0.032959 2.0000 0.50000 775.62 852.92 3.3923 1.9971 2.1932 290.08 0.081399 11.147 0.032959
141.38 22.477 undefined 777.62 855.11 3.3971 2.0000 0.50000 777.62 855.11 3.3971 2.0014 2.1975 290.41 0.080853 11.172 0.033103 2.0000 0.50000 777.62 855.11 3.3971 2.0014 2.1975 290.41 0.080853 11.172 0.033103
142.38 22.532 undefined 779.62 857.30 3.4019 2.0000 0.50000 779.62 857.30 3.4019 2.0058 2.2018 290.75 0.080312 11.198 0.033247 2.0000 0.50000 779.62 857.30 3.4019 2.0058 2.2018 290.75 0.080312 11.198 0.033247
143.38 22.588 undefined 781.63 859.50 3.4067 2.0000 0.50000 781.63 859.50 3.4067 2.0101 2.2062 291.08 0.079776 11.223 0.033391 2.0000 0.50000 781.63 859.50 3.4067 2.0101 2.2062 291.08 0.079776 11.223 0.033391
144.38 22.643 undefined 783.64 861.70 3.4116 2.0000 0.50000 783.64 861.70 3.4116 2.0145 2.2105 291.41 0.079246 11.248 0.033536 2.0000 0.50000 783.64 861.70 3.4116 2.0145 2.2105 291.41 0.079246 11.248 0.033536
145.38 22.698 undefined 785.66 863.91 3.4164 2.0000 0.50000 785.66 863.91 3.4164 2.0188 2.2148 291.75 0.078721 11.274 0.033681 2.0000 0.50000 785.66 863.91 3.4164 2.0188 2.2148 291.75 0.078721 11.274 0.033681
146.38 22.753 undefined 787.68 866.12 3.4212 2.0000 0.50000 787.68 866.12 3.4212 2.0232 2.2191 292.08 0.078201 11.299 0.033827 2.0000 0.50000 787.68 866.12 3.4212 2.0232 2.2191 292.08 0.078201 11.299 0.033827
147.38 22.809 undefined 789.71 868.34 3.4260 2.0000 0.50000 789.71 868.34 3.4260 2.0275 2.2234 292.41 0.077686 11.324 0.033972 2.0000 0.50000 789.71 868.34 3.4260 2.0275 2.2234 292.41 0.077686 11.324 0.033972
148.38 22.864 undefined 791.74 870.56 3.4309 2.0000 0.50000 791.74 870.56 3.4309 2.0319 2.2277 292.74 0.077177 11.350 0.034118 2.0000 0.50000 791.74 870.56 3.4309 2.0319 2.2277 292.74 0.077177 11.350 0.034118
149.38 22.919 undefined 793.77 872.78 3.4357 2.0000 0.50000 793.77 872.78 3.4357 2.0362 2.2320 293.07 0.076672 11.375 0.034264 2.0000 0.50000 793.77 872.78 3.4357 2.0362 2.2320 293.07 0.076672 11.375 0.034264
150.38 22.975 undefined 795.81 875.01 3.4405 2.0000 0.50000 795.81 875.01 3.4405 2.0405 2.2363 293.40 0.076172 11.400 0.034411 2.0000 0.50000 795.81 875.01 3.4405 2.0405 2.2363 293.40 0.076172 11.400 0.034411
151.38 23.030 undefined 797.85 877.24 3.4453 2.0000 0.50000 797.85 877.24 3.4453 2.0448 2.2406 293.73 0.075677 11.425 0.034558 2.0000 0.50000 797.85 877.24 3.4453 2.0448 2.2406 293.73 0.075677 11.425 0.034558
152.38 23.085 undefined 799.90 879.48 3.4501 2.0000 0.50000 799.90 879.48 3.4501 2.0492 2.2449 294.06 0.075187 11.451 0.034705 2.0000 0.50000 799.90 879.48 3.4501 2.0492 2.2449 294.06 0.075187 11.451 0.034705
153.38 23.140 undefined 801.95 881.72 3.4549 2.0000 0.50000 801.95 881.72 3.4549 2.0535 2.2492 294.39 0.074702 11.476 0.034852 2.0000 0.50000 801.95 881.72 3.4549 2.0535 2.2492 294.39 0.074702 11.476 0.034852
154.38 23.196 undefined 804.00 883.97 3.4598 2.0000 0.50000 804.00 883.97 3.4598 2.0578 2.2534 294.72 0.074221 11.501 0.035000 2.0000 0.50000 804.00 883.97 3.4598 2.0578 2.2534 294.72 0.074221 11.501 0.035000
155.38 23.251 undefined 806.06 886.22 3.4646 2.0000 0.50000 806.06 886.22 3.4646 2.0621 2.2577 295.05 0.073745 11.526 0.035148 2.0000 0.50000 806.06 886.22 3.4646 2.0621 2.2577 295.05 0.073745 11.526 0.035148
156.38 23.306 undefined 808.13 888.47 3.4694 2.0000 0.50000 808.13 888.47 3.4694 2.0664 2.2620 295.38 0.073273 11.551 0.035296 2.0000 0.50000 808.13 888.47 3.4694 2.0664 2.2620 295.38 0.073273 11.551 0.035296
157.38 23.361 undefined 810.20 890.73 3.4742 2.0000 0.50000 810.20 890.73 3.4742 2.0707 2.2663 295.71 0.072806 11.576 0.035445 2.0000 0.50000 810.20 890.73 3.4742 2.0707 2.2663 295.71 0.072806 11.576 0.035445
158.38 23.417 undefined 812.27 893.00 3.4790 2.0000 0.50000 812.27 893.00 3.4790 2.0750 2.2705 296.04 0.072343 11.601 0.035594 2.0000 0.50000 812.27 893.00 3.4790 2.0750 2.2705 296.04 0.072343 11.601 0.035594
159.38 23.472 undefined 814.35 895.26 3.4838 2.0000 0.50000 814.35 895.26 3.4838 2.0793 2.2748 296.36 0.071885 11.627 0.035743 2.0000 0.50000 814.35 895.26 3.4838 2.0793 2.2748 296.36 0.071885 11.627 0.035743
160.38 23.527 undefined 816.43 897.54 3.4886 2.0000 0.50000 816.43 897.54 3.4886 2.0835 2.2790 296.69 0.071431 11.652 0.035892 2.0000 0.50000 816.43 897.54 3.4886 2.0835 2.2790 296.69 0.071431 11.652 0.035892
161.38 23.582 undefined 818.51 899.81 3.4934 2.0000 0.50000 818.51 899.81 3.4934 2.0878 2.2833 297.02 0.070981 11.677 0.036042 2.0000 0.50000 818.51 899.81 3.4934 2.0878 2.2833 297.02 0.070981 11.677 0.036042
162.38 23.638 undefined 820.60 902.09 3.4982 2.0000 0.50000 820.60 902.09 3.4982 2.0921 2.2875 297.34 0.070536 11.702 0.036192 2.0000 0.50000 820.60 902.09 3.4982 2.0921 2.2875 297.34 0.070536 11.702 0.036192
163.38 23.693 undefined 822.70 904.38 3.5030 2.0000 0.50000 822.70 904.38 3.5030 2.0964 2.2918 297.67 0.070094 11.727 0.036343 2.0000 0.50000 822.70 904.38 3.5030 2.0964 2.2918 297.67 0.070094 11.727 0.036343
164.38 23.748 undefined 824.80 906.67 3.5078 2.0000 0.50000 824.80 906.67 3.5078 2.1006 2.2960 297.99 0.069657 11.752 0.036493 2.0000 0.50000 824.80 906.67 3.5078 2.1006 2.2960 297.99 0.069657 11.752 0.036493
165.38 23.803 undefined 826.90 908.96 3.5126 2.0000 0.50000 826.90 908.96 3.5126 2.1049 2.3002 298.32 0.069224 11.777 0.036644 2.0000 0.50000 826.90 908.96 3.5126 2.1049 2.3002 298.32 0.069224 11.777 0.036644
166.38 23.859 undefined 829.01 911.26 3.5174 2.0000 0.50000 829.01 911.26 3.5174 2.1091 2.3045 298.64 0.068795 11.802 0.036795 2.0000 0.50000 829.01 911.26 3.5174 2.1091 2.3045 298.64 0.068795 11.802 0.036795
167.38 23.914 undefined 831.12 913.56 3.5222 2.0000 0.50000 831.12 913.56 3.5222 2.1134 2.3087 298.97 0.068370 11.827 0.036947 2.0000 0.50000 831.12 913.56 3.5222 2.1134 2.3087 298.97 0.068370 11.827 0.036947
168.38 23.969 undefined 833.23 915.86 3.5270 2.0000 0.50000 833.23 915.86 3.5270 2.1176 2.3129 299.29 0.067949 11.852 0.037099 2.0000 0.50000 833.23 915.86 3.5270 2.1176 2.3129 299.29 0.067949 11.852 0.037099
169.38 24.024 undefined 835.35 918.17 3.5318 2.0000 0.50000 835.35 918.17 3.5318 2.1219 2.3171 299.62 0.067531 11.877 0.037251 2.0000 0.50000 835.35 918.17 3.5318 2.1219 2.3171 299.62 0.067531 11.877 0.037251
170.38 24.080 undefined 837.48 920.49 3.5366 2.0000 0.50000 837.48 920.49 3.5366 2.1261 2.3213 299.94 0.067118 11.902 0.037403 2.0000 0.50000 837.48 920.49 3.5366 2.1261 2.3213 299.94 0.067118 11.902 0.037403
171.38 24.135 undefined 839.61 922.81 3.5414 2.0000 0.50000 839.61 922.81 3.5414 2.1303 2.3255 300.26 0.066708 11.926 0.037556 2.0000 0.50000 839.61 922.81 3.5414 2.1303 2.3255 300.26 0.066708 11.926 0.037556
172.38 24.190 undefined 841.74 925.13 3.5462 2.0000 0.50000 841.74 925.13 3.5462 2.1345 2.3297 300.59 0.066302 11.951 0.037709 2.0000 0.50000 841.74 925.13 3.5462 2.1345 2.3297 300.59 0.066302 11.951 0.037709
173.38 24.245 undefined 843.87 927.46 3.5510 2.0000 0.50000 843.87 927.46 3.5510 2.1388 2.3339 300.91 0.065899 11.976 0.037862 2.0000 0.50000 843.87 927.46 3.5510 2.1388 2.3339 300.91 0.065899 11.976 0.037862
174.38 24.301 undefined 846.02 929.79 3.5558 2.0000 0.50000 846.02 929.79 3.5558 2.1430 2.3381 301.23 0.065501 12.001 0.038015 2.0000 0.50000 846.02 929.79 3.5558 2.1430 2.3381 301.23 0.065501 12.001 0.038015
175.38 24.356 undefined 848.16 932.12 3.5606 2.0000 0.50000 848.16 932.12 3.5606 2.1472 2.3423 301.55 0.065106 12.026 0.038169 2.0000 0.50000 848.16 932.12 3.5606 2.1472 2.3423 301.55 0.065106 12.026 0.038169
176.38 24.411 undefined 850.31 934.46 3.5654 2.0000 0.50000 850.31 934.46 3.5654 2.1514 2.3465 301.87 0.064714 12.051 0.038323 2.0000 0.50000 850.31 934.46 3.5654 2.1514 2.3465 301.87 0.064714 12.051 0.038323
177.38 24.466 undefined 852.46 936.81 3.5701 2.0000 0.50000 852.46 936.81 3.5701 2.1556 2.3506 302.19 0.064326 12.076 0.038478 2.0000 0.50000 852.46 936.81 3.5701 2.1556 2.3506 302.19 0.064326 12.076 0.038478
178.38 24.522 undefined 854.62 939.16 3.5749 2.0000 0.50000 854.62 939.16 3.5749 2.1598 2.3548 302.52 0.063941 12.100 0.038632 2.0000 0.50000 854.62 939.16 3.5749 2.1598 2.3548 302.52 0.063941 12.100 0.038632
179.38 24.577 undefined 856.78 941.51 3.5797 2.0000 0.50000 856.78 941.51 3.5797 2.1640 2.3590 302.84 0.063560 12.125 0.038787 2.0000 0.50000 856.78 941.51 3.5797 2.1640 2.3590 302.84 0.063560 12.125 0.038787
180.38 24.632 undefined 858.95 943.86 3.5845 2.0000 0.50000 858.95 943.86 3.5845 2.1682 2.3631 303.16 0.063182 12.150 0.038943 2.0000 0.50000 858.95 943.86 3.5845 2.1682 2.3631 303.16 0.063182 12.150 0.038943
181.38 24.687 undefined 861.12 946.23 3.5893 2.0000 0.50000 861.12 946.23 3.5893 2.1723 2.3673 303.48 0.062808 12.175 0.039098 2.0000 0.50000 861.12 946.23 3.5893 2.1723 2.3673 303.48 0.062808 12.175 0.039098
182.38 24.743 undefined 863.29 948.59 3.5940 2.0000 0.50000 863.29 948.59 3.5940 2.1765 2.3714 303.79 0.062436 12.199 0.039254 2.0000 0.50000 863.29 948.59 3.5940 2.1765 2.3714 303.79 0.062436 12.199 0.039254
183.38 24.798 undefined 865.47 950.96 3.5988 2.0000 0.50000 865.47 950.96 3.5988 2.1807 2.3756 304.11 0.062068 12.224 0.039410 2.0000 0.50000 865.47 950.96 3.5988 2.1807 2.3756 304.11 0.062068 12.224 0.039410
184.38 24.853 undefined 867.65 953.33 3.6036 2.0000 0.50000 867.65 953.33 3.6036 2.1848 2.3797 304.43 0.061704 12.249 0.039567 2.0000 0.50000 867.65 953.33 3.6036 2.1848 2.3797 304.43 0.061704 12.249 0.039567
185.38 24.908 undefined 869.84 955.71 3.6084 2.0000 0.50000 869.84 955.71 3.6084 2.1890 2.3839 304.75 0.061342 12.273 0.039724 2.0000 0.50000 869.84 955.71 3.6084 2.1890 2.3839 304.75 0.061342 12.273 0.039724
186.38 24.963 undefined 872.03 958.09 3.6131 2.0000 0.50000 872.03 958.09 3.6131 2.1931 2.3880 305.07 0.060984 12.298 0.039881 2.0000 0.50000 872.03 958.09 3.6131 2.1931 2.3880 305.07 0.060984 12.298 0.039881
187.38 25.019 undefined 874.23 960.48 3.6179 2.0000 0.50000 874.23 960.48 3.6179 2.1973 2.3921 305.39 0.060629 12.323 0.040038 2.0000 0.50000 874.23 960.48 3.6179 2.1973 2.3921 305.39 0.060629 12.323 0.040038
188.38 25.074 undefined 876.43 962.87 3.6227 2.0000 0.50000 876.43 962.87 3.6227 2.2014 2.3962 305.70 0.060276 12.347 0.040196 2.0000 0.50000 876.43 962.87 3.6227 2.2014 2.3962 305.70 0.060276 12.347 0.040196
189.38 25.129 undefined 878.63 965.26 3.6275 2.0000 0.50000 878.63 965.26 3.6275 2.2056 2.4003 306.02 0.059927 12.372 0.040353 2.0000 0.50000 878.63 965.26 3.6275 2.2056 2.4003 306.02 0.059927 12.372 0.040353
190.38 25.184 undefined 880.84 967.66 3.6322 2.0000 0.50000 880.84 967.66 3.6322 2.2097 2.4045 306.34 0.059581 12.396 0.040512 2.0000 0.50000 880.84 967.66 3.6322 2.2097 2.4045 306.34 0.059581 12.396 0.040512
191.38 25.240 undefined 883.05 970.06 3.6370 2.0000 0.50000 883.05 970.06 3.6370 2.2138 2.4086 306.65 0.059238 12.421 0.040670 2.0000 0.50000 883.05 970.06 3.6370 2.2138 2.4086 306.65 0.059238 12.421 0.040670
192.38 25.295 undefined 885.27 972.47 3.6418 2.0000 0.50000 885.27 972.47 3.6418 2.2180 2.4127 306.97 0.058897 12.445 0.040829 2.0000 0.50000 885.27 972.47 3.6418 2.2180 2.4127 306.97 0.058897 12.445 0.040829
193.38 25.350 undefined 887.49 974.88 3.6465 2.0000 0.50000 887.49 974.88 3.6465 2.2221 2.4168 307.29 0.058560 12.470 0.040988 2.0000 0.50000 887.49 974.88 3.6465 2.2221 2.4168 307.29 0.058560 12.470 0.040988
194.38 25.405 undefined 889.71 977.29 3.6513 2.0000 0.50000 889.71 977.29 3.6513 2.2262 2.4208 307.60 0.058226 12.495 0.041147 2.0000 0.50000 889.71 977.29 3.6513 2.2262 2.4208 307.60 0.058226 12.495 0.041147
195.38 25.460 undefined 891.94 979.71 3.6560 2.0000 0.50000 891.94 979.71 3.6560 2.2303 2.4249 307.92 0.057894 12.519 0.041307 2.0000 0.50000 891.94 979.71 3.6560 2.2303 2.4249 307.92 0.057894 12.519 0.041307
196.38 25.516 undefined 894.17 982.13 3.6608 2.0000 0.50000 894.17 982.13 3.6608 2.2344 2.4290 308.23 0.057565 12.544 0.041467 2.0000 0.50000 894.17 982.13 3.6608 2.2344 2.4290 308.23 0.057565 12.544 0.041467
197.38 25.571 undefined 896.41 984.56 3.6656 2.0000 0.50000 896.41 984.56 3.6656 2.2385 2.4331 308.55 0.057239 12.568 0.041627 2.0000 0.50000 896.41 984.56 3.6656 2.2385 2.4331 308.55 0.057239 12.568 0.041627
198.38 25.626 undefined 898.65 986.99 3.6703 2.0000 0.50000 898.65 986.99 3.6703 2.2426 2.4371 308.86 0.056915 12.592 0.041788 2.0000 0.50000 898.65 986.99 3.6703 2.2426 2.4371 308.86 0.056915 12.592 0.041788
199.38 25.681 undefined 900.89 989.43 3.6751 2.0000 0.50000 900.89 989.43 3.6751 2.2467 2.4412 309.18 0.056595 12.617 0.041949 2.0000 0.50000 900.89 989.43 3.6751 2.2467 2.4412 309.18 0.056595 12.617 0.041949
200.38 25.736 undefined 903.14 991.86 3.6798 2.0000 0.50000 903.14 991.86 3.6798 2.2507 2.4453 309.49 0.056277 12.641 0.042110 2.0000 0.50000 903.14 991.86 3.6798 2.2507 2.4453 309.49 0.056277 12.641 0.042110
201.38 25.792 undefined 905.39 994.31 3.6846 2.0000 0.50000 905.39 994.31 3.6846 2.2548 2.4493 309.80 0.055961 12.666 0.042271 2.0000 0.50000 905.39 994.31 3.6846 2.2548 2.4493 309.80 0.055961 12.666 0.042271
202.38 25.847 undefined 907.65 996.75 3.6893 2.0000 0.50000 907.65 996.75 3.6893 2.2589 2.4534 310.12 0.055649 12.690 0.042433 2.0000 0.50000 907.65 996.75 3.6893 2.2589 2.4534 310.12 0.055649 12.690 0.042433
203.38 25.902 undefined 909.91 999.21 3.6941 2.0000 0.50000 909.91 999.21 3.6941 2.2629 2.4574 310.43 0.055338 12.714 0.042595 2.0000 0.50000 909.91 999.21 3.6941 2.2629 2.4574 310.43 0.055338 12.714 0.042595
204.38 25.957 undefined 912.18 1001.7 3.6988 2.0000 0.50000 912.18 1001.7 3.6988 2.2670 2.4614 310.74 0.055031 12.739 0.042757 2.0000 0.50000 912.18 1001.7 3.6988 2.2670 2.4614 310.74 0.055031 12.739 0.042757
205.38 26.012 undefined 914.45 1004.1 3.7036 2.0000 0.50000 914.45 1004.1 3.7036 2.2710 2.4655 311.05 0.054726 12.763 0.042920 2.0000 0.50000 914.45 1004.1 3.7036 2.2710 2.4655 311.05 0.054726 12.763 0.042920
206.38 26.068 undefined 916.72 1006.6 3.7083 2.0000 0.50000 916.72 1006.6 3.7083 2.2751 2.4695 311.37 0.054423 12.787 0.043082 2.0000 0.50000 916.72 1006.6 3.7083 2.2751 2.4695 311.37 0.054423 12.787 0.043082
207.38 26.123 undefined 919.00 1009.1 3.7131 2.0000 0.50000 919.00 1009.1 3.7131 2.2791 2.4735 311.68 0.054123 12.812 0.043246 2.0000 0.50000 919.00 1009.1 3.7131 2.2791 2.4735 311.68 0.054123 12.812 0.043246
208.38 26.178 undefined 921.28 1011.5 3.7178 2.0000 0.50000 921.28 1011.5 3.7178 2.2832 2.4775 311.99 0.053825 12.836 0.043409 2.0000 0.50000 921.28 1011.5 3.7178 2.2832 2.4775 311.99 0.053825 12.836 0.043409
209.38 26.233 undefined 923.56 1014.0 3.7225 2.0000 0.50000 923.56 1014.0 3.7225 2.2872 2.4815 312.30 0.053530 12.860 0.043573 2.0000 0.50000 923.56 1014.0 3.7225 2.2872 2.4815 312.30 0.053530 12.860 0.043573
210.38 26.288 undefined 925.85 1016.5 3.7273 2.0000 0.50000 925.85 1016.5 3.7273 2.2912 2.4855 312.61 0.053237 12.884 0.043737 2.0000 0.50000 925.85 1016.5 3.7273 2.2912 2.4855 312.61 0.053237 12.884 0.043737
211.38 26.344 undefined 928.14 1019.0 3.7320 2.0000 0.50000 928.14 1019.0 3.7320 2.2952 2.4895 312.92 0.052946 12.909 0.043901 2.0000 0.50000 928.14 1019.0 3.7320 2.2952 2.4895 312.92 0.052946 12.909 0.043901
212.38 26.399 undefined 930.44 1021.4 3.7368 2.0000 0.50000 930.44 1021.4 3.7368 2.2992 2.4935 313.23 0.052658 12.933 0.044066 2.0000 0.50000 930.44 1021.4 3.7368 2.2992 2.4935 313.23 0.052658 12.933 0.044066
213.38 26.454 undefined 932.74 1023.9 3.7415 2.0000 0.50000 932.74 1023.9 3.7415 2.3032 2.4975 313.54 0.052372 12.957 0.044231 2.0000 0.50000 932.74 1023.9 3.7415 2.3032 2.4975 313.54 0.052372 12.957 0.044231
214.38 26.509 undefined 935.05 1026.4 3.7462 2.0000 0.50000 935.05 1026.4 3.7462 2.3072 2.5015 313.85 0.052088 12.981 0.044396 2.0000 0.50000 935.05 1026.4 3.7462 2.3072 2.5015 313.85 0.052088 12.981 0.044396
215.38 26.564 undefined 937.36 1028.9 3.7510 2.0000 0.50000 937.36 1028.9 3.7510 2.3112 2.5055 314.16 0.051807 13.005 0.044561 2.0000 0.50000 937.36 1028.9 3.7510 2.3112 2.5055 314.16 0.051807 13.005 0.044561
216.38 26.620 undefined 939.67 1031.4 3.7557 2.0000 0.50000 939.67 1031.4 3.7557 2.3152 2.5095 314.47 0.051528 13.029 0.044727 2.0000 0.50000 939.67 1031.4 3.7557 2.3152 2.5095 314.47 0.051528 13.029 0.044727
217.38 26.675 undefined 941.99 1033.9 3.7604 2.0000 0.50000 941.99 1033.9 3.7604 2.3192 2.5134 314.78 0.051251 13.054 0.044893 2.0000 0.50000 941.99 1033.9 3.7604 2.3192 2.5134 314.78 0.051251 13.054 0.044893
218.38 26.730 undefined 944.31 1036.5 3.7651 2.0000 0.50000 944.31 1036.5 3.7651 2.3232 2.5174 315.08 0.050976 13.078 0.045060 2.0000 0.50000 944.31 1036.5 3.7651 2.3232 2.5174 315.08 0.050976 13.078 0.045060
219.38 26.785 undefined 946.63 1039.0 3.7699 2.0000 0.50000 946.63 1039.0 3.7699 2.3272 2.5213 315.39 0.050703 13.102 0.045226 2.0000 0.50000 946.63 1039.0 3.7699 2.3272 2.5213 315.39 0.050703 13.102 0.045226
220.38 26.840 undefined 948.96 1041.5 3.7746 2.0000 0.50000 948.96 1041.5 3.7746 2.3311 2.5253 315.70 0.050433 13.126 0.045393 2.0000 0.50000 948.96 1041.5 3.7746 2.3311 2.5253 315.70 0.050433 13.126 0.045393
221.38 26.896 undefined 951.30 1044.0 3.7793 2.0000 0.50000 951.30 1044.0 3.7793 2.3351 2.5292 316.01 0.050165 13.150 0.045560 2.0000 0.50000 951.30 1044.0 3.7793 2.3351 2.5292 316.01 0.050165 13.150 0.045560
222.38 26.951 undefined 953.63 1046.5 3.7840 2.0000 0.50000 953.63 1046.5 3.7840 2.3391 2.5332 316.31 0.049898 13.174 0.045728 2.0000 0.50000 953.63 1046.5 3.7840 2.3391 2.5332 316.31 0.049898 13.174 0.045728
223.38 27.006 undefined 955.97 1049.1 3.7888 2.0000 0.50000 955.97 1049.1 3.7888 2.3430 2.5371 316.62 0.049634 13.198 0.045896 2.0000 0.50000 955.97 1049.1 3.7888 2.3430 2.5371 316.62 0.049634 13.198 0.045896
224.38 27.061 undefined 958.32 1051.6 3.7935 2.0000 0.50000 958.32 1051.6 3.7935 2.3470 2.5410 316.93 0.049372 13.222 0.046064 2.0000 0.50000 958.32 1051.6 3.7935 2.3470 2.5410 316.93 0.049372 13.222 0.046064
225.38 27.116 undefined 960.67 1054.1 3.7982 2.0000 0.50000 960.67 1054.1 3.7982 2.3509 2.5450 317.23 0.049112 13.246 0.046232 2.0000 0.50000 960.67 1054.1 3.7982 2.3509 2.5450 317.23 0.049112 13.246 0.046232
226.38 27.171 undefined 963.02 1056.7 3.8029 2.0000 0.50000 963.02 1056.7 3.8029 2.3548 2.5489 317.54 0.048854 13.270 0.046401 2.0000 0.50000 963.02 1056.7 3.8029 2.3548 2.5489 317.54 0.048854 13.270 0.046401
227.38 27.227 undefined 965.38 1059.2 3.8076 2.0000 0.50000 965.38 1059.2 3.8076 2.3588 2.5528 317.85 0.048597 13.294 0.046570 2.0000 0.50000 965.38 1059.2 3.8076 2.3588 2.5528 317.85 0.048597 13.294 0.046570
228.38 27.282 undefined 967.74 1061.8 3.8123 2.0000 0.50000 967.74 1061.8 3.8123 2.3627 2.5567 318.15 0.048343 13.318 0.046739 2.0000 0.50000 967.74 1061.8 3.8123 2.3627 2.5567 318.15 0.048343 13.318 0.046739
229.38 27.337 undefined 970.10 1064.3 3.8170 2.0000 0.50000 970.10 1064.3 3.8170 2.3666 2.5606 318.46 0.048091 13.342 0.046909 2.0000 0.50000 970.10 1064.3 3.8170 2.3666 2.5606 318.46 0.048091 13.342 0.046909
230.38 27.392 undefined 972.47 1066.9 3.8218 2.0000 0.50000 972.47 1066.9 3.8218 2.3705 2.5645 318.76 0.047841 13.365 0.047079 2.0000 0.50000 972.47 1066.9 3.8218 2.3705 2.5645 318.76 0.047841 13.365 0.047079
231.38 27.447 undefined 974.84 1069.5 3.8265 2.0000 0.50000 974.84 1069.5 3.8265 2.3744 2.5684 319.07 0.047592 13.389 0.047249 2.0000 0.50000 974.84 1069.5 3.8265 2.3744 2.5684 319.07 0.047592 13.389 0.047249
232.38 27.503 undefined 977.22 1072.0 3.8312 2.0000 0.50000 977.22 1072.0 3.8312 2.3783 2.5723 319.37 0.047346 13.413 0.047419 2.0000 0.50000 977.22 1072.0 3.8312 2.3783 2.5723 319.37 0.047346 13.413 0.047419
233.38 27.558 undefined 979.60 1074.6 3.8359 2.0000 0.50000 979.60 1074.6 3.8359 2.3822 2.5762 319.67 0.047101 13.437 0.047590 2.0000 0.50000 979.60 1074.6 3.8359 2.3822 2.5762 319.67 0.047101 13.437 0.047590
234.38 27.613 undefined 981.99 1077.2 3.8406 2.0000 0.50000 981.99 1077.2 3.8406 2.3861 2.5800 319.98 0.046858 13.461 0.047761 2.0000 0.50000 981.99 1077.2 3.8406 2.3861 2.5800 319.98 0.046858 13.461 0.047761
235.38 27.668 undefined 984.37 1079.8 3.8453 2.0000 0.50000 984.37 1079.8 3.8453 2.3900 2.5839 320.28 0.046617 13.485 0.047932 2.0000 0.50000 984.37 1079.8 3.8453 2.3900 2.5839 320.28 0.046617 13.485 0.047932
236.38 27.723 undefined 986.77 1082.3 3.8500 2.0000 0.50000 986.77 1082.3 3.8500 2.3939 2.5878 320.58 0.046378 13.508 0.048104 2.0000 0.50000 986.77 1082.3 3.8500 2.3939 2.5878 320.58 0.046378 13.508 0.048104
237.38 27.778 undefined 989.16 1084.9 3.8547 2.0000 0.50000 989.16 1084.9 3.8547 2.3978 2.5916 320.89 0.046140 13.532 0.048276 2.0000 0.50000 989.16 1084.9 3.8547 2.3978 2.5916 320.89 0.046140 13.532 0.048276
238.38 27.834 undefined 991.56 1087.5 3.8594 2.0000 0.50000 991.56 1087.5 3.8594 2.4016 2.5955 321.19 0.045904 13.556 0.048448 2.0000 0.50000 991.56 1087.5 3.8594 2.4016 2.5955 321.19 0.045904 13.556 0.048448
239.38 27.889 undefined 993.96 1090.1 3.8641 2.0000 0.50000 993.96 1090.1 3.8641 2.4055 2.5993 321.49 0.045670 13.580 0.048621 2.0000 0.50000 993.96 1090.1 3.8641 2.4055 2.5993 321.49 0.045670 13.580 0.048621
240.38 27.944 undefined 996.37 1092.7 3.8688 2.0000 0.50000 996.37 1092.7 3.8688 2.4093 2.6032 321.79 0.045438 13.603 0.048793 2.0000 0.50000 996.37 1092.7 3.8688 2.4093 2.6032 321.79 0.045438 13.603 0.048793
241.38 27.999 undefined 998.78 1095.3 3.8734 2.0000 0.50000 998.78 1095.3 3.8734 2.4132 2.6070 322.10 0.045208 13.627 0.048966 2.0000 0.50000 998.78 1095.3 3.8734 2.4132 2.6070 322.10 0.045208 13.627 0.048966
242.38 28.054 undefined 1001.2 1097.9 3.8781 2.0000 0.50000 1001.2 1097.9 3.8781 2.4170 2.6108 322.40 0.044979 13.651 0.049140 2.0000 0.50000 1001.2 1097.9 3.8781 2.4170 2.6108 322.40 0.044979 13.651 0.049140
243.38 28.109 undefined 1003.6 1100.5 3.8828 2.0000 0.50000 1003.6 1100.5 3.8828 2.4209 2.6146 322.70 0.044752 13.674 0.049313 2.0000 0.50000 1003.6 1100.5 3.8828 2.4209 2.6146 322.70 0.044752 13.674 0.049313
244.38 28.165 undefined 1006.0 1103.1 3.8875 2.0000 0.50000 1006.0 1103.1 3.8875 2.4247 2.6185 323.00 0.044526 13.698 0.049487 2.0000 0.50000 1006.0 1103.1 3.8875 2.4247 2.6185 323.00 0.044526 13.698 0.049487
245.38 28.220 undefined 1008.5 1105.8 3.8922 2.0000 0.50000 1008.5 1105.8 3.8922 2.4285 2.6223 323.30 0.044302 13.722 0.049662 2.0000 0.50000 1008.5 1105.8 3.8922 2.4285 2.6223 323.30 0.044302 13.722 0.049662
246.38 28.275 undefined 1010.9 1108.4 3.8969 2.0000 0.50000 1010.9 1108.4 3.8969 2.4324 2.6261 323.60 0.044080 13.745 0.049836 2.0000 0.50000 1010.9 1108.4 3.8969 2.4324 2.6261 323.60 0.044080 13.745 0.049836
247.38 28.330 undefined 1013.3 1111.0 3.9016 2.0000 0.50000 1013.3 1111.0 3.9016 2.4362 2.6299 323.90 0.043859 13.769 0.050011 2.0000 0.50000 1013.3 1111.0 3.9016 2.4362 2.6299 323.90 0.043859 13.769 0.050011
248.38 28.385 undefined 1015.8 1113.6 3.9062 2.0000 0.50000 1015.8 1113.6 3.9062 2.4400 2.6337 324.20 0.043640 13.792 0.050186 2.0000 0.50000 1015.8 1113.6 3.9062 2.4400 2.6337 324.20 0.043640 13.792 0.050186
249.38 28.440 undefined 1018.2 1116.3 3.9109 2.0000 0.50000 1018.2 1116.3 3.9109 2.4438 2.6375 324.50 0.043423 13.816 0.050361 2.0000 0.50000 1018.2 1116.3 3.9109 2.4438 2.6375 324.50 0.043423 13.816 0.050361
250.38 28.496 undefined 1020.7 1118.9 3.9156 2.0000 0.50000 1020.7 1118.9 3.9156 2.4476 2.6413 324.80 0.043207 13.839 0.050537 2.0000 0.50000 1020.7 1118.9 3.9156 2.4476 2.6413 324.80 0.043207 13.839 0.050537
251.38 28.551 undefined 1023.1 1121.5 3.9203 2.0000 0.50000 1023.1 1121.5 3.9203 2.4514 2.6451 325.10 0.042992 13.863 0.050713 2.0000 0.50000 1023.1 1121.5 3.9203 2.4514 2.6451 325.10 0.042992 13.863 0.050713
252.38 28.606 undefined 1025.6 1124.2 3.9249 2.0000 0.50000 1025.6 1124.2 3.9249 2.4552 2.6488 325.40 0.042779 13.886 0.050889 2.0000 0.50000 1025.6 1124.2 3.9249 2.4552 2.6488 325.40 0.042779 13.886 0.050889
253.38 28.661 undefined 1028.0 1126.8 3.9296 2.0000 0.50000 1028.0 1126.8 3.9296 2.4590 2.6526 325.70 0.042568 13.910 0.051066 2.0000 0.50000 1028.0 1126.8 3.9296 2.4590 2.6526 325.70 0.042568 13.910 0.051066
254.38 28.716 undefined 1030.5 1129.5 3.9343 2.0000 0.50000 1030.5 1129.5 3.9343 2.4628 2.6564 325.99 0.042358 13.933 0.051243 2.0000 0.50000 1030.5 1129.5 3.9343 2.4628 2.6564 325.99 0.042358 13.933 0.051243
255.38 28.771 undefined 1032.9 1132.1 3.9389 2.0000 0.50000 1032.9 1132.1 3.9389 2.4665 2.6601 326.29 0.042150 13.957 0.051420 2.0000 0.50000 1032.9 1132.1 3.9389 2.4665 2.6601 326.29 0.042150 13.957 0.051420
256.38 28.827 undefined 1035.4 1134.8 3.9436 2.0000 0.50000 1035.4 1134.8 3.9436 2.4703 2.6639 326.59 0.041943 13.980 0.051597 2.0000 0.50000 1035.4 1134.8 3.9436 2.4703 2.6639 326.59 0.041943 13.980 0.051597
257.38 28.882 undefined 1037.9 1137.4 3.9483 2.0000 0.50000 1037.9 1137.4 3.9483 2.4741 2.6676 326.89 0.041738 14.003 0.051775 2.0000 0.50000 1037.9 1137.4 3.9483 2.4741 2.6676 326.89 0.041738 14.003 0.051775
258.38 28.937 undefined 1040.4 1140.1 3.9529 2.0000 0.50000 1040.4 1140.1 3.9529 2.4778 2.6714 327.18 0.041533 14.027 0.051953 2.0000 0.50000 1040.4 1140.1 3.9529 2.4778 2.6714 327.18 0.041533 14.027 0.051953
259.38 28.992 undefined 1042.8 1142.8 3.9576 2.0000 0.50000 1042.8 1142.8 3.9576 2.4816 2.6751 327.48 0.041331 14.050 0.052131 2.0000 0.50000 1042.8 1142.8 3.9576 2.4816 2.6751 327.48 0.041331 14.050 0.052131
260.38 29.047 undefined 1045.3 1145.5 3.9623 2.0000 0.50000 1045.3 1145.5 3.9623 2.4853 2.6788 327.78 0.041130 14.073 0.052310 2.0000 0.50000 1045.3 1145.5 3.9623 2.4853 2.6788 327.78 0.041130 14.073 0.052310
261.38 29.102 undefined 1047.8 1148.1 3.9669 2.0000 0.50000 1047.8 1148.1 3.9669 2.4891 2.6826 328.07 0.040930 14.097 0.052489 2.0000 0.50000 1047.8 1148.1 3.9669 2.4891 2.6826 328.07 0.040930 14.097 0.052489
262.38 29.157 undefined 1050.3 1150.8 3.9716 2.0000 0.50000 1050.3 1150.8 3.9716 2.4928 2.6863 328.37 0.040732 14.120 0.052668 2.0000 0.50000 1050.3 1150.8 3.9716 2.4928 2.6863 328.37 0.040732 14.120 0.052668
263.38 29.213 undefined 1052.8 1153.5 3.9762 2.0000 0.50000 1052.8 1153.5 3.9762 2.4965 2.6900 328.67 0.040535 14.143 0.052848 2.0000 0.50000 1052.8 1153.5 3.9762 2.4965 2.6900 328.67 0.040535 14.143 0.052848
264.38 29.268 undefined 1055.3 1156.2 3.9809 2.0000 0.50000 1055.3 1156.2 3.9809 2.5002 2.6937 328.96 0.040339 14.167 0.053027 2.0000 0.50000 1055.3 1156.2 3.9809 2.5002 2.6937 328.96 0.040339 14.167 0.053027
265.38 29.323 undefined 1057.8 1158.9 3.9855 2.0000 0.50000 1057.8 1158.9 3.9855 2.5040 2.6974 329.26 0.040145 14.190 0.053207 2.0000 0.50000 1057.8 1158.9 3.9855 2.5040 2.6974 329.26 0.040145 14.190 0.053207
266.38 29.378 undefined 1060.3 1161.6 3.9902 2.0000 0.50000 1060.3 1161.6 3.9902 2.5077 2.7011 329.55 0.039952 14.213 0.053388 2.0000 0.50000 1060.3 1161.6 3.9902 2.5077 2.7011 329.55 0.039952 14.213 0.053388
267.38 29.433 undefined 1062.8 1164.3 3.9948 2.0000 0.50000 1062.8 1164.3 3.9948 2.5114 2.7048 329.85 0.039760 14.236 0.053568 2.0000 0.50000 1062.8 1164.3 3.9948 2.5114 2.7048 329.85 0.039760 14.236 0.053568
268.38 29.488 undefined 1065.3 1167.0 3.9995 2.0000 0.50000 1065.3 1167.0 3.9995 2.5151 2.7085 330.14 0.039570 14.260 0.053749 2.0000 0.50000 1065.3 1167.0 3.9995 2.5151 2.7085 330.14 0.039570 14.260 0.053749
269.38 29.544 undefined 1067.8 1169.7 4.0041 2.0000 0.50000 1067.8 1169.7 4.0041 2.5188 2.7122 330.44 0.039381 14.283 0.053931 2.0000 0.50000 1067.8 1169.7 4.0041 2.5188 2.7122 330.44 0.039381 14.283 0.053931
270.38 29.599 undefined 1070.4 1172.4 4.0088 2.0000 0.50000 1070.4 1172.4 4.0088 2.5225 2.7159 330.73 0.039193 14.306 0.054112 2.0000 0.50000 1070.4 1172.4 4.0088 2.5225 2.7159 330.73 0.039193 14.306 0.054112
271.38 29.654 undefined 1072.9 1175.1 4.0134 2.0000 0.50000 1072.9 1175.1 4.0134 2.5262 2.7195 331.02 0.039006 14.329 0.054294 2.0000 0.50000 1072.9 1175.1 4.0134 2.5262 2.7195 331.02 0.039006 14.329 0.054294
272.38 29.709 undefined 1075.4 1177.8 4.0180 2.0000 0.50000 1075.4 1177.8 4.0180 2.5298 2.7232 331.32 0.038821 14.352 0.054476 2.0000 0.50000 1075.4 1177.8 4.0180 2.5298 2.7232 331.32 0.038821 14.352 0.054476
273.38 29.764 undefined 1077.9 1180.6 4.0227 2.0000 0.50000 1077.9 1180.6 4.0227 2.5335 2.7269 331.61 0.038637 14.375 0.054658 2.0000 0.50000 1077.9 1180.6 4.0227 2.5335 2.7269 331.61 0.038637 14.375 0.054658
274.38 29.819 undefined 1080.5 1183.3 4.0273 2.0000 0.50000 1080.5 1183.3 4.0273 2.5372 2.7305 331.90 0.038454 14.398 0.054841 2.0000 0.50000 1080.5 1183.3 4.0273 2.5372 2.7305 331.90 0.038454 14.398 0.054841
275.38 29.874 undefined 1083.0 1186.0 4.0319 2.0000 0.50000 1083.0 1186.0 4.0319 2.5409 2.7342 332.20 0.038273 14.421 0.055024 2.0000 0.50000 1083.0 1186.0 4.0319 2.5409 2.7342 332.20 0.038273 14.421 0.055024
276.38 29.930 undefined 1085.6 1188.7 4.0366 2.0000 0.50000 1085.6 1188.7 4.0366 2.5445 2.7378 332.49 0.038092 14.444 0.055207 2.0000 0.50000 1085.6 1188.7 4.0366 2.5445 2.7378 332.49 0.038092 14.444 0.055207
277.38 29.985 undefined 1088.1 1191.5 4.0412 2.0000 0.50000 1088.1 1191.5 4.0412 2.5482 2.7415 332.78 0.037913 14.467 0.055391 2.0000 0.50000 1088.1 1191.5 4.0412 2.5482 2.7415 332.78 0.037913 14.467 0.055391
278.38 30.040 undefined 1090.7 1194.2 4.0458 2.0000 0.50000 1090.7 1194.2 4.0458 2.5518 2.7451 333.07 0.037735 14.490 0.055575 2.0000 0.50000 1090.7 1194.2 4.0458 2.5518 2.7451 333.07 0.037735 14.490 0.055575
279.38 30.095 undefined 1093.2 1197.0 4.0505 2.0000 0.50000 1093.2 1197.0 4.0505 2.5555 2.7487 333.37 0.037558 14.513 0.055759 2.0000 0.50000 1093.2 1197.0 4.0505 2.5555 2.7487 333.37 0.037558 14.513 0.055759
280.38 30.150 undefined 1095.8 1199.7 4.0551 2.0000 0.50000 1095.8 1199.7 4.0551 2.5591 2.7524 333.66 0.037383 14.536 0.055943 2.0000 0.50000 1095.8 1199.7 4.0551 2.5591 2.7524 333.66 0.037383 14.536 0.055943
281.38 30.205 undefined 1098.3 1202.5 4.0597 2.0000 0.50000 1098.3 1202.5 4.0597 2.5627 2.7560 333.95 0.037208 14.559 0.056128 2.0000 0.50000 1098.3 1202.5 4.0597 2.5627 2.7560 333.95 0.037208 14.559 0.056128
282.38 30.260 undefined 1100.9 1205.2 4.0643 2.0000 0.50000 1100.9 1205.2 4.0643 2.5664 2.7596 334.24 0.037035 14.582 0.056313 2.0000 0.50000 1100.9 1205.2 4.0643 2.5664 2.7596 334.24 0.037035 14.582 0.056313
283.38 30.316 undefined 1103.5 1208.0 4.0689 2.0000 0.50000 1103.5 1208.0 4.0689 2.5700 2.7632 334.53 0.036863 14.605 0.056498 2.0000 0.50000 1103.5 1208.0 4.0689 2.5700 2.7632 334.53 0.036863 14.605 0.056498
284.38 30.371 undefined 1106.0 1210.7 4.0736 2.0000 0.50000 1106.0 1210.7 4.0736 2.5736 2.7668 334.82 0.036692 14.628 0.056684 2.0000 0.50000 1106.0 1210.7 4.0736 2.5736 2.7668 334.82 0.036692 14.628 0.056684
285.38 30.426 undefined 1108.6 1213.5 4.0782 2.0000 0.50000 1108.6 1213.5 4.0782 2.5772 2.7704 335.11 0.036522 14.651 0.056870 2.0000 0.50000 1108.6 1213.5 4.0782 2.5772 2.7704 335.11 0.036522 14.651 0.056870
286.38 30.481 undefined 1111.2 1216.3 4.0828 2.0000 0.50000 1111.2 1216.3 4.0828 2.5808 2.7740 335.40 0.036353 14.674 0.057056 2.0000 0.50000 1111.2 1216.3 4.0828 2.5808 2.7740 335.40 0.036353 14.674 0.057056
287.38 30.536 undefined 1113.8 1219.0 4.0874 2.0000 0.50000 1113.8 1219.0 4.0874 2.5844 2.7776 335.69 0.036185 14.697 0.057242 2.0000 0.50000 1113.8 1219.0 4.0874 2.5844 2.7776 335.69 0.036185 14.697 0.057242
288.38 30.591 undefined 1116.4 1221.8 4.0920 2.0000 0.50000 1116.4 1221.8 4.0920 2.5880 2.7812 335.98 0.036019 14.719 0.057429 2.0000 0.50000 1116.4 1221.8 4.0920 2.5880 2.7812 335.98 0.036019 14.719 0.057429
289.38 30.646 undefined 1118.9 1224.6 4.0966 2.0000 0.50000 1118.9 1224.6 4.0966 2.5916 2.7847 336.27 0.035853 14.742 0.057616 2.0000 0.50000 1118.9 1224.6 4.0966 2.5916 2.7847 336.27 0.035853 14.742 0.057616
290.38 30.702 undefined 1121.5 1227.4 4.1012 2.0000 0.50000 1121.5 1227.4 4.1012 2.5952 2.7883 336.56 0.035689 14.765 0.057804 2.0000 0.50000 1121.5 1227.4 4.1012 2.5952 2.7883 336.56 0.035689 14.765 0.057804
291.38 30.757 undefined 1124.1 1230.2 4.1058 2.0000 0.50000 1124.1 1230.2 4.1058 2.5988 2.7919 336.85 0.035525 14.788 0.057991 2.0000 0.50000 1124.1 1230.2 4.1058 2.5988 2.7919 336.85 0.035525 14.788 0.057991
292.38 30.812 undefined 1126.7 1233.0 4.1104 2.0000 0.50000 1126.7 1233.0 4.1104 2.6023 2.7954 337.14 0.035363 14.810 0.058179 2.0000 0.50000 1126.7 1233.0 4.1104 2.6023 2.7954 337.14 0.035363 14.810 0.058179
293.38 30.867 undefined 1129.3 1235.8 4.1150 2.0000 0.50000 1129.3 1235.8 4.1150 2.6059 2.7990 337.43 0.035201 14.833 0.058367 2.0000 0.50000 1129.3 1235.8 4.1150 2.6059 2.7990 337.43 0.035201 14.833 0.058367
294.38 30.922 undefined 1132.0 1238.6 4.1196 2.0000 0.50000 1132.0 1238.6 4.1196 2.6095 2.8025 337.71 0.035041 14.856 0.058556 2.0000 0.50000 1132.0 1238.6 4.1196 2.6095 2.8025 337.71 0.035041 14.856 0.058556
295.38 30.977 undefined 1134.6 1241.4 4.1242 2.0000 0.50000 1134.6 1241.4 4.1242 2.6130 2.8061 338.00 0.034882 14.878 0.058745 2.0000 0.50000 1134.6 1241.4 4.1242 2.6130 2.8061 338.00 0.034882 14.878 0.058745
296.38 31.032 undefined 1137.2 1244.2 4.1288 2.0000 0.50000 1137.2 1244.2 4.1288 2.6166 2.8096 338.29 0.034723 14.901 0.058934 2.0000 0.50000 1137.2 1244.2 4.1288 2.6166 2.8096 338.29 0.034723 14.901 0.058934
297.38 31.088 undefined 1139.8 1247.0 4.1334 2.0000 0.50000 1139.8 1247.0 4.1334 2.6201 2.8132 338.58 0.034566 14.924 0.059123 2.0000 0.50000 1139.8 1247.0 4.1334 2.6201 2.8132 338.58 0.034566 14.924 0.059123
298.38 31.143 undefined 1142.4 1249.8 4.1380 2.0000 0.50000 1142.4 1249.8 4.1380 2.6237 2.8167 338.86 0.034410 14.946 0.059313 2.0000 0.50000 1142.4 1249.8 4.1380 2.6237 2.8167 338.86 0.034410 14.946 0.059313
299.38 31.198 undefined 1145.0 1252.6 4.1426 2.0000 0.50000 1145.0 1252.6 4.1426 2.6272 2.8202 339.15 0.034254 14.969 0.059503 2.0000 0.50000 1145.0 1252.6 4.1426 2.6272 2.8202 339.15 0.034254 14.969 0.059503
300.38 31.253 undefined 1147.7 1255.4 4.1472 2.0000 0.50000 1147.7 1255.4 4.1472 2.6307 2.8237 339.44 0.034100 14.992 0.059693 2.0000 0.50000 1147.7 1255.4 4.1472 2.6307 2.8237 339.44 0.034100 14.992 0.059693