Temperature (C) Pressure (psia) Quality (l+v) Internal Energy (l+v, kJ/kg) Enthalpy (l+v, kJ/kg) Entropy (l+v, J/g*K) Density (l, kg/m3) Volume (l, m3/kg) Internal Energy (l, kJ/kg) Enthalpy (l, kJ/kg) Entropy (l, J/g*K) Cv (l, J/g*K) Cp (l, J/g*K) Sound Spd. (l, m/s) Joule-Thomson (l, F/psia) Viscosity (l, uPa*s) Therm. Cond. (l, W/m*K) Density (v, kg/m3) Volume (v, m3/kg) Internal Energy (v, kJ/kg) Enthalpy (v, kJ/kg) Entropy (v, J/g*K) Cv (v, J/g*K) Cp (v, J/g*K) Sound Spd. (v, m/s) Joule-Thomson (v, F/psia) Viscosity (v, uPa*s) Therm. Cond. (v, W/m*K)
-187.62 2.4953e-08 2.4961e-11 -196.64 -196.64 -1.3959 733.13 0.0013640 -196.64 -196.64 -1.3959 1.3553 1.9158 2136.4 -0.0077592 10960. 0.20792 1.0669e-08 9.3732e+07 350.13 366.26 5.1858 0.69067 0.87923 143.28 6.1051 2.3259 0.0017061
-186.62 3.7339e-08 3.6889e-11 -194.73 -194.73 -1.3736 732.08 0.0013660 -194.73 -194.73 -1.3736 1.3539 1.9166 2129.6 -0.0077546 10073. 0.20765 1.5780e-08 6.3371e+07 350.82 367.14 5.1200 0.69462 0.88317 144.03 5.9178 2.3534 0.0017533
-185.62 5.5322e-08 5.3986e-11 -192.81 -192.81 -1.3516 731.04 0.0013679 -192.81 -192.81 -1.3516 1.3525 1.9174 2122.9 -0.0077498 9276.1 0.20737 2.3112e-08 4.3267e+07 351.52 368.02 5.0561 0.69857 0.88713 144.77 5.7383 2.3808 0.0018007
-184.62 8.1182e-08 7.8261e-11 -190.89 -190.89 -1.3298 730.00 0.0013699 -190.89 -190.89 -1.3298 1.3513 1.9182 2116.1 -0.0077448 8557.8 0.20708 3.3533e-08 2.9821e+07 352.22 368.91 4.9939 0.70253 0.89108 145.51 5.5662 2.4083 0.0018485
-183.62 1.1803e-07 1.1242e-10 -188.97 -188.97 -1.3083 728.96 0.0013718 -188.97 -188.97 -1.3083 1.3501 1.9191 2109.3 -0.0077395 7909.8 0.20678 4.8211e-08 2.0742e+07 352.92 369.81 4.9333 0.70648 0.89504 146.24 5.4011 2.4357 0.0018965
-182.62 1.7009e-07 1.6008e-10 -187.05 -187.05 -1.2869 727.92 0.0013738 -187.05 -187.05 -1.2869 1.3490 1.9201 2102.5 -0.0077340 7324.3 0.20647 6.8704e-08 1.4555e+07 353.63 370.70 4.8744 0.71043 0.89899 146.97 5.2426 2.4632 0.0019448
-181.62 2.4299e-07 2.2600e-10 -185.13 -185.13 -1.2658 726.88 0.0013757 -185.13 -185.13 -1.2658 1.3480 1.9210 2095.7 -0.0077283 6794.5 0.20616 9.7079e-08 1.0301e+07 354.35 371.60 4.8170 0.71438 0.90294 147.69 5.0904 2.4906 0.0019934
-180.62 3.4425e-07 3.1645e-10 -183.21 -183.21 -1.2450 725.85 0.0013777 -183.21 -183.21 -1.2450 1.3470 1.9220 2088.9 -0.0077225 6314.4 0.20584 1.3605e-07 7.3504e+06 355.06 372.51 4.7612 0.71833 0.90688 148.41 4.9442 2.5181 0.0020423
-179.62 4.8378e-07 4.3959e-10 -181.29 -181.29 -1.2243 724.81 0.0013797 -181.29 -181.29 -1.2243 1.3461 1.9231 2082.0 -0.0077164 5878.8 0.20551 1.8915e-07 5.2868e+06 355.78 373.42 4.7068 0.72227 0.91082 149.13 4.8038 2.5456 0.0020915
-178.62 6.7459e-07 6.0597e-10 -179.37 -179.37 -1.2038 723.78 0.0013816 -179.37 -179.37 -1.2038 1.3453 1.9241 2075.2 -0.0077102 5482.9 0.20517 2.6096e-07 3.8320e+06 356.51 374.33 4.6538 0.72620 0.91475 149.84 4.6688 2.5731 0.0021410
-177.62 9.3358e-07 8.2913e-10 -177.44 -177.44 -1.1836 722.75 0.0013836 -177.44 -177.44 -1.1836 1.3445 1.9252 2068.4 -0.0077039 5122.6 0.20483 3.5737e-07 2.7982e+06 357.23 375.25 4.6022 0.73012 0.91867 150.54 4.5390 2.6005 0.0021907
-176.62 1.2826e-06 1.1263e-09 -175.52 -175.52 -1.1635 721.72 0.0013856 -175.52 -175.52 -1.1635 1.3437 1.9263 2061.5 -0.0076973 4794.1 0.20447 4.8588e-07 2.0581e+06 357.97 376.17 4.5519 0.73403 0.92258 151.25 4.4142 2.6280 0.0022408
-175.62 1.7496e-06 1.5194e-09 -173.59 -173.59 -1.1437 720.69 0.0013876 -173.59 -173.59 -1.1437 1.3430 1.9274 2054.7 -0.0076907 4494.3 0.20411 6.5601e-07 1.5244e+06 358.70 377.09 4.5029 0.73792 0.92648 151.95 4.2941 2.6555 0.0022912
-174.62 2.3705e-06 2.0359e-09 -171.66 -171.66 -1.1240 719.66 0.0013895 -171.66 -171.66 -1.1240 1.3423 1.9286 2047.9 -0.0076838 4220.2 0.20375 8.7976e-07 1.1367e+06 359.44 378.02 4.4551 0.74181 0.93036 152.64 4.1784 2.6830 0.0023418
-173.62 3.1903e-06 2.7102e-09 -169.73 -169.73 -1.1045 718.64 0.0013915 -169.73 -169.73 -1.1045 1.3417 1.9298 2041.0 -0.0076769 3969.3 0.20338 1.1721e-06 8.5314e+05 360.19 378.95 4.4085 0.74568 0.93423 153.33 4.0671 2.7105 0.0023928
-172.62 4.2661e-06 3.5850e-09 -167.80 -167.80 -1.0852 717.61 0.0013935 -167.80 -167.80 -1.0852 1.3411 1.9310 2034.2 -0.0076698 3739.3 0.20300 1.5518e-06 6.4441e+05 360.93 379.89 4.3631 0.74953 0.93809 154.02 3.9599 2.7379 0.0024440
-171.62 5.6692e-06 4.7131e-09 -165.87 -165.87 -1.0661 716.58 0.0013955 -165.87 -165.87 -1.0661 1.3405 1.9322 2027.3 -0.0076625 3528.0 0.20261 2.0419e-06 4.8974e+05 361.69 380.83 4.3188 0.75337 0.94193 154.71 3.8566 2.7654 0.0024955
-170.62 7.4884e-06 6.1594e-09 -163.94 -163.94 -1.0472 715.56 0.0013975 -163.94 -163.94 -1.0472 1.3400 1.9334 2020.5 -0.0076552 3333.8 0.20222 2.6708e-06 3.7442e+05 362.44 381.77 4.2755 0.75720 0.94575 155.39 3.7570 2.7929 0.0025473
-169.62 9.8334e-06 8.0031e-09 -162.00 -162.00 -1.0284 714.54 0.0013995 -162.00 -162.00 -1.0284 1.3395 1.9347 2013.6 -0.0076477 3154.9 0.20182 3.4733e-06 2.8791e+05 363.20 382.72 4.2334 0.76100 0.94956 156.07 3.6609 2.8204 0.0025994
-168.62 1.2839e-05 1.0341e-08 -160.07 -160.07 -1.0098 713.52 0.0014015 -160.07 -160.07 -1.0098 1.3390 1.9359 2006.8 -0.0076401 2989.9 0.20141 4.4917e-06 2.2263e+05 363.96 383.67 4.1922 0.76479 0.95335 156.74 3.5683 2.8479 0.0026518
-167.62 1.6672e-05 1.3288e-08 -158.13 -158.13 -0.99134 712.49 0.0014035 -158.13 -158.13 -0.99134 1.3386 1.9372 2000.0 -0.0076323 2837.5 0.20100 5.7771e-06 1.7310e+05 364.73 384.63 4.1521 0.76856 0.95712 157.41 3.4790 2.8754 0.0027045
-166.62 2.1533e-05 1.6987e-08 -156.19 -156.19 -0.97306 711.47 0.0014055 -156.19 -156.19 -0.97306 1.3382 1.9385 1993.1 -0.0076245 2696.5 0.20058 7.3914e-06 1.3529e+05 365.50 385.59 4.1129 0.77232 0.96087 158.08 3.3927 2.9029 0.0027575
-165.62 2.7666e-05 2.1603e-08 -154.25 -154.25 -0.95494 710.45 0.0014075 -154.25 -154.25 -0.95494 1.3378 1.9398 1986.3 -0.0076165 2566.0 0.20016 9.4084e-06 1.0629e+05 366.27 386.55 4.0746 0.77605 0.96460 158.75 3.3095 2.9304 0.0028108
-164.62 3.5367e-05 2.7338e-08 -152.31 -152.31 -0.93698 709.44 0.0014096 -152.31 -152.31 -0.93698 1.3375 1.9411 1979.4 -0.0076084 2444.9 0.19973 1.1916e-05 83918. 367.05 387.52 4.0372 0.77976 0.96832 159.41 3.2291 2.9579 0.0028643
-163.62 4.4989e-05 3.4428e-08 -150.37 -150.37 -0.91917 708.42 0.0014116 -150.37 -150.37 -0.91917 1.3371 1.9424 1972.6 -0.0076002 2332.3 0.19930 1.5020e-05 66577. 367.83 388.49 4.0008 0.78346 0.97201 160.07 3.1514 2.9854 0.0029182
-162.62 5.6956e-05 4.3153e-08 -148.43 -148.43 -0.90151 707.40 0.0014136 -148.43 -148.43 -0.90151 1.3368 1.9437 1965.8 -0.0075919 2227.7 0.19886 1.8844e-05 53068. 368.62 389.46 3.9651 0.78713 0.97569 160.72 3.0764 3.0129 0.0029723
-161.62 7.1773e-05 5.3844e-08 -146.48 -146.48 -0.88400 706.38 0.0014157 -146.48 -146.48 -0.88400 1.3365 1.9451 1959.0 -0.0075834 2130.2 0.19841 2.3533e-05 42494. 369.41 390.44 3.9304 0.79079 0.97935 161.38 3.0038 3.0404 0.0030268
-160.62 9.0036e-05 6.6885e-08 -144.54 -144.54 -0.86663 705.37 0.0014177 -144.54 -144.54 -0.86663 1.3363 1.9465 1952.1 -0.0075748 2039.2 0.19796 2.9258e-05 34178. 370.20 391.42 3.8964 0.79443 0.98298 162.03 2.9337 3.0679 0.0030815
-159.62 0.00011245 8.2727e-08 -142.59 -142.59 -0.84940 704.35 0.0014197 -142.59 -142.59 -0.84940 1.3360 1.9478 1945.3 -0.0075661 1954.2 0.19751 3.6221e-05 27609. 371.00 392.40 3.8632 0.79805 0.98660 162.68 2.8658 3.0955 0.0031365
-158.62 0.00013985 1.0189e-07 -140.64 -140.64 -0.83231 703.34 0.0014218 -140.64 -140.64 -0.83231 1.3358 1.9492 1938.5 -0.0075573 1874.8 0.19705 4.4652e-05 22395. 371.80 393.39 3.8307 0.80164 0.99020 163.32 2.8002 3.1230 0.0031918
-157.62 0.00017320 1.2499e-07 -138.69 -138.69 -0.81536 702.32 0.0014238 -138.69 -138.69 -0.81536 1.3356 1.9506 1931.7 -0.0075484 1800.3 0.19658 5.4822e-05 18241. 372.60 394.38 3.7990 0.80522 0.99378 163.96 2.7367 3.1505 0.0032474
-156.62 0.00021364 1.5270e-07 -136.74 -136.74 -0.79854 701.31 0.0014259 -136.74 -136.74 -0.79854 1.3354 1.9520 1924.9 -0.0075393 1730.5 0.19611 6.7040e-05 14916. 373.41 395.38 3.7680 0.80878 0.99734 164.60 2.6752 3.1780 0.0033033
-155.62 0.00026248 1.8585e-07 -134.79 -134.79 -0.78185 700.30 0.0014280 -134.79 -134.79 -0.78185 1.3352 1.9534 1918.1 -0.0075302 1664.9 0.19564 8.1666e-05 12245. 374.22 396.38 3.7377 0.81232 1.0009 165.24 2.6157 3.2055 0.0033595
-154.62 0.00032125 2.2534e-07 -132.83 -132.83 -0.76530 699.29 0.0014300 -132.83 -132.83 -0.76530 1.3350 1.9548 1911.3 -0.0075209 1603.3 0.19516 9.9109e-05 10090. 375.03 397.38 3.7081 0.81585 1.0044 165.87 2.5580 3.2330 0.0034160
-153.62 0.00039171 2.7222e-07 -130.88 -130.88 -0.74887 698.27 0.0014321 -130.88 -130.88 -0.74887 1.3349 1.9563 1904.5 -0.0075114 1545.3 0.19468 0.00011984 8344.6 375.85 398.39 3.6792 0.81935 1.0079 166.50 2.5022 3.2606 0.0034727
-152.62 0.00047590 3.2769e-07 -128.92 -128.92 -0.73256 697.26 0.0014342 -128.92 -128.92 -0.73256 1.3348 1.9577 1897.8 -0.0075019 1490.6 0.19419 0.00014439 6925.9 376.67 399.40 3.6509 0.82284 1.0114 167.13 2.4481 3.2881 0.0035298
-151.62 0.00057613 3.9308e-07 -126.96 -126.96 -0.71638 696.25 0.0014363 -126.96 -126.96 -0.71638 1.3346 1.9592 1891.0 -0.0074922 1438.9 0.19370 0.00017336 5768.4 377.49 400.41 3.6232 0.82631 1.0149 167.76 2.3957 3.3156 0.0035872
-150.62 0.00069507 4.6992e-07 -125.00 -125.00 -0.70032 695.24 0.0014384 -125.00 -125.00 -0.70032 1.3345 1.9606 1884.2 -0.0074824 1390.2 0.19320 0.00020744 4820.7 378.32 401.42 3.5962 0.82976 1.0183 168.38 2.3448 3.3431 0.0036448
-149.62 0.00083574 5.5994e-07 -123.04 -123.04 -0.68437 694.23 0.0014404 -123.04 -123.04 -0.68438 1.3345 1.9621 1877.4 -0.0074724 1344.0 0.19270 0.00024740 4042.0 379.15 402.44 3.5697 0.83319 1.0218 169.00 2.2956 3.3706 0.0037027
-148.62 0.0010016 6.6504e-07 -121.08 -121.08 -0.66855 693.22 0.0014425 -121.08 -121.08 -0.66855 1.3344 1.9636 1870.7 -0.0074623 1300.3 0.19220 0.00029412 3400.0 379.99 403.47 3.5438 0.83661 1.0252 169.62 2.2478 3.3982 0.0037610
-147.62 0.0011965 7.8741e-07 -119.11 -119.11 -0.65283 692.21 0.0014447 -119.11 -119.11 -0.65284 1.3343 1.9651 1863.9 -0.0074521 1258.9 0.19169 0.00034856 2869.0 380.83 404.49 3.5185 0.84001 1.0286 170.24 2.2014 3.4257 0.0038195
-146.62 0.0014249 9.2944e-07 -117.15 -117.15 -0.63723 691.20 0.0014468 -117.15 -117.15 -0.63724 1.3343 1.9666 1857.2 -0.0074417 1219.6 0.19117 0.00041181 2428.3 381.67 405.52 3.4938 0.84340 1.0320 170.85 2.1565 3.4532 0.0038783
-145.62 0.0016917 1.0938e-06 -115.18 -115.18 -0.62175 690.19 0.0014489 -115.18 -115.18 -0.62175 1.3343 1.9682 1850.4 -0.0074312 1182.3 0.19066 0.00048510 2061.4 382.51 406.56 3.4695 0.84677 1.0353 171.46 2.1128 3.4807 0.0039374
-144.62 0.0020026 1.2835e-06 -113.21 -113.21 -0.60637 689.18 0.0014510 -113.21 -113.21 -0.60637 1.3343 1.9697 1843.7 -0.0074206 1146.8 0.19014 0.00056976 1755.1 383.36 407.59 3.4458 0.85012 1.0387 172.07 2.0705 3.5082 0.0039967
-143.62 0.0023637 1.5018e-06 -111.24 -111.24 -0.59109 688.17 0.0014531 -111.24 -111.24 -0.59110 1.3343 1.9713 1836.9 -0.0074098 1113.0 0.18962 0.00066731 1498.6 384.21 408.63 3.4226 0.85346 1.0420 172.68 2.0294 3.5358 0.0040564
-142.62 0.0027820 1.7524e-06 -109.27 -109.27 -0.57592 687.16 0.0014553 -109.27 -109.27 -0.57593 1.3343 1.9728 1830.2 -0.0073988 1080.8 0.18909 0.00077939 1283.1 385.07 409.68 3.3999 0.85679 1.0454 173.28 1.9896 3.5633 0.0041164
-141.62 0.0032653 2.0393e-06 -107.30 -107.30 -0.56086 686.15 0.0014574 -107.30 -107.30 -0.56087 1.3343 1.9744 1823.5 -0.0073878 1050.1 0.18856 0.00090784 1101.5 385.93 410.72 3.3777 0.86011 1.0487 173.88 1.9508 3.5908 0.0041766
-140.62 0.0038222 2.3668e-06 -105.32 -105.32 -0.54590 685.14 0.0014596 -105.32 -105.32 -0.54591 1.3344 1.9760 1816.7 -0.0073765 1020.7 0.18803 0.0010547 948.16 386.79 411.77 3.3560 0.86341 1.0520 174.48 1.9133 3.6183 0.0042372
-139.62 0.0044623 2.7399e-06 -103.34 -103.34 -0.53104 684.13 0.0014617 -103.34 -103.34 -0.53105 1.3344 1.9776 1810.0 -0.0073651 992.74 0.18749 0.0012221 818.26 387.65 412.83 3.3347 0.86670 1.0553 175.08 1.8768 3.6459 0.0042980
-138.62 0.0051963 3.1639e-06 -101.36 -101.36 -0.51627 683.12 0.0014639 -101.37 -101.37 -0.51629 1.3345 1.9792 1803.3 -0.0073536 965.97 0.18695 0.0014125 707.94 388.52 413.88 3.3139 0.86998 1.0586 175.67 1.8413 3.6734 0.0043592
-137.62 0.0060358 3.6444e-06 -99.384 -99.384 -0.50161 682.11 0.0014660 -99.386 -99.386 -0.50162 1.3346 1.9808 1796.6 -0.0073419 940.35 0.18641 0.0016287 614.00 389.39 414.94 3.2935 0.87325 1.0619 176.26 1.8069 3.7009 0.0044206
-136.62 0.0069938 4.1879e-06 -97.402 -97.402 -0.48704 681.10 0.0014682 -97.404 -97.404 -0.48705 1.3347 1.9825 1789.9 -0.0073301 915.81 0.18586 0.0018733 533.80 390.26 416.00 3.2735 0.87650 1.0651 176.85 1.7734 3.7284 0.0044823
-135.62 0.0080843 4.8010e-06 -95.419 -95.419 -0.47256 680.09 0.0014704 -95.421 -95.421 -0.47258 1.3348 1.9841 1783.2 -0.0073180 892.30 0.18531 0.0021497 465.17 391.14 417.07 3.2540 0.87975 1.0684 177.44 1.7409 3.7559 0.0045443
-134.62 0.0093230 5.4914e-06 -93.434 -93.433 -0.45818 679.08 0.0014726 -93.436 -93.436 -0.45820 1.3350 1.9858 1776.5 -0.0073059 869.75 0.18476 0.0024613 406.30 392.02 418.14 3.2348 0.88299 1.0716 178.02 1.7093 3.7834 0.0046066
-133.62 0.010727 6.2669e-06 -91.446 -91.446 -0.44389 678.07 0.0014748 -91.450 -91.449 -0.44391 1.3351 1.9875 1769.8 -0.0072935 848.11 0.18421 0.0028116 355.67 392.91 419.21 3.2161 0.88622 1.0749 178.61 1.6786 3.8109 0.0046691
-132.62 0.012315 7.1363e-06 -89.458 -89.457 -0.42968 677.06 0.0014770 -89.461 -89.461 -0.42971 1.3353 1.9892 1763.1 -0.0072810 827.32 0.18365 0.0032049 312.03 393.79 420.29 3.1977 0.88944 1.0781 179.19 1.6488 3.8385 0.0047320
-131.62 0.014106 8.1090e-06 -87.467 -87.467 -0.41557 676.04 0.0014792 -87.471 -87.471 -0.41560 1.3354 1.9909 1756.4 -0.0072684 807.34 0.18309 0.0036453 274.33 394.68 421.36 3.1798 0.89266 1.0813 179.76 1.6197 3.8660 0.0047951
-130.62 0.016124 9.1949e-06 -85.475 -85.475 -0.40154 675.03 0.0014814 -85.479 -85.479 -0.40157 1.3356 1.9926 1749.7 -0.0072555 788.12 0.18253 0.0041375 241.69 395.58 422.44 3.1622 0.89586 1.0846 180.34 1.5915 3.8935 0.0048586
-129.62 0.018392 1.0405e-05 -83.481 -83.480 -0.38760 674.02 0.0014836 -83.486 -83.486 -0.38763 1.3358 1.9944 1743.0 -0.0072425 769.63 0.18196 0.0046867 213.37 396.47 423.53 3.1450 0.89906 1.0878 180.91 1.5641 3.9210 0.0049223
-128.62 0.020935 1.1750e-05 -81.485 -81.484 -0.37374 673.01 0.0014859 -81.491 -81.490 -0.37378 1.3360 1.9961 1736.3 -0.0072294 751.83 0.18140 0.0052981 188.75 397.37 424.62 3.1281 0.90226 1.0910 181.48 1.5374 3.9485 0.0049863
-127.62 0.023783 1.3244e-05 -79.487 -79.487 -0.35997 672.00 0.0014881 -79.494 -79.493 -0.36001 1.3363 1.9979 1729.6 -0.0072160 734.67 0.18083 0.0059776 167.29 398.27 425.71 3.1116 0.90545 1.0942 182.05 1.5114 3.9760 0.0050506
-126.62 0.026966 1.4899e-05 -77.488 -77.487 -0.34627 670.98 0.0014904 -77.495 -77.495 -0.34632 1.3365 1.9997 1722.9 -0.0072025 718.14 0.18025 0.0067313 148.56 399.18 426.80 3.0954 0.90863 1.0974 182.62 1.4861 4.0035 0.0051152
-125.62 0.030515 1.6729e-05 -75.486 -75.486 -0.33266 669.97 0.0014926 -75.494 -75.494 -0.33272 1.3368 2.0015 1716.2 -0.0071888 702.18 0.17968 0.0075660 132.17 400.09 427.89 3.0795 0.91181 1.1006 183.18 1.4615 4.0310 0.0051800
-124.62 0.034467 1.8750e-05 -73.483 -73.482 -0.31912 668.95 0.0014949 -73.492 -73.492 -0.31919 1.3371 2.0033 1709.5 -0.0071749 686.79 0.17910 0.0084885 117.81 401.00 428.99 3.0640 0.91499 1.1038 183.74 1.4375 4.0584 0.0052452
-123.62 0.038859 2.0977e-05 -71.478 -71.477 -0.30567 667.94 0.0014971 -71.488 -71.487 -0.30574 1.3374 2.0051 1702.8 -0.0071609 671.93 0.17852 0.0095065 105.19 401.91 430.10 3.0488 0.91816 1.1070 184.30 1.4141 4.0859 0.0053106
-122.62 0.043731 2.3427e-05 -69.471 -69.469 -0.29229 666.92 0.0014994 -69.482 -69.481 -0.29237 1.3377 2.0070 1696.2 -0.0071466 657.57 0.17794 0.010628 94.092 402.83 431.20 3.0339 0.92134 1.1102 184.86 1.3913 4.1134 0.0053764
-121.62 0.049128 2.6119e-05 -67.461 -67.460 -0.27899 665.91 0.0015017 -67.474 -67.473 -0.27907 1.3380 2.0089 1689.5 -0.0071322 643.70 0.17736 0.011861 84.309 403.75 432.31 3.0193 0.92451 1.1134 185.41 1.3691 4.1409 0.0054424
-120.62 0.055096 2.9070e-05 -65.450 -65.449 -0.26576 664.89 0.0015040 -65.464 -65.463 -0.26585 1.3384 2.0107 1682.8 -0.0071176 630.28 0.17678 0.013215 75.669 404.67 433.42 3.0050 0.92767 1.1166 185.96 1.3475 4.1683 0.0055087
-119.62 0.061684 3.2302e-05 -63.437 -63.436 -0.25260 663.87 0.0015063 -63.452 -63.452 -0.25271 1.3387 2.0126 1676.1 -0.0071028 617.30 0.17619 0.014700 68.027 405.60 434.53 2.9909 0.93084 1.1198 186.51 1.3264 4.1958 0.0055752
-118.62 0.068946 3.5836e-05 -61.422 -61.420 -0.23952 662.86 0.0015086 -61.439 -61.438 -0.23963 1.3391 2.0146 1669.4 -0.0070878 604.74 0.17560 0.016325 61.255 406.53 435.64 2.9772 0.93401 1.1231 187.06 1.3058 4.2233 0.0056421
-117.62 0.076937 3.9693e-05 -59.405 -59.403 -0.22651 661.84 0.0015109 -59.423 -59.422 -0.22663 1.3395 2.0165 1662.8 -0.0070726 592.58 0.17501 0.018101 55.245 407.46 436.76 2.9638 0.93718 1.1263 187.60 1.2857 4.2507 0.0057092
-116.62 0.085718 4.3897e-05 -57.385 -57.383 -0.21356 660.82 0.0015133 -57.406 -57.405 -0.21370 1.3400 2.0184 1656.1 -0.0070573 580.80 0.17442 0.020040 49.901 408.39 437.88 2.9506 0.94035 1.1295 188.14 1.2660 4.2782 0.0057767
-115.62 0.095353 4.8473e-05 -55.364 -55.361 -0.20069 659.80 0.0015156 -55.386 -55.385 -0.20084 1.3404 2.0204 1649.4 -0.0070417 569.38 0.17383 0.022152 45.142 409.33 439.01 2.9377 0.94352 1.1327 188.68 1.2468 4.3056 0.0058444
-114.62 0.10591 5.3446e-05 -53.340 -53.337 -0.18788 658.78 0.0015180 -53.365 -53.364 -0.18805 1.3409 2.0224 1642.7 -0.0070260 558.32 0.17323 0.024451 40.898 410.27 440.13 2.9250 0.94669 1.1360 189.22 1.2281 4.3330 0.0059123
-113.62 0.11746 5.8843e-05 -51.314 -51.311 -0.17514 657.76 0.0015203 -51.342 -51.340 -0.17533 1.3413 2.0244 1636.0 -0.0070100 547.59 0.17264 0.026949 37.107 411.21 441.26 2.9126 0.94987 1.1392 189.75 1.2097 4.3604 0.0059806
-112.62 0.13008 6.4694e-05 -49.286 -49.283 -0.16247 656.73 0.0015227 -49.316 -49.315 -0.16267 1.3418 2.0264 1629.3 -0.0069938 537.18 0.17204 0.029661 33.715 412.16 442.39 2.9005 0.95305 1.1424 190.28 1.1918 4.3879 0.0060491
-111.62 0.14384 7.1026e-05 -47.256 -47.252 -0.14986 655.71 0.0015251 -47.289 -47.287 -0.15008 1.3424 2.0285 1622.7 -0.0069774 527.08 0.17144 0.032600 30.675 413.10 443.53 2.8885 0.95623 1.1457 190.81 1.1742 4.4153 0.0061180
-110.62 0.15884 7.7872e-05 -45.224 -45.219 -0.13732 654.69 0.0015274 -45.259 -45.258 -0.13755 1.3429 2.0305 1616.0 -0.0069609 517.28 0.17084 0.035781 27.948 414.06 444.66 2.8769 0.95942 1.1490 191.34 1.1570 4.4427 0.0061871
-109.62 0.17516 8.5263e-05 -43.189 -43.184 -0.12484 653.66 0.0015298 -43.228 -43.226 -0.12509 1.3435 2.0326 1609.3 -0.0069441 507.76 0.17024 0.039220 25.497 415.01 445.80 2.8654 0.96261 1.1522 191.86 1.1402 4.4701 0.0062564
-108.62 0.19290 9.3233e-05 -41.151 -41.147 -0.11242 652.64 0.0015322 -41.194 -41.192 -0.11269 1.3441 2.0347 1602.6 -0.0069271 498.51 0.16964 0.042933 23.292 415.96 446.94 2.8542 0.96581 1.1555 192.38 1.1236 4.4974 0.0063261
-107.62 0.21215 0.00010182 -39.112 -39.107 -0.10006 651.61 0.0015347 -39.158 -39.156 -0.10036 1.3447 2.0369 1595.9 -0.0069098 489.52 0.16903 0.046937 21.305 416.92 448.09 2.8433 0.96901 1.1588 192.90 1.1075 4.5248 0.0063960
-106.62 0.23301 0.00011105 -37.070 -37.064 -0.087758 650.58 0.0015371 -37.120 -37.118 -0.088082 1.3453 2.0390 1589.2 -0.0068924 480.79 0.16843 0.051250 19.512 417.88 449.23 2.8325 0.97222 1.1621 193.41 1.0916 4.5522 0.0064662
-105.62 0.25561 0.00012097 -35.026 -35.019 -0.075518 649.55 0.0015395 -35.080 -35.078 -0.075868 1.3460 2.0412 1582.6 -0.0068747 472.30 0.16782 0.055891 17.892 418.85 450.38 2.8220 0.97544 1.1655 193.93 1.0760 4.5795 0.0065367
-104.62 0.28004 0.00013161 -32.979 -32.971 -0.063336 648.52 0.0015420 -33.038 -33.035 -0.063714 1.3467 2.0434 1575.9 -0.0068569 464.04 0.16721 0.060878 16.426 419.81 451.53 2.8116 0.97867 1.1688 194.44 1.0608 4.6069 0.0066074
-103.62 0.30643 0.00014303 -30.929 -30.921 -0.051211 647.49 0.0015444 -30.994 -30.991 -0.051619 1.3474 2.0456 1569.2 -0.0068387 456.00 0.16660 0.066231 15.099 420.78 452.68 2.8015 0.98191 1.1722 194.94 1.0458 4.6342 0.0066785
-102.62 0.33490 0.00015525 -28.877 -28.869 -0.039142 646.46 0.0015469 -28.947 -28.944 -0.039582 1.3481 2.0478 1562.5 -0.0068204 448.18 0.16600 0.071971 13.894 421.75 453.84 2.7916 0.98516 1.1755 195.44 1.0310 4.6615 0.0067498
-101.62 0.36558 0.00016832 -26.823 -26.813 -0.027129 645.43 0.0015494 -26.898 -26.894 -0.027602 1.3489 2.0501 1555.8 -0.0068018 440.57 0.16539 0.078120 12.801 422.73 454.99 2.7818 0.98841 1.1789 195.95 1.0166 4.6888 0.0068213
-100.62 0.39862 0.00018228 -24.765 -24.755 -0.015170 644.39 0.0015519 -24.847 -24.843 -0.015678 1.3497 2.0524 1549.1 -0.0067830 433.16 0.16478 0.084699 11.807 423.70 456.15 2.7723 0.99168 1.1823 196.44 1.0024 4.7161 0.0068932
-99.625 0.43414 0.00019719 -22.706 -22.694 -0.0032647 643.36 0.0015544 -22.794 -22.789 -0.0038103 1.3505 2.0547 1542.4 -0.0067639 425.95 0.16416 0.091731 10.901 424.68 457.31 2.7630 0.99496 1.1858 196.94 0.98838 4.7434 0.0069653
-98.625 0.47230 0.00021309 -20.643 -20.631 0.0085878 642.32 0.0015569 -20.738 -20.733 0.0080027 1.3514 2.0570 1535.7 -0.0067447 418.92 0.16355 0.099240 10.077 425.66 458.48 2.7538 0.99825 1.1892 197.43 0.97464 4.7707 0.0070377
-97.625 0.51325 0.00023002 -18.578 -18.564 0.020388 641.28 0.0015594 -18.680 -18.674 0.019762 1.3522 2.0594 1529.0 -0.0067251 412.07 0.16294 0.10725 9.3239 426.65 459.64 2.7448 1.0016 1.1927 197.92 0.96112 4.7979 0.0071103
-96.625 0.55714 0.00024804 -16.509 -16.495 0.032138 640.24 0.0015619 -16.620 -16.614 0.031467 1.3531 2.0618 1522.3 -0.0067053 405.39 0.16233 0.11579 8.6365 427.63 460.81 2.7360 1.0049 1.1962 198.40 0.94783 4.8251 0.0071832
-95.625 0.60416 0.00026720 -14.438 -14.423 0.043837 639.20 0.0015645 -14.557 -14.550 0.043120 1.3540 2.0642 1515.7 -0.0066853 398.88 0.16171 0.12488 8.0078 428.62 461.98 2.7274 1.0082 1.1997 198.88 0.93475 4.8524 0.0072564
-94.625 0.65446 0.00028755 -12.364 -12.348 0.055487 638.16 0.0015670 -12.491 -12.484 0.054721 1.3550 2.0667 1509.0 -0.0066650 392.53 0.16110 0.13455 7.4323 429.61 463.15 2.7189 1.0116 1.2032 199.36 0.92188 4.8796 0.0073299
-93.625 0.70822 0.00030914 -10.287 -10.269 0.067089 637.12 0.0015696 -10.424 -10.416 0.066271 1.3560 2.0691 1502.3 -0.0066444 386.34 0.16048 0.14482 6.9050 430.60 464.32 2.7107 1.0149 1.2068 199.83 0.90921 4.9068 0.0074036
-92.625 0.76564 0.00033204 -8.2074 -8.1879 0.078642 636.07 0.0015722 -8.3535 -8.3452 0.077771 1.3570 2.0716 1495.6 -0.0066236 380.31 0.15987 0.15573 6.4212 431.60 465.49 2.7025 1.0183 1.2104 200.30 0.89673 4.9340 0.0074776
-91.625 0.82689 0.00035629 -6.1245 -6.1034 0.090149 635.02 0.0015747 -6.2808 -6.2719 0.089220 1.3580 2.0742 1488.9 -0.0066025 374.41 0.15925 0.16731 5.9769 432.59 466.67 2.6946 1.0217 1.2140 200.77 0.88445 4.9611 0.0075518
-90.625 0.89218 0.00038196 -4.0384 -4.0156 0.10161 633.98 0.0015773 -4.2056 -4.1959 0.10062 1.3591 2.0767 1482.2 -0.0065811 368.66 0.15864 0.17958 5.5685 433.59 467.84 2.6868 1.0251 1.2177 201.24 0.87236 4.9883 0.0076263
-89.625 0.96172 0.00040911 -1.9492 -1.9246 0.11302 632.93 0.0015800 -2.1279 -2.1174 0.11197 1.3602 2.0793 1475.5 -0.0065595 363.05 0.15802 0.19258 5.1928 434.59 469.02 2.6791 1.0285 1.2213 201.70 0.86045 5.0154 0.0077011
-88.625 1.0357 0.00043779 0.14320 0.16965 0.12439 631.88 0.0015826 -0.047516 -0.036215 0.12328 1.3613 2.0819 1468.8 -0.0065375 357.56 0.15740 0.20633 4.8466 435.59 470.20 2.6717 1.0320 1.2250 202.15 0.84873 5.0425 0.0077761
-87.625 1.1144 0.00046807 2.2389 2.2673 0.13572 630.83 0.0015852 2.0355 2.0476 0.13454 1.3625 2.0846 1462.1 -0.0065153 352.21 0.15679 0.22087 4.5276 436.60 471.39 2.6643 1.0354 1.2288 202.61 0.83718 5.0696 0.0078514
-86.625 1.1979 0.00050001 4.3378 4.3684 0.14700 629.77 0.0015879 4.1211 4.1342 0.14575 1.3637 2.0873 1455.4 -0.0064928 346.98 0.15617 0.23623 4.2331 437.61 472.57 2.6571 1.0389 1.2325 203.06 0.82580 5.0967 0.0079270
-85.625 1.2866 0.00053369 6.4401 6.4730 0.15824 628.72 0.0015905 6.2094 6.2235 0.15691 1.3649 2.0900 1448.8 -0.0064701 341.87 0.15555 0.25245 3.9612 438.61 473.75 2.6501 1.0424 1.2363 203.50 0.81460 5.1237 0.0080028
-84.625 1.3806 0.00056915 8.5458 8.5811 0.16944 627.66 0.0015932 8.3004 8.3155 0.16803 1.3661 2.0927 1442.1 -0.0064470 336.87 0.15494 0.26956 3.7097 439.63 474.94 2.6432 1.0460 1.2402 203.95 0.80356 5.1508 0.0080789
-83.625 1.4803 0.00060647 10.655 10.693 0.18060 626.60 0.0015959 10.394 10.410 0.17911 1.3674 2.0955 1435.4 -0.0064236 331.99 0.15432 0.28760 3.4771 440.64 476.13 2.6364 1.0495 1.2440 204.38 0.79269 5.1778 0.0081553
-82.625 1.5858 0.00064573 12.768 12.808 0.19172 625.54 0.0015986 12.491 12.508 0.19014 1.3687 2.0983 1428.7 -0.0063999 327.22 0.15370 0.30659 3.2616 441.65 477.31 2.6298 1.0531 1.2479 204.82 0.78199 5.2048 0.0082319
-81.625 1.6975 0.00068698 14.884 14.927 0.20280 624.48 0.0016013 14.590 14.609 0.20113 1.3700 2.1012 1422.0 -0.0063759 322.55 0.15309 0.32659 3.0619 442.67 478.50 2.6233 1.0567 1.2519 205.25 0.77144 5.2318 0.0083088
-80.625 1.8155 0.00073030 17.004 17.050 0.21384 623.42 0.0016041 16.692 16.712 0.21208 1.3714 2.1041 1415.4 -0.0063516 317.99 0.15247 0.34763 2.8766 443.69 479.70 2.6169 1.0603 1.2558 205.67 0.76106 5.2587 0.0083860
-79.625 1.9402 0.00077577 19.127 19.177 0.22484 622.36 0.0016068 18.797 18.819 0.22299 1.3728 2.1070 1408.7 -0.0063270 313.52 0.15186 0.36974 2.7046 444.71 480.89 2.6106 1.0639 1.2598 206.10 0.75083 5.2857 0.0084634
-78.625 2.0718 0.00082345 21.255 21.308 0.23580 621.29 0.0016096 20.905 20.928 0.23385 1.3742 2.1099 1402.0 -0.0063021 309.15 0.15124 0.39296 2.5448 445.73 482.08 2.6045 1.0676 1.2639 206.51 0.74076 5.3126 0.0085411
-77.625 2.2107 0.00087341 23.386 23.442 0.24673 620.22 0.0016123 23.016 23.040 0.24468 1.3757 2.1129 1395.3 -0.0062768 304.88 0.15062 0.41735 2.3961 446.75 483.27 2.5985 1.0712 1.2680 206.93 0.73084 5.3395 0.0086190
-76.625 2.3571 0.00092575 25.521 25.581 0.25762 619.15 0.0016151 25.130 25.156 0.25546 1.3772 2.1159 1388.7 -0.0062512 300.69 0.15001 0.44292 2.2577 447.78 484.47 2.5926 1.0749 1.2721 207.34 0.72107 5.3664 0.0086972
-75.625 2.5113 0.00098052 27.660 27.724 0.26848 618.08 0.0016179 27.247 27.275 0.26620 1.3787 2.1190 1382.0 -0.0062253 296.59 0.14939 0.46974 2.1288 448.81 485.67 2.5869 1.0787 1.2762 207.74 0.71146 5.3933 0.0087757
-74.625 2.6736 0.0010378 29.803 29.871 0.27930 617.01 0.0016207 29.366 29.396 0.27691 1.3802 2.1221 1375.4 -0.0061990 292.58 0.14878 0.49783 2.0087 449.83 486.86 2.5812 1.0824 1.2804 208.14 0.70200 5.4201 0.0088544
-73.625 2.8444 0.0010977 31.950 32.022 0.29009 615.93 0.0016236 31.489 31.521 0.28758 1.3818 2.1252 1368.7 -0.0061724 288.65 0.14816 0.52725 1.8966 450.86 488.06 2.5757 1.0862 1.2847 208.54 0.69268 5.4469 0.0089334
-72.625 3.0240 0.0011603 34.101 34.178 0.30084 614.85 0.0016264 33.615 33.649 0.29821 1.3834 2.1284 1362.0 -0.0061454 284.81 0.14755 0.55804 1.7920 451.90 489.26 2.5703 1.0900 1.2889 208.93 0.68351 5.4737 0.0090126
-71.625 3.2127 0.0012256 36.256 36.338 0.31156 613.78 0.0016293 35.745 35.781 0.30880 1.3851 2.1316 1355.4 -0.0061181 281.03 0.14694 0.59024 1.6942 452.93 490.46 2.5650 1.0938 1.2932 209.32 0.67448 5.5005 0.0090922
-70.625 3.4108 0.0012938 38.415 38.502 0.32225 612.69 0.0016321 37.877 37.915 0.31935 1.3867 2.1349 1348.7 -0.0060904 277.34 0.14632 0.62390 1.6028 453.96 491.66 2.5598 1.0976 1.2976 209.70 0.66560 5.5273 0.0091720
-69.625 3.6187 0.0013649 40.579 40.671 0.33291 611.61 0.0016350 40.013 40.053 0.32987 1.3884 2.1382 1342.1 -0.0060624 273.72 0.14571 0.65906 1.5173 455.00 492.86 2.5547 1.1015 1.3020 210.08 0.65687 5.5540 0.0092520
-68.625 3.8367 0.0014389 42.747 42.845 0.34354 610.53 0.0016379 42.152 42.195 0.34036 1.3902 2.1415 1335.5 -0.0060339 270.17 0.14510 0.69577 1.4372 456.04 494.06 2.5497 1.1054 1.3064 210.45 0.64827 5.5807 0.0093324
-67.625 4.0652 0.0015161 44.920 45.023 0.35413 609.44 0.0016409 44.294 44.340 0.35080 1.3919 2.1449 1328.8 -0.0060051 266.69 0.14449 0.73408 1.3622 457.08 495.26 2.5448 1.1093 1.3109 210.82 0.63981 5.6074 0.0094130
-66.625 4.3046 0.0015965 47.096 47.206 0.36470 608.35 0.0016438 46.439 46.488 0.36122 1.3937 2.1483 1322.2 -0.0059760 263.28 0.14388 0.77404 1.2919 458.12 496.46 2.5400 1.1133 1.3154 211.18 0.63150 5.6341 0.0094939
-65.625 4.5551 0.0016801 49.278 49.394 0.37523 607.26 0.0016467 48.588 48.640 0.37160 1.3955 2.1518 1315.6 -0.0059464 259.93 0.14327 0.81570 1.2259 459.16 497.67 2.5353 1.1172 1.3200 211.54 0.62332 5.6608 0.0095750
-64.625 4.8173 0.0017671 51.464 51.587 0.38574 606.16 0.0016497 50.740 50.795 0.38195 1.3974 2.1553 1308.9 -0.0059164 256.65 0.14266 0.85910 1.1640 460.21 498.87 2.5307 1.1212 1.3246 211.89 0.61527 5.6874 0.0096564
-63.625 5.0915 0.0018575 53.655 53.785 0.39622 605.07 0.0016527 52.896 52.954 0.39226 1.3993 2.1588 1302.3 -0.0058861 253.42 0.14205 0.90429 1.1058 461.25 500.07 2.5262 1.1252 1.3293 212.24 0.60736 5.7140 0.0097382
-62.625 5.3781 0.0019514 55.850 55.987 0.40668 603.97 0.0016557 55.055 55.117 0.40254 1.4012 2.1624 1295.7 -0.0058553 250.26 0.14144 0.95134 1.0511 462.30 501.28 2.5218 1.1293 1.3340 212.58 0.59958 5.7406 0.0098201
-61.625 5.6774 0.0020490 58.050 58.195 0.41710 602.87 0.0016587 57.218 57.283 0.41279 1.4031 2.1660 1289.1 -0.0058241 247.16 0.14084 1.0003 0.99972 463.35 502.48 2.5175 1.1333 1.3387 212.92 0.59194 5.7672 0.0099024
-60.625 5.9899 0.0021502 60.255 60.408 0.42750 601.77 0.0016618 59.385 59.453 0.42301 1.4051 2.1697 1282.5 -0.0057925 244.12 0.14023 1.0512 0.95131 464.40 503.68 2.5133 1.1374 1.3435 213.26 0.58442 5.7938 0.0099850
-59.625 6.3160 0.0022552 62.465 62.627 0.43788 600.66 0.0016648 61.554 61.627 0.43320 1.4071 2.1734 1275.9 -0.0057605 241.13 0.13962 1.1041 0.90573 465.45 504.89 2.5091 1.1415 1.3483 213.58 0.57704 5.8203 0.010068
-58.625 6.6561 0.0023642 64.680 64.850 0.44823 599.55 0.0016679 63.728 63.805 0.44335 1.4091 2.1772 1269.3 -0.0057280 238.19 0.13902 1.1591 0.86277 466.50 506.09 2.5051 1.1457 1.3532 213.90 0.56978 5.8468 0.010151
-57.625 7.0107 0.0024771 66.900 67.079 0.45855 598.44 0.0016710 65.905 65.986 0.45348 1.4111 2.1810 1262.7 -0.0056951 235.31 0.13842 1.2161 0.82228 467.55 507.30 2.5011 1.1498 1.3581 214.22 0.56265 5.8733 0.010234
-56.625 7.3801 0.0025941 69.125 69.314 0.46885 597.33 0.0016741 68.086 68.172 0.46358 1.4132 2.1848 1256.1 -0.0056617 232.48 0.13781 1.2754 0.78408 468.60 508.50 2.4972 1.1540 1.3631 214.53 0.55564 5.8998 0.010318
-55.625 7.7648 0.0027152 71.356 71.554 0.47913 596.22 0.0016772 70.271 70.361 0.47364 1.4153 2.1887 1249.5 -0.0056279 229.69 0.13721 1.3369 0.74802 469.66 509.71 2.4934 1.1582 1.3681 214.84 0.54875 5.9263 0.010402
-54.625 8.1652 0.0028406 73.591 73.800 0.48938 595.10 0.0016804 72.460 72.554 0.48368 1.4174 2.1927 1242.9 -0.0055937 226.96 0.13661 1.4006 0.71396 470.72 510.91 2.4897 1.1624 1.3731 215.14 0.54199 5.9527 0.010486
-53.625 8.5819 0.0029704 75.832 76.051 0.49961 593.98 0.0016836 74.652 74.752 0.49369 1.4196 2.1967 1236.3 -0.0055589 224.27 0.13601 1.4667 0.68178 471.77 512.11 2.4860 1.1667 1.3782 215.43 0.53535 5.9792 0.010571
-52.625 9.0151 0.0031046 78.078 78.308 0.50982 592.86 0.0016867 76.849 76.954 0.50368 1.4218 2.2007 1229.8 -0.0055237 221.63 0.13541 1.5353 0.65136 472.83 513.32 2.4824 1.1710 1.3834 215.72 0.52882 6.0056 0.010656
-51.625 9.4655 0.0032433 80.330 80.571 0.52001 591.73 0.0016900 79.049 79.159 0.51363 1.4240 2.2048 1223.2 -0.0054880 219.04 0.13482 1.6062 0.62258 473.89 514.52 2.4789 1.1752 1.3886 216.00 0.52241 6.0320 0.010741
-50.625 9.9335 0.0033867 82.587 82.840 0.53017 590.60 0.0016932 81.253 81.369 0.52356 1.4262 2.2089 1216.6 -0.0054519 216.48 0.13422 1.6797 0.59534 474.95 515.73 2.4755 1.1796 1.3938 216.28 0.51612 6.0584 0.010827
-49.625 10.419 0.0035349 84.849 85.115 0.54032 589.47 0.0016964 83.462 83.584 0.53347 1.4285 2.2131 1210.1 -0.0054152 213.98 0.13363 1.7558 0.56954 476.01 516.93 2.4722 1.1839 1.3991 216.55 0.50994 6.0848 0.010913
-48.625 10.924 0.0036879 87.118 87.396 0.55044 588.34 0.0016997 85.674 85.802 0.54334 1.4308 2.2173 1203.5 -0.0053780 211.51 0.13303 1.8345 0.54510 477.07 518.13 2.4689 1.1883 1.4044 216.82 0.50387 6.1112 0.010999
-47.625 11.448 0.0038458 89.391 89.684 0.56055 587.20 0.0017030 87.891 88.025 0.55319 1.4331 2.2216 1196.9 -0.0053403 209.08 0.13244 1.9159 0.52194 478.14 519.33 2.4657 1.1927 1.4098 217.08 0.49792 6.1375 0.011085
-46.625 11.991 0.0040087 91.671 91.977 0.57063 586.06 0.0017063 90.111 90.252 0.56302 1.4354 2.2259 1190.4 -0.0053020 206.69 0.13185 2.0001 0.49997 479.20 520.53 2.4625 1.1971 1.4153 217.33 0.49207 6.1639 0.011172
-45.625 12.554 0.0041768 93.956 94.277 0.58070 584.92 0.0017096 92.336 92.484 0.57282 1.4378 2.2303 1183.8 -0.0052633 204.34 0.13126 2.0872 0.47912 480.27 521.74 2.4594 1.2015 1.4207 217.58 0.48633 6.1902 0.011259
-44.625 13.137 0.0043502 96.248 96.583 0.59075 583.77 0.0017130 94.565 94.720 0.58260 1.4402 2.2347 1177.3 -0.0052240 202.03 0.13067 2.1771 0.45933 481.33 522.94 2.4564 1.2060 1.4263 217.82 0.48069 6.2165 0.011347
-43.625 13.741 0.0045289 98.545 98.896 0.60078 582.62 0.0017164 96.799 96.961 0.59235 1.4426 2.2392 1170.7 -0.0051841 199.75 0.13008 2.2700 0.44053 482.40 524.14 2.4535 1.2104 1.4319 218.05 0.47516 6.2429 0.011435
-42.625 14.367 0.0047130 100.85 101.22 0.61079 581.47 0.0017198 99.036 99.207 0.60208 1.4450 2.2437 1164.2 -0.0051437 197.51 0.12949 2.3659 0.42267 483.46 525.33 2.4506 1.2149 1.4375 218.28 0.46973 6.2692 0.011523
-41.625 15.015 0.0049026 103.16 103.54 0.62079 580.32 0.0017232 101.28 101.46 0.61179 1.4475 2.2483 1157.7 -0.0051027 195.30 0.12891 2.4649 0.40569 484.53 526.53 2.4478 1.2195 1.4432 218.50 0.46440 6.2955 0.011612
-40.625 15.686 0.0050979 105.47 105.87 0.63077 579.16 0.0017266 103.52 103.71 0.62147 1.4500 2.2529 1151.1 -0.0050611 193.13 0.12832 2.5671 0.38954 485.60 527.73 2.4450 1.2240 1.4489 218.72 0.45917 6.3218 0.011701
-39.625 16.380 0.0052990 107.79 108.21 0.64073 578.00 0.0017301 105.78 105.97 0.63113 1.4525 2.2576 1144.6 -0.0050189 190.99 0.12774 2.6725 0.37418 486.67 528.93 2.4423 1.2286 1.4547 218.93 0.45403 6.3481 0.011790
-38.625 17.097 0.0055059 110.12 110.56 0.65068 576.83 0.0017336 108.03 108.24 0.64077 1.4550 2.2623 1138.0 -0.0049761 188.88 0.12716 2.7813 0.35955 487.74 530.12 2.4397 1.2332 1.4606 219.13 0.44900 6.3744 0.011880
-37.625 17.838 0.0057188 112.46 112.91 0.66061 575.66 0.0017371 110.29 110.51 0.65039 1.4576 2.2671 1131.5 -0.0049327 186.81 0.12658 2.8934 0.34562 488.81 531.32 2.4371 1.2378 1.4665 219.33 0.44405 6.4007 0.011970
-36.625 18.604 0.0059377 114.80 115.27 0.67052 574.49 0.0017407 112.56 112.78 0.65999 1.4602 2.2719 1125.0 -0.0048887 184.76 0.12600 3.0089 0.33235 489.88 532.51 2.4346 1.2424 1.4724 219.52 0.43920 6.4270 0.012060
-35.625 19.395 0.0061628 117.14 117.64 0.68042 573.32 0.0017442 114.83 115.06 0.66956 1.4628 2.2768 1118.5 -0.0048440 182.75 0.12542 3.1280 0.31969 490.95 533.70 2.4321 1.2471 1.4784 219.70 0.43444 6.4533 0.012151
-34.625 20.212 0.0063942 119.50 120.01 0.69031 572.14 0.0017478 117.10 117.34 0.67912 1.4654 2.2818 1111.9 -0.0047987 180.76 0.12485 3.2506 0.30763 492.02 534.89 2.4297 1.2517 1.4845 219.88 0.42977 6.4797 0.012243
-33.625 21.056 0.0066320 121.86 122.39 0.70018 570.96 0.0017514 119.38 119.63 0.68865 1.4681 2.2868 1105.4 -0.0047527 178.80 0.12427 3.3770 0.29612 493.09 536.08 2.4273 1.2564 1.4906 220.05 0.42519 6.5060 0.012334
-32.625 21.926 0.0068762 124.22 124.78 0.71004 569.77 0.0017551 121.66 121.93 0.69817 1.4708 2.2918 1098.9 -0.0047061 176.87 0.12370 3.5071 0.28514 494.17 537.27 2.4250 1.2611 1.4968 220.21 0.42070 6.5323 0.012426
-31.625 22.823 0.0071271 126.60 127.18 0.71989 568.58 0.0017588 123.95 124.23 0.70767 1.4735 2.2970 1092.3 -0.0046587 174.97 0.12313 3.6410 0.27465 495.24 538.46 2.4227 1.2659 1.5031 220.36 0.41629 6.5587 0.012519
-30.625 23.749 0.0073846 128.98 129.58 0.72972 567.39 0.0017625 126.24 126.53 0.71714 1.4762 2.3021 1085.8 -0.0046107 173.09 0.12256 3.7787 0.26464 496.31 539.64 2.4205 1.2706 1.5094 220.51 0.41196 6.5850 0.012612
-29.625 24.703 0.0076490 131.36 131.99 0.73954 566.19 0.0017662 128.54 128.84 0.72660 1.4790 2.3074 1079.3 -0.0045619 171.24 0.12200 3.9205 0.25507 497.38 540.83 2.4184 1.2754 1.5157 220.65 0.40772 6.6114 0.012706
-28.625 25.687 0.0079203 133.76 134.41 0.74935 564.99 0.0017699 130.84 131.16 0.73604 1.4818 2.3126 1072.8 -0.0045124 169.42 0.12143 4.0663 0.24592 498.46 542.01 2.4162 1.2802 1.5222 220.79 0.40356 6.6378 0.012800
-27.625 26.700 0.0081986 136.16 136.84 0.75915 563.78 0.0017737 133.15 133.48 0.74547 1.4846 2.3180 1066.2 -0.0044621 167.62 0.12087 4.2163 0.23717 499.53 543.19 2.4142 1.2850 1.5286 220.91 0.39947 6.6642 0.012894
-26.625 27.743 0.0084841 138.56 139.27 0.76893 562.57 0.0017775 135.47 135.81 0.75487 1.4874 2.3234 1059.7 -0.0044111 165.84 0.12031 4.3705 0.22881 500.60 544.37 2.4122 1.2899 1.5352 221.03 0.39547 6.6906 0.012989
-25.625 28.817 0.0087769 140.98 141.71 0.77870 561.36 0.0017814 137.78 138.14 0.76426 1.4902 2.3289 1053.2 -0.0043593 164.09 0.11975 4.5290 0.22080 501.68 545.55 2.4102 1.2947 1.5418 221.14 0.39154 6.7171 0.013084
-24.625 29.923 0.0090770 143.40 144.16 0.78847 560.14 0.0017853 140.11 140.48 0.77363 1.4931 2.3344 1046.7 -0.0043067 162.36 0.11919 4.6918 0.21314 502.75 546.72 2.4083 1.2996 1.5485 221.25 0.38768 6.7436 0.013180
-23.625 31.061 0.0093846 145.83 146.62 0.79822 558.92 0.0017892 142.44 142.82 0.78298 1.4960 2.3400 1040.1 -0.0042533 160.65 0.11863 4.8592 0.20580 503.82 547.90 2.4064 1.3045 1.5552 221.35 0.38391 6.7701 0.013277
-22.625 32.232 0.0096998 148.26 149.09 0.80796 557.69 0.0017931 144.77 145.17 0.79232 1.4990 2.3457 1033.6 -0.0041990 158.97 0.11807 5.0311 0.19877 504.90 549.07 2.4045 1.3095 1.5621 221.44 0.38020 6.7967 0.013374
-21.625 33.435 0.010023 150.71 151.56 0.81769 556.46 0.0017971 147.11 147.52 0.80164 1.5019 2.3514 1027.1 -0.0041439 157.30 0.11752 5.2076 0.19203 505.97 550.24 2.4027 1.3144 1.5690 221.52 0.37656 6.8232 0.013471
-20.625 34.673 0.010354 153.16 154.04 0.82741 555.23 0.0018011 149.45 149.88 0.81095 1.5049 2.3572 1020.6 -0.0040879 155.66 0.11697 5.3889 0.18557 507.04 551.40 2.4010 1.3194 1.5759 221.59 0.37300 6.8499 0.013569
-19.625 35.946 0.010692 155.61 156.53 0.83713 553.99 0.0018051 151.80 152.25 0.82024 1.5079 2.3630 1014.0 -0.0040311 154.04 0.11642 5.5750 0.17937 508.11 552.57 2.3992 1.3244 1.5829 221.66 0.36950 6.8765 0.013668
-18.625 37.253 0.011039 158.08 159.03 0.84683 552.74 0.0018092 154.16 154.62 0.82952 1.5109 2.3689 1007.5 -0.0039733 152.44 0.11587 5.7660 0.17343 509.19 553.73 2.3976 1.3294 1.5901 221.72 0.36608 6.9032 0.013767
-17.625 38.596 0.011394 160.55 161.54 0.85652 551.49 0.0018133 156.52 157.00 0.83878 1.5140 2.3749 1001.0 -0.0039145 150.86 0.11532 5.9621 0.16773 510.26 554.89 2.3959 1.3345 1.5972 221.77 0.36272 6.9300 0.013867
-16.625 39.976 0.011757 163.03 164.05 0.86621 550.24 0.0018174 158.89 159.39 0.84803 1.5171 2.3810 994.44 -0.0038549 149.29 0.11478 6.1632 0.16225 511.33 556.05 2.3943 1.3395 1.6045 221.81 0.35942 6.9568 0.013968
-15.625 41.392 0.012129 165.52 166.58 0.87589 548.98 0.0018216 161.26 161.78 0.85726 1.5202 2.3871 987.91 -0.0037942 147.75 0.11423 6.3696 0.15700 512.40 557.20 2.3927 1.3446 1.6119 221.85 0.35619 6.9836 0.014069
-14.625 42.846 0.012509 168.01 169.11 0.88556 547.71 0.0018258 163.64 164.18 0.86649 1.5233 2.3933 981.37 -0.0037325 146.22 0.11369 6.5812 0.15195 513.47 558.36 2.3912 1.3497 1.6193 221.87 0.35302 7.0105 0.014170
-13.625 44.338 0.012898 170.52 171.65 0.89522 546.44 0.0018300 166.02 166.58 0.87569 1.5264 2.3996 974.83 -0.0036698 144.72 0.11315 6.7983 0.14710 514.54 559.51 2.3897 1.3549 1.6268 221.89 0.34992 7.0375 0.014273
-12.625 45.870 0.013296 173.03 174.20 0.90488 545.17 0.0018343 168.41 168.99 0.88489 1.5296 2.4059 968.29 -0.0036061 143.23 0.11261 7.0208 0.14243 515.61 560.65 2.3883 1.3600 1.6344 221.90 0.34688 7.0646 0.014376
-11.625 47.440 0.013703 175.55 176.76 0.91452 543.89 0.0018386 170.81 171.41 0.89407 1.5328 2.4124 961.75 -0.0035413 141.76 0.11208 7.2490 0.13795 516.68 561.80 2.3868 1.3652 1.6421 221.91 0.34389 7.0917 0.014479
-10.625 49.051 0.014118 178.07 179.32 0.92417 542.60 0.0018430 173.21 173.83 0.90324 1.5360 2.4189 955.20 -0.0034753 140.30 0.11154 7.4829 0.13364 517.75 562.94 2.3854 1.3704 1.6498 221.90 0.34097 7.1188 0.014584
-9.6250 50.703 0.014543 180.61 181.90 0.93380 541.31 0.0018474 175.61 176.26 0.91240 1.5393 2.4255 948.65 -0.0034082 138.86 0.11101 7.7226 0.12949 518.81 564.08 2.3841 1.3757 1.6577 221.88 0.33810 7.1461 0.014689
-8.6250 52.396 0.014978 183.15 184.49 0.94343 540.02 0.0018518 178.03 178.70 0.92154 1.5426 2.4321 942.10 -0.0033400 137.44 0.11048 7.9683 0.12550 519.88 565.21 2.3827 1.3809 1.6657 221.86 0.33529 7.1734 0.014795
-7.6250 54.131 0.015421 185.70 187.08 0.95305 538.72 0.0018563 180.45 181.14 0.93068 1.5459 2.4389 935.55 -0.0032705 136.03 0.10995 8.2200 0.12165 520.94 566.35 2.3814 1.3862 1.6737 221.83 0.33254 7.2008 0.014902
-6.6250 55.909 0.015874 188.26 189.68 0.96267 537.41 0.0018608 182.87 183.59 0.93980 1.5492 2.4457 928.99 -0.0031998 134.64 0.10942 8.4779 0.11795 522.01 567.48 2.3801 1.3915 1.6819 221.79 0.32984 7.2284 0.015009
-5.6250 57.730 0.016337 190.82 192.30 0.97228 536.10 0.0018653 185.30 186.05 0.94892 1.5525 2.4526 922.43 -0.0031279 133.27 0.10889 8.7420 0.11439 523.07 568.60 2.3789 1.3969 1.6902 221.74 0.32720 7.2560 0.015117
-4.6250 59.595 0.016810 193.40 194.92 0.98189 534.78 0.0018699 187.74 188.51 0.95802 1.5559 2.4596 915.87 -0.0030546 131.91 0.10837 9.0126 0.11096 524.13 569.72 2.3777 1.4022 1.6985 221.68 0.32461 7.2837 0.015226
-3.6250 61.505 0.017293 195.98 197.55 0.99149 533.45 0.0018746 190.19 190.98 0.96711 1.5593 2.4667 909.30 -0.0029800 130.56 0.10785 9.2896 0.10765 525.19 570.84 2.3765 1.4076 1.7070 221.62 0.32207 7.3115 0.015336
-2.6250 63.461 0.017786 198.57 200.19 1.0011 532.12 0.0018793 192.64 193.46 0.97620 1.5627 2.4739 902.73 -0.0029041 129.23 0.10733 9.5733 0.10446 526.25 571.96 2.3753 1.4131 1.7156 221.54 0.31958 7.3394 0.015447
-1.6250 65.462 0.018289 201.17 202.84 1.0107 530.78 0.0018840 195.10 195.95 0.98527 1.5662 2.4811 896.16 -0.0028267 127.91 0.10681 9.8638 0.10138 527.31 573.07 2.3742 1.4185 1.7243 221.45 0.31715 7.3674 0.015559
-0.62500 67.510 0.018802 203.78 205.50 1.0203 529.44 0.0018888 197.56 198.44 0.99434 1.5696 2.4885 889.58 -0.0027478 126.61 0.10629 10.161 0.098414 528.37 574.18 2.3731 1.4240 1.7331 221.36 0.31476 7.3956 0.015671
0.37500 69.606 0.019326 206.40 208.17 1.0298 528.09 0.0018936 200.03 200.94 1.0034 1.5731 2.4960 883.00 -0.0026675 125.32 0.10578 10.466 0.095552 529.42 575.28 2.3720 1.4295 1.7421 221.26 0.31242 7.4239 0.015785
1.3750 71.749 0.019861 209.02 210.85 1.0394 526.73 0.0018985 202.51 203.45 1.0124 1.5767 2.5035 876.42 -0.0025856 124.04 0.10527 10.777 0.092790 530.48 576.38 2.3709 1.4350 1.7512 221.14 0.31013 7.4523 0.015899
2.3750 73.941 0.020407 211.65 213.54 1.0490 525.37 0.0019034 204.99 205.96 1.0215 1.5802 2.5112 869.83 -0.0025022 122.78 0.10476 11.096 0.090123 531.53 577.47 2.3699 1.4406 1.7604 221.02 0.30789 7.4808 0.016015
3.3750 76.183 0.020963 214.30 216.24 1.0586 523.99 0.0019084 207.48 208.48 1.0305 1.5838 2.5190 863.24 -0.0024171 121.53 0.10425 11.422 0.087549 532.58 578.56 2.3688 1.4462 1.7697 220.89 0.30569 7.5095 0.016131
4.3750 78.475 0.021531 216.95 218.95 1.0681 522.62 0.0019134 209.98 211.01 1.0395 1.5874 2.5268 856.64 -0.0023303 120.29 0.10374 11.756 0.085062 533.63 579.65 2.3678 1.4518 1.7792 220.75 0.30354 7.5384 0.016249
5.3750 80.817 0.022110 219.61 221.67 1.0777 521.23 0.0019185 212.48 213.55 1.0486 1.5910 2.5348 850.04 -0.0022417 119.06 0.10324 12.098 0.082660 534.67 580.73 2.3669 1.4575 1.7888 220.60 0.30144 7.5674 0.016368
6.3750 83.211 0.022700 222.28 224.40 1.0873 519.84 0.0019237 215.00 216.10 1.0576 1.5946 2.5429 843.43 -0.0021514 117.85 0.10273 12.447 0.080340 535.72 581.81 2.3659 1.4632 1.7986 220.44 0.29938 7.5966 0.016487
7.3750 85.657 0.023302 224.95 227.14 1.0968 518.44 0.0019289 217.51 218.65 1.0666 1.5983 2.5511 836.82 -0.0020593 116.65 0.10223 12.805 0.078096 536.76 582.88 2.3650 1.4689 1.8085 220.27 0.29736 7.6259 0.016608
8.3750 88.156 0.023915 227.64 229.89 1.1064 517.03 0.0019341 220.04 221.22 1.0756 1.6020 2.5595 830.20 -0.0019652 115.46 0.10173 13.170 0.075928 537.80 583.95 2.3640 1.4746 1.8186 220.08 0.29538 7.6555 0.016730
9.3750 90.708 0.024541 230.33 232.65 1.1160 515.62 0.0019394 222.57 223.79 1.0846 1.6057 2.5679 823.58 -0.0018691 114.28 0.10124 13.545 0.073830 538.84 585.01 2.3631 1.4804 1.8288 219.89 0.29345 7.6852 0.016853
10.375 93.315 0.025179 233.04 235.42 1.1255 514.19 0.0019448 225.11 226.37 1.0936 1.6095 2.5765 816.96 -0.0017710 113.11 0.10074 13.927 0.071802 539.87 586.07 2.3622 1.4863 1.8392 219.69 0.29156 7.7151 0.016978
11.375 95.977 0.025828 235.75 238.20 1.1351 512.76 0.0019502 227.66 228.95 1.1025 1.6132 2.5852 810.32 -0.0016708 111.95 0.10025 14.319 0.069840 540.90 587.12 2.3614 1.4921 1.8498 219.48 0.28971 7.7452 0.017103
12.375 98.694 0.026491 238.48 241.00 1.1446 511.32 0.0019557 230.22 231.55 1.1115 1.6170 2.5940 803.68 -0.0015685 110.80 0.099756 14.719 0.067941 541.93 588.17 2.3605 1.4980 1.8605 219.26 0.28790 7.7756 0.017230
13.375 101.47 0.027166 241.21 243.80 1.1542 509.87 0.0019613 232.78 234.15 1.1205 1.6208 2.6030 797.04 -0.0014639 109.67 0.099267 15.128 0.066103 542.96 589.21 2.3597 1.5040 1.8715 219.03 0.28612 7.8061 0.017359
14.375 104.30 0.027853 243.95 246.61 1.1637 508.42 0.0019669 235.35 236.77 1.1295 1.6247 2.6121 790.39 -0.0013569 108.54 0.098779 15.547 0.064323 543.99 590.24 2.3588 1.5099 1.8826 218.79 0.28439 7.8369 0.017488
15.375 107.19 0.028554 246.70 249.44 1.1733 506.95 0.0019726 237.93 239.39 1.1384 1.6286 2.6214 783.73 -0.0012476 107.43 0.098294 15.974 0.062600 545.01 591.27 2.3580 1.5159 1.8940 218.53 0.28270 7.8680 0.017619
16.375 110.13 0.029267 249.46 252.27 1.1828 505.48 0.0019783 240.52 242.02 1.1474 1.6324 2.6308 777.07 -0.0011357 106.32 0.097810 16.412 0.060931 546.03 592.29 2.3572 1.5220 1.9055 218.27 0.28104 7.8993 0.017752
17.375 113.14 0.029994 252.23 255.12 1.1924 504.00 0.0019841 243.11 244.66 1.1564 1.6364 2.6403 770.40 -0.0010213 105.22 0.097328 16.859 0.059314 547.04 593.31 2.3564 1.5281 1.9172 217.99 0.27942 7.9308 0.017886
18.375 116.21 0.030735 255.01 257.98 1.2019 502.50 0.0019900 245.72 247.31 1.1653 1.6403 2.6501 763.72 -0.00090422 104.14 0.096848 17.317 0.057747 548.05 594.32 2.3557 1.5342 1.9292 217.71 0.27783 7.9626 0.018021
19.375 119.33 0.031489 257.80 260.84 1.2115 501.00 0.0019960 248.33 249.97 1.1743 1.6443 2.6599 757.04 -0.00078435 103.06 0.096371 17.785 0.056228 549.06 595.33 2.3549 1.5404 1.9414 217.41 0.27628 7.9947 0.018159
20.375 122.52 0.032257 260.59 263.72 1.2210 499.49 0.0020020 250.95 252.64 1.1832 1.6483 2.6700 750.35 -0.00066161 101.99 0.095895 18.263 0.054756 550.07 596.32 2.3541 1.5466 1.9538 217.10 0.27477 8.0272 0.018297
21.375 125.77 0.033039 263.40 266.61 1.2306 497.97 0.0020082 253.57 255.32 1.1922 1.6523 2.6802 743.64 -0.00053589 100.93 0.095420 18.752 0.053328 551.07 597.31 2.3534 1.5528 1.9665 216.78 0.27329 8.0599 0.018438
22.375 129.08 0.033835 266.22 269.52 1.2401 496.43 0.0020144 256.21 258.00 1.2012 1.6563 2.6906 736.94 -0.00040708 99.877 0.094948 19.252 0.051943 552.07 598.30 2.3526 1.5591 1.9795 216.45 0.27184 8.0929 0.018580
23.375 132.46 0.034646 269.05 272.43 1.2497 494.89 0.0020206 258.86 260.70 1.2101 1.6604 2.7012 730.22 -0.00027505 98.834 0.094478 19.763 0.050600 553.06 599.27 2.3519 1.5655 1.9927 216.11 0.27043 8.1263 0.018724
24.375 135.90 0.035471 271.89 275.36 1.2592 493.34 0.0020270 261.51 263.41 1.2191 1.6645 2.7120 723.49 -0.00013968 97.800 0.094009 20.285 0.049297 554.05 600.24 2.3512 1.5718 2.0061 215.75 0.26906 8.1600 0.018870
25.375 139.41 0.036311 274.73 278.29 1.2688 491.77 0.0020335 264.17 266.13 1.2280 1.6686 2.7230 716.76 -8.3775e-07 96.773 0.093543 20.820 0.048032 555.03 601.20 2.3504 1.5783 2.0199 215.39 0.26771 8.1941 0.019017
26.375 142.98 0.037167 277.59 281.24 1.2783 490.20 0.0020400 266.84 268.85 1.2370 1.6728 2.7342 710.01 0.00014161 95.755 0.093078 21.366 0.046804 556.01 602.15 2.3497 1.5847 2.0340 215.01 0.26640 8.2286 0.019167
27.375 146.62 0.038037 280.46 284.20 1.2879 488.61 0.0020466 269.52 271.59 1.2459 1.6770 2.7456 703.26 0.00028782 94.745 0.092615 21.924 0.045612 556.99 603.10 2.3490 1.5913 2.0484 214.62 0.26512 8.2634 0.019319
28.375 150.33 0.038924 283.34 287.18 1.2974 487.01 0.0020533 272.21 274.34 1.2549 1.6812 2.7573 696.49 0.00043793 93.742 0.092154 22.495 0.044454 557.96 604.03 2.3483 1.5978 2.0631 214.21 0.26387 8.2987 0.019472
29.375 154.10 0.039826 286.22 290.16 1.3070 485.40 0.0020601 274.91 277.10 1.2638 1.6854 2.7691 689.72 0.00059212 92.747 0.091695 23.079 0.043329 558.92 604.96 2.3476 1.6044 2.0781 213.80 0.26265 8.3344 0.019628
30.375 157.94 0.040744 289.12 293.16 1.3166 483.78 0.0020671 277.62 279.87 1.2728 1.6897 2.7813 682.93 0.00075055 91.760 0.091238 23.676 0.042237 559.88 605.88 2.3469 1.6111 2.0935 213.37 0.26147 8.3705 0.019786
31.375 161.86 0.041678 292.03 296.17 1.3261 482.15 0.0020741 280.34 282.66 1.2818 1.6939 2.7936 676.13 0.00091340 90.779 0.090782 24.287 0.041175 560.84 606.79 2.3462 1.6178 2.1092 212.93 0.26031 8.4071 0.019947
32.375 165.84 0.042629 294.95 299.19 1.3357 480.50 0.0020812 283.07 285.45 1.2908 1.6983 2.8063 669.32 0.0010809 89.806 0.090328 24.911 0.040143 561.79 607.69 2.3455 1.6246 2.1254 212.48 0.25919 8.4442 0.020110
33.375 169.90 0.043596 297.88 302.22 1.3453 478.83 0.0020884 285.81 288.26 1.2997 1.7026 2.8192 662.50 0.0012532 88.840 0.089876 25.549 0.039140 562.73 608.58 2.3448 1.6314 2.1419 212.01 0.25809 8.4818 0.020275
34.375 174.02 0.044581 300.82 305.27 1.3549 477.16 0.0020957 288.56 291.07 1.3087 1.7070 2.8324 655.67 0.0014305 87.880 0.089426 26.202 0.038164 563.67 609.46 2.3440 1.6383 2.1589 211.53 0.25702 8.5199 0.020443
35.375 178.22 0.045582 303.77 308.33 1.3644 475.47 0.0021032 291.32 293.90 1.3177 1.7114 2.8459 648.82 0.0016131 86.927 0.088977 26.870 0.037216 564.60 610.33 2.3433 1.6452 2.1763 211.04 0.25599 8.5586 0.020613
36.375 182.50 0.046602 306.74 311.40 1.3740 473.77 0.0021107 294.09 296.74 1.3267 1.7158 2.8597 641.96 0.0018012 85.980 0.088531 27.553 0.036293 565.52 611.19 2.3426 1.6522 2.1942 210.53 0.25498 8.5978 0.020786
37.375 186.84 0.047639 309.71 314.48 1.3836 472.05 0.0021184 296.87 299.60 1.3357 1.7203 2.8739 635.08 0.0019950 85.040 0.088085 28.252 0.035395 566.44 612.04 2.3419 1.6592 2.2125 210.01 0.25400 8.6376 0.020962
38.375 191.27 0.048694 312.69 317.58 1.3932 470.31 0.0021262 299.66 302.46 1.3447 1.7248 2.8884 628.19 0.0021949 84.105 0.087642 28.967 0.034522 567.35 612.88 2.3411 1.6663 2.2314 209.47 0.25305 8.6780 0.021141
39.375 195.77 0.049767 315.69 320.69 1.4028 468.56 0.0021342 302.46 305.34 1.3537 1.7293 2.9033 621.29 0.0024011 83.177 0.087200 29.699 0.033671 568.26 613.70 2.3404 1.6734 2.2508 208.92 0.25213 8.7190 0.021323
40.375 200.34 0.050859 318.70 323.81 1.4124 466.80 0.0021423 305.27 308.23 1.3627 1.7339 2.9185 614.37 0.0026140 82.254 0.086760 30.447 0.032844 569.15 614.52 2.3396 1.6806 2.2708 208.36 0.25123 8.7608 0.021508
41.375 205.00 0.051970 321.71 326.95 1.4220 465.01 0.0021505 308.10 311.14 1.3718 1.7385 2.9342 607.43 0.0028338 81.338 0.086322 31.214 0.032037 570.04 615.32 2.3389 1.6879 2.2913 207.78 0.25037 8.8032 0.021696
42.375 209.73 0.053100 324.74 330.10 1.4316 463.21 0.0021588 310.94 314.06 1.3808 1.7432 2.9502 600.47 0.0030609 80.426 0.085885 31.998 0.031252 570.92 616.11 2.3381 1.6952 2.3125 207.19 0.24953 8.8463 0.021888
43.375 214.54 0.054250 327.78 333.26 1.4413 461.40 0.0021673 313.79 316.99 1.3899 1.7478 2.9667 593.50 0.0032957 79.520 0.085449 32.800 0.030488 571.79 616.88 2.3373 1.7027 2.3344 206.58 0.24871 8.8902 0.022084
44.375 219.43 0.055419 330.84 336.44 1.4509 459.56 0.0021760 316.65 319.94 1.3989 1.7525 2.9837 586.51 0.0035386 78.619 0.085015 33.622 0.029742 572.65 617.65 2.3365 1.7101 2.3569 205.96 0.24793 8.9349 0.022283
45.375 224.41 0.056609 333.90 339.63 1.4605 457.71 0.0021848 319.52 322.90 1.4080 1.7573 3.0012 579.50 0.0037900 77.723 0.084583 34.463 0.029016 573.50 618.40 2.3357 1.7177 2.3802 205.32 0.24717 8.9805 0.022485
46.375 229.46 0.057819 336.97 342.83 1.4702 455.83 0.0021938 322.41 325.88 1.4171 1.7621 3.0192 572.46 0.0040504 76.832 0.084152 35.325 0.028308 574.34 619.13 2.3349 1.7253 2.4042 204.67 0.24644 9.0269 0.022692
47.375 234.60 0.059050 340.06 346.05 1.4798 453.94 0.0022029 325.31 328.87 1.4262 1.7669 3.0377 565.41 0.0043202 75.946 0.083723 36.208 0.027618 575.17 619.85 2.3340 1.7329 2.4291 204.00 0.24573 9.0742 0.022903
48.375 239.83 0.060302 343.16 349.29 1.4895 452.03 0.0022123 328.22 331.88 1.4353 1.7718 3.0569 558.34 0.0046000 75.064 0.083295 37.112 0.026945 576.00 620.55 2.3332 1.7407 2.4548 203.31 0.24505 9.1224 0.023119
49.375 245.13 0.061575 346.27 352.53 1.4991 450.09 0.0022218 331.15 334.90 1.4445 1.7767 3.0766 551.24 0.0048904 74.186 0.082868 38.039 0.026289 576.81 621.24 2.3323 1.7485 2.4815 202.61 0.24440 9.1716 0.023339
50.375 250.53 0.062870 349.40 355.80 1.5088 448.13 0.0022315 334.09 337.94 1.4536 1.7817 3.0970 544.13 0.0051920 73.313 0.082442 38.989 0.025648 577.61 621.91 2.3314 1.7564 2.5092 201.89 0.24377 9.2219 0.023564
51.375 256.01 0.064187 352.54 359.07 1.5185 446.15 0.0022414 337.04 341.00 1.4628 1.7867 3.1181 536.98 0.0055054 72.443 0.082018 39.962 0.025024 578.39 622.56 2.3304 1.7644 2.5379 201.16 0.24317 9.2733 0.023794
52.375 261.57 0.065526 355.68 362.36 1.5282 444.15 0.0022515 340.01 344.07 1.4720 1.7918 3.1400 529.82 0.0058313 71.577 0.081595 40.961 0.024414 579.17 623.20 2.3295 1.7724 2.5677 200.41 0.24260 9.3258 0.024029
53.375 267.23 0.066888 358.85 365.67 1.5379 442.12 0.0022618 343.00 347.17 1.4812 1.7969 3.1627 522.62 0.0061705 70.715 0.081174 41.985 0.023818 579.93 623.81 2.3285 1.7805 2.5987 199.63 0.24205 9.3795 0.024270
54.375 272.97 0.068273 362.02 368.99 1.5476 440.06 0.0022724 346.00 350.28 1.4904 1.8021 3.1862 515.40 0.0065239 69.856 0.080753 43.036 0.023237 580.68 624.41 2.3274 1.7887 2.6310 198.85 0.24154 9.4344 0.024516
55.375 278.81 0.069682 365.21 372.33 1.5573 437.98 0.0022832 349.02 353.40 1.4997 1.8073 3.2106 508.15 0.0068923 69.001 0.080334 44.114 0.022669 581.41 624.99 2.3264 1.7969 2.6646 198.04 0.24105 9.4907 0.024769
56.375 284.74 0.071114 368.41 375.68 1.5670 435.87 0.0022943 352.05 356.55 1.5090 1.8126 3.2360 500.87 0.0072767 68.148 0.079915 45.221 0.022114 582.13 625.54 2.3253 1.8052 2.6998 197.22 0.24059 9.5484 0.025028
57.375 290.76 0.072570 371.63 379.05 1.5768 433.73 0.0023056 355.10 359.72 1.5183 1.8179 3.2624 493.56 0.0076782 67.299 0.079498 46.358 0.021571 582.83 626.07 2.3241 1.8136 2.7365 196.37 0.24016 9.6075 0.025294
58.375 296.87 0.074051 374.85 382.43 1.5865 431.56 0.0023172 358.17 362.91 1.5276 1.8233 3.2900 486.22 0.0080980 66.451 0.079082 47.525 0.021041 583.52 626.58 2.3230 1.8220 2.7749 195.51 0.23976 9.6682 0.025568
59.375 303.08 0.075557 378.10 385.83 1.5963 429.36 0.0023290 361.25 366.12 1.5370 1.8288 3.3188 478.84 0.0085373 65.606 0.078666 48.726 0.020523 584.18 627.07 2.3218 1.8305 2.8152 194.63 0.23939 9.7305 0.025849
60.375 309.38 0.077087 381.35 389.25 1.6061 427.13 0.0023412 364.36 369.35 1.5464 1.8343 3.3489 471.43 0.0089976 64.763 0.078251 49.960 0.020016 584.83 627.53 2.3205 1.8391 2.8576 193.73 0.23905 9.7945 0.026138
61.375 315.78 0.078642 384.62 392.69 1.6159 424.87 0.0023537 367.48 372.60 1.5558 1.8400 3.3805 463.99 0.0094803 63.922 0.077838 51.229 0.019520 585.46 627.96 2.3192 1.8479 2.9022 192.82 0.23873 9.8603 0.026436
62.375 322.28 0.080223 387.91 396.14 1.6257 422.56 0.0023665 370.62 375.88 1.5653 1.8457 3.4136 456.50 0.0099871 63.083 0.077425 52.535 0.019035 586.07 628.37 2.3178 1.8567 2.9492 191.88 0.23845 9.9281 0.026744
63.375 328.88 0.081829 391.21 399.60 1.6355 420.22 0.0023797 373.79 379.18 1.5748 1.8514 3.4483 448.97 0.010520 62.244 0.077012 53.879 0.018560 586.66 628.74 2.3164 1.8656 2.9989 190.92 0.23819 9.9979 0.027061
64.375 335.58 0.083461 394.52 403.09 1.6453 417.85 0.0023932 376.97 382.51 1.5844 1.8573 3.4850 441.40 0.011081 61.407 0.076600 55.265 0.018095 587.22 629.09 2.3149 1.8747 3.0517 189.95 0.23796 10.070 0.027389
65.375 342.38 0.085119 397.85 406.59 1.6552 415.42 0.0024072 380.18 385.86 1.5939 1.8633 3.5236 433.79 0.011672 60.570 0.076189 56.692 0.017639 587.76 629.40 2.3133 1.8839 3.1077 188.95 0.23775 10.144 0.027729
66.375 349.28 0.086803 401.20 410.12 1.6650 412.96 0.0024215 383.41 389.25 1.6036 1.8693 3.5645 426.12 0.012296 59.733 0.075779 58.165 0.017193 588.28 629.68 2.3117 1.8933 3.1674 187.93 0.23757 10.221 0.028080
67.375 356.28 0.088511 404.56 413.66 1.6749 410.45 0.0024363 386.67 392.65 1.6133 1.8755 3.6078 418.41 0.012956 58.897 0.075368 59.684 0.016755 588.76 629.92 2.3100 1.9030 3.2311 186.89 0.23740 10.300 0.028446
68.375 363.40 0.090245 407.94 417.21 1.6848 407.89 0.0024516 389.95 396.09 1.6230 1.8818 3.6537 410.64 0.013655 58.059 0.074959 61.253 0.016326 589.22 630.13 2.3082 1.9129 3.2994 185.83 0.23724 10.382 0.028825
69.375 370.61 0.092004 411.33 420.79 1.6948 405.28 0.0024674 393.26 399.57 1.6328 1.8882 3.7027 402.81 0.014396 57.221 0.074549 62.875 0.015905 589.65 630.29 2.3064 1.9231 3.3727 184.74 0.23710 10.467 0.029221
70.375 377.94 0.093787 414.74 424.39 1.7047 402.62 0.0024838 396.60 403.07 1.6426 1.8947 3.7550 394.92 0.015183 56.381 0.074141 64.552 0.015491 590.04 630.41 2.3044 1.9336 3.4518 183.63 0.23697 10.555 0.029633
71.375 385.37 0.095593 418.17 428.01 1.7147 399.89 0.0025007 399.96 406.61 1.6525 1.9014 3.8109 386.97 0.016021 55.540 0.073732 66.288 0.015086 590.40 630.49 2.3024 1.9444 3.5371 182.50 0.23684 10.647 0.030064
72.375 392.92 0.097421 421.62 431.65 1.7247 397.11 0.0025182 403.36 410.18 1.6625 1.9083 3.8711 378.95 0.016915 54.696 0.073324 68.087 0.014687 590.73 630.51 2.3002 1.9556 3.6297 181.34 0.23671 10.743 0.030515
73.375 400.57 0.099269 425.08 435.31 1.7347 394.26 0.0025364 406.79 413.80 1.6726 1.9153 3.9359 370.85 0.017871 53.848 0.072917 69.953 0.014295 591.01 630.49 2.2979 1.9673 3.7303 180.16 0.23658 10.842 0.030989
74.375 408.34 0.10113 428.56 438.99 1.7447 391.34 0.0025553 410.26 417.45 1.6827 1.9226 4.0060 362.67 0.018894 52.997 0.072510 71.890 0.013910 591.25 630.41 2.2955 1.9793 3.8401 178.95 0.23643 10.946 0.031488
75.375 416.23 0.10302 432.07 442.70 1.7548 388.34 0.0025751 413.76 421.15 1.6930 1.9301 4.0822 354.41 0.019993 52.142 0.072104 73.904 0.013531 591.44 630.27 2.2930 1.9919 3.9604 177.71 0.23627 11.054 0.032014
76.375 424.23 0.10491 435.59 446.42 1.7649 385.26 0.0025957 417.31 424.90 1.7033 1.9378 4.1654 346.06 0.021177 51.281 0.071699 76.001 0.013158 591.59 630.07 2.2903 2.0050 4.0927 176.44 0.23609 11.168 0.032570
77.375 432.35 0.10681 439.13 450.17 1.7750 382.09 0.0026172 420.89 428.70 1.7137 1.9459 4.2565 337.60 0.022455 50.414 0.071295 78.187 0.012790 591.68 629.80 2.2874 2.0186 4.2389 175.15 0.23588 11.287 0.033161
78.375 440.59 0.10871 442.70 453.95 1.7851 378.83 0.0026397 424.53 432.54 1.7243 1.9543 4.3570 329.05 0.023838 49.539 0.070893 80.469 0.012427 591.71 629.46 2.2844 2.0328 4.4012 173.82 0.23563 11.412 0.033789
79.375 448.95 0.11060 446.29 457.75 1.7953 375.46 0.0026634 428.21 436.45 1.7349 1.9631 4.4684 320.38 0.025341 48.657 0.070494 82.856 0.012069 591.68 629.04 2.2812 2.0475 4.5824 172.46 0.23535 11.544 0.034461
80.375 457.44 0.11248 449.90 461.58 1.8056 371.97 0.0026884 431.94 440.42 1.7457 1.9723 4.5928 311.58 0.026980 47.764 0.070099 85.359 0.011715 591.58 628.53 2.2778 2.0630 4.7859 171.07 0.23501 11.684 0.035181
81.375 466.05 0.11432 453.54 465.44 1.8158 368.36 0.0027147 435.74 444.46 1.7567 1.9820 4.7327 302.66 0.028773 46.860 0.069708 87.988 0.011365 591.40 627.92 2.2742 2.0791 5.0161 169.64 0.23461 11.832 0.035957
82.375 474.79 0.11613 457.20 469.32 1.8262 364.61 0.0027427 439.60 448.58 1.7678 1.9924 4.8914 293.60 0.030744 45.942 0.069323 90.757 0.011018 591.14 627.21 2.2703 2.0959 5.2786 168.17 0.23413 11.989 0.036797
83.375 483.66 0.11786 460.89 473.24 1.8365 360.70 0.0027724 443.53 452.78 1.7791 2.0034 5.0731 284.38 0.032920 45.010 0.068948 93.681 0.010674 590.79 626.38 2.2661 2.1136 5.5807 166.67 0.23357 12.157 0.037711
84.375 492.67 0.11949 464.61 477.19 1.8469 356.61 0.0028041 447.54 457.07 1.7907 2.0153 5.2834 275.00 0.035335 44.059 0.068586 96.781 0.010333 590.33 625.42 2.2616 2.1321 5.9321 165.13 0.23290 12.338 0.038713
85.375 501.81 0.12098 468.35 481.17 1.8574 352.33 0.0028382 451.65 461.47 1.8025 2.0281 5.5302 265.44 0.038030 43.088 0.068241 100.08 0.0099920 589.74 624.31 2.2567 2.1517 6.3459 163.54 0.23209 12.532 0.039819
86.375 511.09 0.12227 472.14 485.19 1.8679 347.82 0.0028751 455.85 465.98 1.8145 2.0420 5.8240 255.69 0.041058 42.092 0.067923 103.61 0.0096520 589.03 623.04 2.2514 2.1723 6.8405 161.91 0.23112 12.743 0.041051
87.375 520.51 0.12329 475.95 489.25 1.8785 343.04 0.0029151 460.18 470.64 1.8269 2.0574 6.1803 245.72 0.044485 41.066 0.067640 107.40 0.0093114 588.15 621.56 2.2456 2.1943 7.4422 160.23 0.22995 12.973 0.042436
88.375 530.07 0.12391 479.81 493.35 1.8892 337.95 0.0029590 464.64 475.45 1.8397 2.0745 6.6221 235.52 0.048397 40.005 0.067412 111.50 0.0089689 587.08 619.86 2.2392 2.2178 8.1900 158.49 0.22854 13.226 0.044014
89.375 539.79 0.12395 483.71 497.49 1.9000 332.48 0.0030077 469.27 480.46 1.8530 2.0936 7.1851 225.04 0.052906 38.901 0.067265 115.97 0.0086228 585.79 617.88 2.2321 2.2433 9.1445 156.69 0.22681 13.508 0.045839
90.375 549.66 0.12314 487.66 501.70 1.9109 326.55 0.0030623 474.10 485.71 1.8669 2.1156 7.9284 214.26 0.058166 37.742 0.067243 120.91 0.0082708 584.22 615.56 2.2241 2.2711 10.405 154.82 0.22467 13.825 0.047992
91.375 559.68 0.12100 491.66 505.96 1.9219 320.03 0.0031247 479.19 491.25 1.8815 2.1412 8.9568 203.11 0.064389 36.514 0.067421 126.43 0.0079097 582.29 612.82 2.2150 2.3019 12.146 152.85 0.22200 14.189 0.050600
92.375 569.87 0.11669 495.74 510.29 1.9330 312.73 0.0031976 484.62 497.18 1.8972 2.1718 10.475 191.54 0.071885 35.195 0.067931 132.72 0.0075346 579.91 609.51 2.2045 2.3370 14.705 150.75 0.21862 14.618 0.053877
93.375 580.24 0.10851 499.89 514.71 1.9444 304.34 0.0032858 490.52 503.67 1.9143 2.2100 12.945 179.43 0.081133 33.755 0.069025 140.11 0.0071373 576.87 605.42 2.1919 2.3779 18.828 148.48 0.21421 15.146 0.058225
94.375 590.79 0.092377 504.16 519.25 1.9560 294.25 0.0033985 497.17 511.01 1.9336 2.2603 17.657 166.61 0.092934 32.154 0.071243 149.20 0.0067025 572.82 600.12 2.1761 2.4283 26.557 145.93 0.20825 15.847 0.064529
95.375 601.53 0.054961 508.60 523.96 1.9681 280.99 0.0035589 505.21 519.97 1.9572 2.3343 30.014 152.73 0.10888 30.366 0.076197 161.45 0.0061937 566.92 592.61 2.1544 2.4956 46.113 142.79 0.19953 16.960 0.075419
96.375 613.77 undefined 512.33 528.00 1.9782 270.00 0.0037037 512.33 528.00 1.9782 2.3842 42.739 146.29 0.11913 29.551 0.079619 270.00 0.0037037 512.33 528.00 1.9782 2.3842 42.739 146.29 0.11913 29.551 0.079619
97.375 628.02 undefined 514.69 530.73 1.9846 270.00 0.0037037 514.69 530.73 1.9846 2.3465 29.316 151.77 0.11387 29.395 0.074948 270.00 0.0037037 514.69 530.73 1.9846 2.3465 29.316 151.77 0.11387 29.395 0.074948
98.375 642.45 undefined 517.02 533.43 1.9909 270.00 0.0037037 517.02 533.43 1.9909 2.3149 22.794 156.73 0.10935 28.961 0.072331 270.00 0.0037037 517.02 533.43 1.9909 2.3149 22.794 156.73 0.10935 28.961 0.072331
99.375 657.05 undefined 519.32 536.10 1.9970 270.00 0.0037037 519.32 536.10 1.9970 2.2885 18.905 161.26 0.10539 28.754 0.070415 270.00 0.0037037 519.32 536.10 1.9970 2.2885 18.905 161.26 0.10539 28.754 0.070415
100.38 671.79 undefined 521.60 538.76 2.0031 270.00 0.0037037 521.60 538.76 2.0031 2.2666 16.305 165.41 0.10185 28.664 0.068932 270.00 0.0037037 521.60 538.76 2.0031 2.2666 16.305 165.41 0.10185 28.664 0.068932
101.38 686.66 undefined 523.86 541.39 2.0092 270.00 0.0037037 523.86 541.39 2.0092 2.2484 14.434 169.25 0.098657 28.633 0.067747 270.00 0.0037037 523.86 541.39 2.0092 2.2484 14.434 169.25 0.098657 28.633 0.067747
102.38 701.63 undefined 526.10 544.02 2.0152 270.00 0.0037037 526.10 544.02 2.0152 2.2333 13.019 172.84 0.095729 28.632 0.066782 270.00 0.0037037 526.10 544.02 2.0152 2.2333 13.019 172.84 0.095729 28.632 0.066782
103.38 716.70 undefined 528.33 546.63 2.0211 270.00 0.0037037 528.33 546.63 2.0211 2.2209 11.909 176.20 0.093021 28.647 0.065983 270.00 0.0037037 528.33 546.63 2.0211 2.2209 11.909 176.20 0.093021 28.647 0.065983
104.38 731.86 undefined 530.54 549.23 2.0270 270.00 0.0037037 530.54 549.23 2.0270 2.2105 11.012 179.38 0.090498 28.669 0.065315 270.00 0.0037037 530.54 549.23 2.0270 2.2105 11.012 179.38 0.090498 28.669 0.065315
105.38 747.09 undefined 532.75 551.82 2.0328 270.00 0.0037037 532.75 551.82 2.0328 2.2019 10.273 182.41 0.088132 28.696 0.064752 270.00 0.0037037 532.75 551.82 2.0328 2.2019 10.273 182.41 0.088132 28.696 0.064752
106.38 762.40 undefined 534.94 554.41 2.0386 270.00 0.0037037 534.94 554.41 2.0386 2.1948 9.6515 185.31 0.085901 28.724 0.064273 270.00 0.0037037 534.94 554.41 2.0386 2.1948 9.6515 185.31 0.085901 28.724 0.064273
107.38 777.77 undefined 537.14 557.00 2.0444 270.00 0.0037037 537.14 557.00 2.0444 2.1888 9.1224 188.10 0.083791 28.754 0.063864 270.00 0.0037037 537.14 557.00 2.0444 2.1888 9.1224 188.10 0.083791 28.754 0.063864
108.38 793.20 undefined 539.32 559.58 2.0501 270.00 0.0037037 539.32 559.58 2.0501 2.1839 8.6661 190.79 0.081787 28.784 0.063514 270.00 0.0037037 539.32 559.58 2.0501 2.1839 8.6661 190.79 0.081787 28.784 0.063514
109.38 808.69 undefined 541.50 562.16 2.0558 270.00 0.0037037 541.50 562.16 2.0558 2.1797 8.2684 193.40 0.079878 28.814 0.063212 270.00 0.0037037 541.50 562.16 2.0558 2.1797 8.2684 193.40 0.079878 28.814 0.063212
110.38 824.23 undefined 543.68 564.73 2.0615 270.00 0.0037037 543.68 564.73 2.0615 2.1762 7.9187 195.95 0.078057 28.845 0.062951 270.00 0.0037037 543.68 564.73 2.0615 2.1762 7.9187 195.95 0.078057 28.845 0.062951
111.38 839.82 undefined 545.86 567.30 2.0672 270.00 0.0037037 545.86 567.30 2.0672 2.1733 7.6088 198.42 0.076316 28.875 0.062727 270.00 0.0037037 545.86 567.30 2.0672 2.1733 7.6088 198.42 0.076316 28.875 0.062727
112.38 855.45 undefined 548.03 569.87 2.0728 270.00 0.0037037 548.03 569.87 2.0728 2.1709 7.3321 200.84 0.074648 28.906 0.062532 270.00 0.0037037 548.03 569.87 2.0728 2.1709 7.3321 200.84 0.074648 28.906 0.062532
113.38 871.13 undefined 550.20 572.44 2.0784 270.00 0.0037037 550.20 572.44 2.0784 2.1689 7.0837 203.21 0.073048 28.936 0.062365 270.00 0.0037037 550.20 572.44 2.0784 2.1689 7.0837 203.21 0.073048 28.936 0.062365
114.38 886.86 undefined 552.37 575.01 2.0840 270.00 0.0037037 552.37 575.01 2.0840 2.1672 6.8594 205.54 0.071512 28.967 0.062221 270.00 0.0037037 552.37 575.01 2.0840 2.1672 6.8594 205.54 0.071512 28.967 0.062221
115.38 902.62 undefined 554.53 577.58 2.0896 270.00 0.0037037 554.53 577.58 2.0896 2.1659 6.6559 207.82 0.070034 28.997 0.062097 270.00 0.0037037 554.53 577.58 2.0896 2.1659 6.6559 207.82 0.070034 28.997 0.062097
116.38 918.42 undefined 556.70 580.15 2.0952 270.00 0.0037037 556.70 580.15 2.0952 2.1649 6.4703 210.06 0.068611 29.027 0.061992 270.00 0.0037037 556.70 580.15 2.0952 2.1649 6.4703 210.06 0.068611 29.027 0.061992
117.38 934.26 undefined 558.86 582.72 2.1007 270.00 0.0037037 558.86 582.72 2.1007 2.1642 6.3005 212.26 0.067239 29.058 0.061902 270.00 0.0037037 558.86 582.72 2.1007 2.1642 6.3005 212.26 0.067239 29.058 0.061902
118.38 950.13 undefined 561.03 585.29 2.1062 270.00 0.0037037 561.03 585.29 2.1062 2.1637 6.1445 214.43 0.065916 29.088 0.061827 270.00 0.0037037 561.03 585.29 2.1062 2.1637 6.1445 214.43 0.065916 29.088 0.061827
119.38 966.03 undefined 563.19 587.86 2.1118 270.00 0.0037037 563.19 587.86 2.1118 2.1634 6.0007 216.56 0.064638 29.118 0.061765 270.00 0.0037037 563.19 587.86 2.1118 2.1634 6.0007 216.56 0.064638 29.118 0.061765
120.38 981.97 undefined 565.35 590.43 2.1173 270.00 0.0037037 565.35 590.43 2.1173 2.1633 5.8677 218.66 0.063404 29.149 0.061714 270.00 0.0037037 565.35 590.43 2.1173 2.1633 5.8677 218.66 0.063404 29.149 0.061714
121.38 997.94 undefined 567.52 593.00 2.1228 270.00 0.0037037 567.52 593.00 2.1228 2.1634 5.7444 220.73 0.062209 29.179 0.061674 270.00 0.0037037 567.52 593.00 2.1228 2.1634 5.7444 220.73 0.062209 29.179 0.061674
122.38 1013.9 undefined 569.68 595.57 2.1282 270.00 0.0037037 569.68 595.57 2.1282 2.1637 5.6297 222.78 0.061053 29.209 0.061644 270.00 0.0037037 569.68 595.57 2.1282 2.1637 5.6297 222.78 0.061053 29.209 0.061644
123.38 1030.0 undefined 571.85 598.15 2.1337 270.00 0.0037037 571.85 598.15 2.1337 2.1642 5.5229 224.79 0.059933 29.239 0.061622 270.00 0.0037037 571.85 598.15 2.1337 2.1642 5.5229 224.79 0.059933 29.239 0.061622
124.38 1046.0 undefined 574.01 600.72 2.1392 270.00 0.0037037 574.01 600.72 2.1392 2.1648 5.4231 226.79 0.058847 29.269 0.061608 270.00 0.0037037 574.01 600.72 2.1392 2.1648 5.4231 226.79 0.058847 29.269 0.061608
125.38 1062.1 undefined 576.17 603.30 2.1446 270.00 0.0037037 576.17 603.30 2.1446 2.1655 5.3296 228.75 0.057794 29.299 0.061601 270.00 0.0037037 576.17 603.30 2.1446 2.1655 5.3296 228.75 0.057794 29.299 0.061601
126.38 1078.2 undefined 578.34 605.87 2.1500 270.00 0.0037037 578.34 605.87 2.1500 2.1664 5.2420 230.69 0.056772 29.329 0.061601 270.00 0.0037037 578.34 605.87 2.1500 2.1664 5.2420 230.69 0.056772 29.329 0.061601
127.38 1094.3 undefined 580.51 608.45 2.1554 270.00 0.0037037 580.51 608.45 2.1554 2.1674 5.1597 232.61 0.055780 29.359 0.061608 270.00 0.0037037 580.51 608.45 2.1554 2.1674 5.1597 232.61 0.055780 29.359 0.061608
128.38 1110.5 undefined 582.68 611.03 2.1608 270.00 0.0037037 582.68 611.03 2.1608 2.1685 5.0822 234.51 0.054816 29.389 0.061620 270.00 0.0037037 582.68 611.03 2.1608 2.1685 5.0822 234.51 0.054816 29.389 0.061620
129.38 1126.6 undefined 584.84 613.61 2.1662 270.00 0.0037037 584.84 613.61 2.1662 2.1698 5.0091 236.39 0.053878 29.419 0.061637 270.00 0.0037037 584.84 613.61 2.1662 2.1698 5.0091 236.39 0.053878 29.419 0.061637
130.38 1142.8 undefined 587.02 616.20 2.1716 270.00 0.0037037 587.02 616.20 2.1716 2.1711 4.9401 238.25 0.052967 29.449 0.061659 270.00 0.0037037 587.02 616.20 2.1716 2.1711 4.9401 238.25 0.052967 29.449 0.061659
131.38 1159.0 undefined 589.19 618.78 2.1770 270.00 0.0037037 589.19 618.78 2.1770 2.1726 4.8749 240.08 0.052080 29.479 0.061686 270.00 0.0037037 589.19 618.78 2.1770 2.1726 4.8749 240.08 0.052080 29.479 0.061686
132.38 1175.3 undefined 591.36 621.37 2.1824 270.00 0.0037037 591.36 621.37 2.1824 2.1741 4.8132 241.90 0.051216 29.509 0.061716 270.00 0.0037037 591.36 621.37 2.1824 2.1741 4.8132 241.90 0.051216 29.509 0.061716
133.38 1191.5 undefined 593.54 623.96 2.1877 270.00 0.0037037 593.54 623.96 2.1877 2.1758 4.7547 243.70 0.050375 29.539 0.061751 270.00 0.0037037 593.54 623.96 2.1877 2.1758 4.7547 243.70 0.050375 29.539 0.061751
134.38 1207.8 undefined 595.71 626.55 2.1931 270.00 0.0037037 595.71 626.55 2.1931 2.1775 4.6991 245.49 0.049556 29.569 0.061790 270.00 0.0037037 595.71 626.55 2.1931 2.1775 4.6991 245.49 0.049556 29.569 0.061790
135.38 1224.1 undefined 597.89 629.15 2.1984 270.00 0.0037037 597.89 629.15 2.1984 2.1793 4.6464 247.25 0.048757 29.599 0.061832 270.00 0.0037037 597.89 629.15 2.1984 2.1793 4.6464 247.25 0.048757 29.599 0.061832
136.38 1240.4 undefined 600.07 631.74 2.2037 270.00 0.0037037 600.07 631.74 2.2037 2.1812 4.5962 249.00 0.047978 29.628 0.061877 270.00 0.0037037 600.07 631.74 2.2037 2.1812 4.5962 249.00 0.047978 29.628 0.061877
137.38 1256.7 undefined 602.25 634.34 2.2091 270.00 0.0037037 602.25 634.34 2.2091 2.1832 4.5484 250.74 0.047219 29.658 0.061926 270.00 0.0037037 602.25 634.34 2.2091 2.1832 4.5484 250.74 0.047219 29.658 0.061926
138.38 1273.0 undefined 604.44 636.95 2.2144 270.00 0.0037037 604.44 636.95 2.2144 2.1852 4.5029 252.46 0.046478 29.688 0.061977 270.00 0.0037037 604.44 636.95 2.2144 2.1852 4.5029 252.46 0.046478 29.688 0.061977
139.38 1289.4 undefined 606.62 639.55 2.2197 270.00 0.0037037 606.62 639.55 2.2197 2.1873 4.4595 254.16 0.045755 29.717 0.062031 270.00 0.0037037 606.62 639.55 2.2197 2.1873 4.4595 254.16 0.045755 29.717 0.062031
140.38 1305.8 undefined 608.81 642.16 2.2250 270.00 0.0037037 608.81 642.16 2.2250 2.1894 4.4180 255.85 0.045049 29.747 0.062088 270.00 0.0037037 608.81 642.16 2.2250 2.1894 4.4180 255.85 0.045049 29.747 0.062088
141.38 1322.1 undefined 611.00 644.76 2.2303 270.00 0.0037037 611.00 644.76 2.2303 2.1916 4.3784 257.53 0.044359 29.777 0.062147 270.00 0.0037037 611.00 644.76 2.2303 2.1916 4.3784 257.53 0.044359 29.777 0.062147
142.38 1338.5 undefined 613.19 647.38 2.2356 270.00 0.0037037 613.19 647.38 2.2356 2.1939 4.3406 259.20 0.043686 29.806 0.062209 270.00 0.0037037 613.19 647.38 2.2356 2.1939 4.3406 259.20 0.043686 29.806 0.062209
143.38 1354.9 undefined 615.39 649.99 2.2408 270.00 0.0037037 615.39 649.99 2.2408 2.1962 4.3044 260.85 0.043027 29.836 0.062272 270.00 0.0037037 615.39 649.99 2.2408 2.1962 4.3044 260.85 0.043027 29.836 0.062272
144.38 1371.4 undefined 617.59 652.61 2.2461 270.00 0.0037037 617.59 652.61 2.2461 2.1986 4.2697 262.49 0.042384 29.865 0.062338 270.00 0.0037037 617.59 652.61 2.2461 2.1986 4.2697 262.49 0.042384 29.865 0.062338
145.38 1387.8 undefined 619.79 655.23 2.2514 270.00 0.0037037 619.79 655.23 2.2514 2.2010 4.2365 264.11 0.041755 29.895 0.062406 270.00 0.0037037 619.79 655.23 2.2514 2.2010 4.2365 264.11 0.041755 29.895 0.062406
146.38 1404.2 undefined 621.99 657.85 2.2566 270.00 0.0037037 621.99 657.85 2.2566 2.2034 4.2046 265.73 0.041140 29.924 0.062476 270.00 0.0037037 621.99 657.85 2.2566 2.2034 4.2046 265.73 0.041140 29.924 0.062476
147.38 1420.7 undefined 624.19 660.47 2.2619 270.00 0.0037037 624.19 660.47 2.2619 2.2059 4.1741 267.33 0.040538 29.954 0.062547 270.00 0.0037037 624.19 660.47 2.2619 2.2059 4.1741 267.33 0.040538 29.954 0.062547
148.38 1437.2 undefined 626.40 663.10 2.2671 270.00 0.0037037 626.40 663.10 2.2671 2.2085 4.1447 268.92 0.039949 29.983 0.062620 270.00 0.0037037 626.40 663.10 2.2671 2.2085 4.1447 268.92 0.039949 29.983 0.062620
149.38 1453.6 undefined 628.61 665.73 2.2723 270.00 0.0037037 628.61 665.73 2.2723 2.2110 4.1166 270.50 0.039373 30.012 0.062695 270.00 0.0037037 628.61 665.73 2.2723 2.2110 4.1166 270.50 0.039373 30.012 0.062695
150.38 1470.1 undefined 630.82 668.36 2.2776 270.00 0.0037037 630.82 668.36 2.2776 2.2136 4.0895 272.07 0.038809 30.042 0.062772 270.00 0.0037037 630.82 668.36 2.2776 2.2136 4.0895 272.07 0.038809 30.042 0.062772
151.38 1486.6 undefined 633.04 671.00 2.2828 270.00 0.0037037 633.04 671.00 2.2828 2.2163 4.0635 273.63 0.038257 30.071 0.062850 270.00 0.0037037 633.04 671.00 2.2828 2.2163 4.0635 273.63 0.038257 30.071 0.062850
152.38 1503.2 undefined 635.26 673.64 2.2880 270.00 0.0037037 635.26 673.64 2.2880 2.2190 4.0384 275.18 0.037716 30.100 0.062930 270.00 0.0037037 635.26 673.64 2.2880 2.2190 4.0384 275.18 0.037716 30.100 0.062930
153.38 1519.7 undefined 637.48 676.28 2.2932 270.00 0.0037037 637.48 676.28 2.2932 2.2217 4.0144 276.72 0.037187 30.129 0.063011 270.00 0.0037037 637.48 676.28 2.2932 2.2217 4.0144 276.72 0.037187 30.129 0.063011
154.38 1536.2 undefined 639.70 678.93 2.2984 270.00 0.0037037 639.70 678.93 2.2984 2.2244 3.9912 278.25 0.036668 30.159 0.063093 270.00 0.0037037 639.70 678.93 2.2984 2.2244 3.9912 278.25 0.036668 30.159 0.063093
155.38 1552.7 undefined 641.92 681.58 2.3036 270.00 0.0037037 641.92 681.58 2.3036 2.2272 3.9688 279.77 0.036159 30.188 0.063177 270.00 0.0037037 641.92 681.58 2.3036 2.2272 3.9688 279.77 0.036159 30.188 0.063177
156.38 1569.3 undefined 644.15 684.23 2.3088 270.00 0.0037037 644.15 684.23 2.3088 2.2299 3.9473 281.28 0.035661 30.217 0.063262 270.00 0.0037037 644.15 684.23 2.3088 2.2299 3.9473 281.28 0.035661 30.217 0.063262
157.38 1585.9 undefined 646.38 686.88 2.3140 270.00 0.0037037 646.38 686.88 2.3140 2.2328 3.9265 282.78 0.035173 30.246 0.063348 270.00 0.0037037 646.38 686.88 2.3140 2.2328 3.9265 282.78 0.035173 30.246 0.063348
158.38 1602.4 undefined 648.62 689.54 2.3192 270.00 0.0037037 648.62 689.54 2.3192 2.2356 3.9065 284.28 0.034694 30.275 0.063435 270.00 0.0037037 648.62 689.54 2.3192 2.2356 3.9065 284.28 0.034694 30.275 0.063435
159.38 1619.0 undefined 650.86 692.20 2.3244 270.00 0.0037037 650.86 692.20 2.3244 2.2384 3.8872 285.76 0.034224 30.304 0.063523 270.00 0.0037037 650.86 692.20 2.3244 2.2384 3.8872 285.76 0.034224 30.304 0.063523
160.38 1635.6 undefined 653.10 694.86 2.3296 270.00 0.0037037 653.10 694.86 2.3296 2.2413 3.8686 287.24 0.033764 30.333 0.063613 270.00 0.0037037 653.10 694.86 2.3296 2.2413 3.8686 287.24 0.033764 30.333 0.063613
161.38 1652.2 undefined 655.34 697.53 2.3347 270.00 0.0037037 655.34 697.53 2.3347 2.2442 3.8506 288.70 0.033312 30.362 0.063704 270.00 0.0037037 655.34 697.53 2.3347 2.2442 3.8506 288.70 0.033312 30.362 0.063704
162.38 1668.8 undefined 657.58 700.20 2.3399 270.00 0.0037037 657.58 700.20 2.3399 2.2471 3.8332 290.16 0.032869 30.391 0.063795 270.00 0.0037037 657.58 700.20 2.3399 2.2471 3.8332 290.16 0.032869 30.391 0.063795
163.38 1685.4 undefined 659.83 702.87 2.3450 270.00 0.0037037 659.83 702.87 2.3450 2.2501 3.8165 291.61 0.032434 30.420 0.063888 270.00 0.0037037 659.83 702.87 2.3450 2.2501 3.8165 291.61 0.032434 30.420 0.063888
164.38 1702.0 undefined 662.08 705.55 2.3502 270.00 0.0037037 662.08 705.55 2.3502 2.2530 3.8002 293.06 0.032007 30.449 0.063982 270.00 0.0037037 662.08 705.55 2.3502 2.2530 3.8002 293.06 0.032007 30.449 0.063982
165.38 1718.6 undefined 664.34 708.23 2.3553 270.00 0.0037037 664.34 708.23 2.3553 2.2560 3.7846 294.49 0.031588 30.478 0.064076 270.00 0.0037037 664.34 708.23 2.3553 2.2560 3.7846 294.49 0.031588 30.478 0.064076
166.38 1735.2 undefined 666.60 710.91 2.3605 270.00 0.0037037 666.60 710.91 2.3605 2.2590 3.7694 295.92 0.031177 30.507 0.064172 270.00 0.0037037 666.60 710.91 2.3605 2.2590 3.7694 295.92 0.031177 30.507 0.064172
167.38 1751.9 undefined 668.86 713.59 2.3656 270.00 0.0037037 668.86 713.59 2.3656 2.2620 3.7548 297.34 0.030773 30.536 0.064268 270.00 0.0037037 668.86 713.59 2.3656 2.2620 3.7548 297.34 0.030773 30.536 0.064268
168.38 1768.5 undefined 671.12 716.28 2.3708 270.00 0.0037037 671.12 716.28 2.3708 2.2650 3.7406 298.75 0.030377 30.564 0.064365 270.00 0.0037037 671.12 716.28 2.3708 2.2650 3.7406 298.75 0.030377 30.564 0.064365
169.38 1785.2 undefined 673.39 718.97 2.3759 270.00 0.0037037 673.39 718.97 2.3759 2.2680 3.7269 300.16 0.029987 30.593 0.064463 270.00 0.0037037 673.39 718.97 2.3759 2.2680 3.7269 300.16 0.029987 30.593 0.064463
170.38 1801.8 undefined 675.66 721.67 2.3810 270.00 0.0037037 675.66 721.67 2.3810 2.2711 3.7136 301.56 0.029605 30.622 0.064562 270.00 0.0037037 675.66 721.67 2.3810 2.2711 3.7136 301.56 0.029605 30.622 0.064562
171.38 1818.5 undefined 677.93 724.37 2.3861 270.00 0.0037037 677.93 724.37 2.3861 2.2741 3.7008 302.95 0.029229 30.650 0.064662 270.00 0.0037037 677.93 724.37 2.3861 2.2741 3.7008 302.95 0.029229 30.650 0.064662
172.38 1835.1 undefined 680.20 727.07 2.3912 270.00 0.0037037 680.20 727.07 2.3912 2.2772 3.6884 304.33 0.028860 30.679 0.064762 270.00 0.0037037 680.20 727.07 2.3912 2.2772 3.6884 304.33 0.028860 30.679 0.064762
173.38 1851.8 undefined 682.48 729.77 2.3963 270.00 0.0037037 682.48 729.77 2.3963 2.2803 3.6763 305.71 0.028497 30.708 0.064863 270.00 0.0037037 682.48 729.77 2.3963 2.2803 3.6763 305.71 0.028497 30.708 0.064863
174.38 1868.5 undefined 684.77 732.48 2.4014 270.00 0.0037037 684.77 732.48 2.4014 2.2834 3.6647 307.08 0.028141 30.736 0.064965 270.00 0.0037037 684.77 732.48 2.4014 2.2834 3.6647 307.08 0.028141 30.736 0.064965
175.38 1885.2 undefined 687.05 735.19 2.4065 270.00 0.0037037 687.05 735.19 2.4065 2.2865 3.6534 308.45 0.027790 30.765 0.065068 270.00 0.0037037 687.05 735.19 2.4065 2.2865 3.6534 308.45 0.027790 30.765 0.065068
176.38 1901.8 undefined 689.34 737.90 2.4116 270.00 0.0037037 689.34 737.90 2.4116 2.2896 3.6424 309.81 0.027445 30.793 0.065171 270.00 0.0037037 689.34 737.90 2.4116 2.2896 3.6424 309.81 0.027445 30.793 0.065171
177.38 1918.5 undefined 691.63 740.62 2.4167 270.00 0.0037037 691.63 740.62 2.4167 2.2927 3.6318 311.16 0.027107 30.822 0.065276 270.00 0.0037037 691.63 740.62 2.4167 2.2927 3.6318 311.16 0.027107 30.822 0.065276
178.38 1935.2 undefined 693.92 743.34 2.4218 270.00 0.0037037 693.92 743.34 2.4218 2.2959 3.6216 312.50 0.026774 30.850 0.065380 270.00 0.0037037 693.92 743.34 2.4218 2.2959 3.6216 312.50 0.026774 30.850 0.065380
179.38 1951.9 undefined 696.22 746.07 2.4269 270.00 0.0037037 696.22 746.07 2.4269 2.2990 3.6116 313.84 0.026446 30.879 0.065486 270.00 0.0037037 696.22 746.07 2.4269 2.2990 3.6116 313.84 0.026446 30.879 0.065486
180.38 1968.6 undefined 698.52 748.79 2.4320 270.00 0.0037037 698.52 748.79 2.4320 2.3022 3.6020 315.17 0.026124 30.907 0.065592 270.00 0.0037037 698.52 748.79 2.4320 2.3022 3.6020 315.17 0.026124 30.907 0.065592
181.38 1985.3 undefined 700.83 751.52 2.4371 270.00 0.0037037 700.83 751.52 2.4371 2.3053 3.5926 316.50 0.025807 30.936 0.065698 270.00 0.0037037 700.83 751.52 2.4371 2.3053 3.5926 316.50 0.025807 30.936 0.065698
182.38 2002.0 undefined 703.13 754.26 2.4421 270.00 0.0037037 703.13 754.26 2.4421 2.3085 3.5835 317.82 0.025495 30.964 0.065806 270.00 0.0037037 703.13 754.26 2.4421 2.3085 3.5835 317.82 0.025495 30.964 0.065806
183.38 2018.8 undefined 705.44 756.99 2.4472 270.00 0.0037037 705.44 756.99 2.4472 2.3117 3.5747 319.14 0.025188 30.992 0.065914 270.00 0.0037037 705.44 756.99 2.4472 2.3117 3.5747 319.14 0.025188 30.992 0.065914
184.38 2035.5 undefined 707.76 759.73 2.4523 270.00 0.0037037 707.76 759.73 2.4523 2.3148 3.5662 320.45 0.024886 31.021 0.066022 270.00 0.0037037 707.76 759.73 2.4523 2.3148 3.5662 320.45 0.024886 31.021 0.066022
185.38 2052.2 undefined 710.07 762.48 2.4573 270.00 0.0037037 710.07 762.48 2.4573 2.3180 3.5580 321.75 0.024589 31.049 0.066131 270.00 0.0037037 710.07 762.48 2.4573 2.3180 3.5580 321.75 0.024589 31.049 0.066131
186.38 2068.9 undefined 712.39 765.22 2.4624 270.00 0.0037037 712.39 765.22 2.4624 2.3212 3.5499 323.05 0.024297 31.077 0.066241 270.00 0.0037037 712.39 765.22 2.4624 2.3212 3.5499 323.05 0.024297 31.077 0.066241
187.38 2085.6 undefined 714.71 767.97 2.4674 270.00 0.0037037 714.71 767.97 2.4674 2.3244 3.5422 324.34 0.024009 31.105 0.066351 270.00 0.0037037 714.71 767.97 2.4674 2.3244 3.5422 324.34 0.024009 31.105 0.066351
188.38 2102.4 undefined 717.04 770.73 2.4725 270.00 0.0037037 717.04 770.73 2.4725 2.3276 3.5346 325.63 0.023726 31.134 0.066462 270.00 0.0037037 717.04 770.73 2.4725 2.3276 3.5346 325.63 0.023726 31.134 0.066462
189.38 2119.1 undefined 719.37 773.48 2.4775 270.00 0.0037037 719.37 773.48 2.4775 2.3309 3.5273 326.91 0.023447 31.162 0.066574 270.00 0.0037037 719.37 773.48 2.4775 2.3309 3.5273 326.91 0.023447 31.162 0.066574
190.38 2135.9 undefined 721.70 776.24 2.4825 270.00 0.0037037 721.70 776.24 2.4825 2.3341 3.5202 328.19 0.023173 31.190 0.066686 270.00 0.0037037 721.70 776.24 2.4825 2.3341 3.5202 328.19 0.023173 31.190 0.066686
191.38 2152.6 undefined 724.04 779.01 2.4876 270.00 0.0037037 724.04 779.01 2.4876 2.3373 3.5133 329.46 0.022902 31.218 0.066798 270.00 0.0037037 724.04 779.01 2.4876 2.3373 3.5133 329.46 0.022902 31.218 0.066798
192.38 2169.3 undefined 726.38 781.77 2.4926 270.00 0.0037037 726.38 781.77 2.4926 2.3405 3.5067 330.72 0.022636 31.246 0.066911 270.00 0.0037037 726.38 781.77 2.4926 2.3405 3.5067 330.72 0.022636 31.246 0.066911
193.38 2186.1 undefined 728.72 784.54 2.4976 270.00 0.0037037 728.72 784.54 2.4976 2.3438 3.5002 331.98 0.022374 31.274 0.067025 270.00 0.0037037 728.72 784.54 2.4976 2.3438 3.5002 331.98 0.022374 31.274 0.067025
194.38 2202.8 undefined 731.06 787.32 2.5026 270.00 0.0037037 731.06 787.32 2.5026 2.3470 3.4939 333.24 0.022115 31.302 0.067139 270.00 0.0037037 731.06 787.32 2.5026 2.3470 3.4939 333.24 0.022115 31.302 0.067139
195.38 2219.6 undefined 733.41 790.09 2.5077 270.00 0.0037037 733.41 790.09 2.5077 2.3503 3.4878 334.49 0.021861 31.330 0.067253 270.00 0.0037037 733.41 790.09 2.5077 2.3503 3.4878 334.49 0.021861 31.330 0.067253
196.38 2236.4 undefined 735.76 792.87 2.5127 270.00 0.0037037 735.76 792.87 2.5127 2.3535 3.4819 335.73 0.021610 31.358 0.067368 270.00 0.0037037 735.76 792.87 2.5127 2.3535 3.4819 335.73 0.021610 31.358 0.067368
197.38 2253.1 undefined 738.12 795.66 2.5177 270.00 0.0037037 738.12 795.66 2.5177 2.3568 3.4762 336.97 0.021363 31.386 0.067483 270.00 0.0037037 738.12 795.66 2.5177 2.3568 3.4762 336.97 0.021363 31.386 0.067483
198.38 2269.9 undefined 740.48 798.44 2.5227 270.00 0.0037037 740.48 798.44 2.5227 2.3600 3.4706 338.21 0.021120 31.414 0.067599 270.00 0.0037037 740.48 798.44 2.5227 2.3600 3.4706 338.21 0.021120 31.414 0.067599
199.38 2286.6 undefined 742.84 801.23 2.5277 270.00 0.0037037 742.84 801.23 2.5277 2.3633 3.4652 339.44 0.020880 31.442 0.067716 270.00 0.0037037 742.84 801.23 2.5277 2.3633 3.4652 339.44 0.020880 31.442 0.067716
200.38 2303.4 undefined 745.21 804.02 2.5327 270.00 0.0037037 745.21 804.02 2.5327 2.3666 3.4600 340.67 0.020644 31.470 0.067833 270.00 0.0037037 745.21 804.02 2.5327 2.3666 3.4600 340.67 0.020644 31.470 0.067833
201.38 2320.2 undefined 747.57 806.82 2.5377 270.00 0.0037037 747.57 806.82 2.5377 2.3699 3.4549 341.89 0.020411 31.498 0.067950 270.00 0.0037037 747.57 806.82 2.5377 2.3699 3.4549 341.89 0.020411 31.498 0.067950
202.38 2336.9 undefined 749.94 809.62 2.5427 270.00 0.0037037 749.94 809.62 2.5427 2.3731 3.4500 343.10 0.020181 31.525 0.068068 270.00 0.0037037 749.94 809.62 2.5427 2.3731 3.4500 343.10 0.020181 31.525 0.068068
203.38 2353.7 undefined 752.32 812.42 2.5477 270.00 0.0037037 752.32 812.42 2.5477 2.3764 3.4452 344.31 0.019955 31.553 0.068186 270.00 0.0037037 752.32 812.42 2.5477 2.3764 3.4452 344.31 0.019955 31.553 0.068186
204.38 2370.5 undefined 754.70 815.23 2.5527 270.00 0.0037037 754.70 815.23 2.5527 2.3797 3.4406 345.52 0.019732 31.581 0.068305 270.00 0.0037037 754.70 815.23 2.5527 2.3797 3.4406 345.52 0.019732 31.581 0.068305
205.38 2387.2 undefined 757.08 818.04 2.5576 270.00 0.0037037 757.08 818.04 2.5576 2.3830 3.4361 346.72 0.019512 31.609 0.068424 270.00 0.0037037 757.08 818.04 2.5576 2.3830 3.4361 346.72 0.019512 31.609 0.068424
206.38 2404.0 undefined 759.46 820.85 2.5626 270.00 0.0037037 759.46 820.85 2.5626 2.3863 3.4318 347.92 0.019295 31.636 0.068543 270.00 0.0037037 759.46 820.85 2.5626 2.3863 3.4318 347.92 0.019295 31.636 0.068543
207.38 2420.8 undefined 761.85 823.67 2.5676 270.00 0.0037037 761.85 823.67 2.5676 2.3896 3.4276 349.12 0.019081 31.664 0.068663 270.00 0.0037037 761.85 823.67 2.5676 2.3896 3.4276 349.12 0.019081 31.664 0.068663
208.38 2437.6 undefined 764.24 826.49 2.5726 270.00 0.0037037 764.24 826.49 2.5726 2.3929 3.4235 350.30 0.018870 31.691 0.068784 270.00 0.0037037 764.24 826.49 2.5726 2.3929 3.4235 350.30 0.018870 31.691 0.068784
209.38 2454.4 undefined 766.64 829.31 2.5775 270.00 0.0037037 766.64 829.31 2.5775 2.3962 3.4196 351.49 0.018662 31.719 0.068904 270.00 0.0037037 766.64 829.31 2.5775 2.3962 3.4196 351.49 0.018662 31.719 0.068904
210.38 2471.1 undefined 769.04 832.14 2.5825 270.00 0.0037037 769.04 832.14 2.5825 2.3995 3.4158 352.67 0.018457 31.747 0.069026 270.00 0.0037037 769.04 832.14 2.5825 2.3995 3.4158 352.67 0.018457 31.747 0.069026
211.38 2487.9 undefined 771.44 834.97 2.5875 270.00 0.0037037 771.44 834.97 2.5875 2.4028 3.4121 353.85 0.018254 31.774 0.069147 270.00 0.0037037 771.44 834.97 2.5875 2.4028 3.4121 353.85 0.018254 31.774 0.069147
212.38 2504.7 undefined 773.84 837.80 2.5924 270.00 0.0037037 773.84 837.80 2.5924 2.4061 3.4085 355.02 0.018055 31.802 0.069269 270.00 0.0037037 773.84 837.80 2.5924 2.4061 3.4085 355.02 0.018055 31.802 0.069269
213.38 2521.5 undefined 776.25 840.64 2.5974 270.00 0.0037037 776.25 840.64 2.5974 2.4094 3.4050 356.18 0.017858 31.829 0.069391 270.00 0.0037037 776.25 840.64 2.5974 2.4094 3.4050 356.18 0.017858 31.829 0.069391
214.38 2538.3 undefined 778.66 843.48 2.6023 270.00 0.0037037 778.66 843.48 2.6023 2.4127 3.4017 357.35 0.017663 31.857 0.069514 270.00 0.0037037 778.66 843.48 2.6023 2.4127 3.4017 357.35 0.017663 31.857 0.069514
215.38 2555.1 undefined 781.07 846.32 2.6073 270.00 0.0037037 781.07 846.32 2.6073 2.4160 3.3984 358.51 0.017472 31.884 0.069637 270.00 0.0037037 781.07 846.32 2.6073 2.4160 3.3984 358.51 0.017472 31.884 0.069637
216.38 2571.8 undefined 783.49 849.17 2.6122 270.00 0.0037037 783.49 849.17 2.6122 2.4194 3.3953 359.66 0.017283 31.911 0.069761 270.00 0.0037037 783.49 849.17 2.6122 2.4194 3.3953 359.66 0.017283 31.911 0.069761
217.38 2588.6 undefined 785.91 852.02 2.6172 270.00 0.0037037 785.91 852.02 2.6172 2.4227 3.3923 360.81 0.017096 31.939 0.069885 270.00 0.0037037 785.91 852.02 2.6172 2.4227 3.3923 360.81 0.017096 31.939 0.069885
218.38 2605.4 undefined 788.34 854.87 2.6221 270.00 0.0037037 788.34 854.87 2.6221 2.4260 3.3893 361.96 0.016912 31.966 0.070009 270.00 0.0037037 788.34 854.87 2.6221 2.4260 3.3893 361.96 0.016912 31.966 0.070009
219.38 2622.2 undefined 790.76 857.73 2.6270 270.00 0.0037037 790.76 857.73 2.6270 2.4293 3.3865 363.10 0.016730 31.993 0.070133 270.00 0.0037037 790.76 857.73 2.6270 2.4293 3.3865 363.10 0.016730 31.993 0.070133
220.38 2639.0 undefined 793.20 860.59 2.6320 270.00 0.0037037 793.20 860.59 2.6320 2.4327 3.3838 364.24 0.016550 32.021 0.070258 270.00 0.0037037 793.20 860.59 2.6320 2.4327 3.3838 364.24 0.016550 32.021 0.070258
221.38 2655.8 undefined 795.63 863.45 2.6369 270.00 0.0037037 795.63 863.45 2.6369 2.4360 3.3811 365.38 0.016373 32.048 0.070384 270.00 0.0037037 795.63 863.45 2.6369 2.4360 3.3811 365.38 0.016373 32.048 0.070384
222.38 2672.6 undefined 798.07 866.31 2.6418 270.00 0.0037037 798.07 866.31 2.6418 2.4393 3.3786 366.51 0.016198 32.075 0.070509 270.00 0.0037037 798.07 866.31 2.6418 2.4393 3.3786 366.51 0.016198 32.075 0.070509
223.38 2689.4 undefined 800.51 869.18 2.6467 270.00 0.0037037 800.51 869.18 2.6467 2.4426 3.3761 367.64 0.016026 32.102 0.070635 270.00 0.0037037 800.51 869.18 2.6467 2.4426 3.3761 367.64 0.016026 32.102 0.070635
224.38 2706.2 undefined 802.95 872.06 2.6516 270.00 0.0037037 802.95 872.06 2.6516 2.4460 3.3737 368.76 0.015855 32.129 0.070761 270.00 0.0037037 802.95 872.06 2.6516 2.4460 3.3737 368.76 0.015855 32.129 0.070761
225.38 2722.9 undefined 805.40 874.93 2.6566 270.00 0.0037037 805.40 874.93 2.6566 2.4493 3.3714 369.88 0.015687 32.157 0.070888 270.00 0.0037037 805.40 874.93 2.6566 2.4493 3.3714 369.88 0.015687 32.157 0.070888
226.38 2739.7 undefined 807.85 877.81 2.6615 270.00 0.0037037 807.85 877.81 2.6615 2.4526 3.3692 371.00 0.015521 32.184 0.071015 270.00 0.0037037 807.85 877.81 2.6615 2.4526 3.3692 371.00 0.015521 32.184 0.071015
227.38 2756.5 undefined 810.31 880.70 2.6664 270.00 0.0037037 810.31 880.70 2.6664 2.4560 3.3671 372.11 0.015357 32.211 0.071142 270.00 0.0037037 810.31 880.70 2.6664 2.4560 3.3671 372.11 0.015357 32.211 0.071142
228.38 2773.3 undefined 812.76 883.58 2.6713 270.00 0.0037037 812.76 883.58 2.6713 2.4593 3.3651 373.22 0.015195 32.238 0.071270 270.00 0.0037037 812.76 883.58 2.6713 2.4593 3.3651 373.22 0.015195 32.238 0.071270
229.38 2790.1 undefined 815.22 886.47 2.6762 270.00 0.0037037 815.22 886.47 2.6762 2.4627 3.3631 374.33 0.015035 32.265 0.071398 270.00 0.0037037 815.22 886.47 2.6762 2.4627 3.3631 374.33 0.015035 32.265 0.071398
230.38 2806.9 undefined 817.69 889.37 2.6811 270.00 0.0037037 817.69 889.37 2.6811 2.4660 3.3612 375.43 0.014877 32.292 0.071526 270.00 0.0037037 817.69 889.37 2.6811 2.4660 3.3612 375.43 0.014877 32.292 0.071526
231.38 2823.7 undefined 820.16 892.26 2.6860 270.00 0.0037037 820.16 892.26 2.6860 2.4693 3.3594 376.53 0.014721 32.319 0.071655 270.00 0.0037037 820.16 892.26 2.6860 2.4693 3.3594 376.53 0.014721 32.319 0.071655
232.38 2840.5 undefined 822.63 895.16 2.6909 270.00 0.0037037 822.63 895.16 2.6909 2.4727 3.3577 377.62 0.014567 32.346 0.071784 270.00 0.0037037 822.63 895.16 2.6909 2.4727 3.3577 377.62 0.014567 32.346 0.071784
233.38 2857.3 undefined 825.10 898.07 2.6958 270.00 0.0037037 825.10 898.07 2.6958 2.4760 3.3560 378.71 0.014415 32.373 0.071913 270.00 0.0037037 825.10 898.07 2.6958 2.4760 3.3560 378.71 0.014415 32.373 0.071913
234.38 2874.1 undefined 827.58 900.97 2.7007 270.00 0.0037037 827.58 900.97 2.7007 2.4794 3.3545 379.80 0.014265 32.400 0.072042 270.00 0.0037037 827.58 900.97 2.7007 2.4794 3.3545 379.80 0.014265 32.400 0.072042
235.38 2890.9 undefined 830.06 903.88 2.7055 270.00 0.0037037 830.06 903.88 2.7055 2.4827 3.3529 380.88 0.014116 32.426 0.072172 270.00 0.0037037 830.06 903.88 2.7055 2.4827 3.3529 380.88 0.014116 32.426 0.072172
236.38 2907.6 undefined 832.54 906.79 2.7104 270.00 0.0037037 832.54 906.79 2.7104 2.4860 3.3515 381.97 0.013969 32.453 0.072302 270.00 0.0037037 832.54 906.79 2.7104 2.4860 3.3515 381.97 0.013969 32.453 0.072302
237.38 2924.4 undefined 835.03 909.71 2.7153 270.00 0.0037037 835.03 909.71 2.7153 2.4894 3.3501 383.04 0.013824 32.480 0.072432 270.00 0.0037037 835.03 909.71 2.7153 2.4894 3.3501 383.04 0.013824 32.480 0.072432
238.38 2941.2 undefined 837.52 912.63 2.7202 270.00 0.0037037 837.52 912.63 2.7202 2.4927 3.3488 384.12 0.013681 32.507 0.072563 270.00 0.0037037 837.52 912.63 2.7202 2.4927 3.3488 384.12 0.013681 32.507 0.072563
239.38 2958.0 undefined 840.02 915.55 2.7250 270.00 0.0037037 840.02 915.55 2.7250 2.4961 3.3475 385.19 0.013540 32.534 0.072693 270.00 0.0037037 840.02 915.55 2.7250 2.4961 3.3475 385.19 0.013540 32.534 0.072693
240.38 2974.8 undefined 842.52 918.48 2.7299 270.00 0.0037037 842.52 918.48 2.7299 2.4994 3.3463 386.26 0.013400 32.560 0.072824 270.00 0.0037037 842.52 918.48 2.7299 2.4994 3.3463 386.26 0.013400 32.560 0.072824
241.38 2991.6 undefined 845.02 921.41 2.7348 270.00 0.0037037 845.02 921.41 2.7348 2.5028 3.3452 387.32 0.013261 32.587 0.072956 270.00 0.0037037 845.02 921.41 2.7348 2.5028 3.3452 387.32 0.013261 32.587 0.072956
242.38 3008.4 undefined 847.52 924.34 2.7396 270.00 0.0037037 847.52 924.34 2.7396 2.5061 3.3441 388.38 0.013125 32.614 0.073087 270.00 0.0037037 847.52 924.34 2.7396 2.5061 3.3441 388.38 0.013125 32.614 0.073087
243.38 3025.2 undefined 850.03 927.28 2.7445 270.00 0.0037037 850.03 927.28 2.7445 2.5095 3.3430 389.44 0.012990 32.640 0.073219 270.00 0.0037037 850.03 927.28 2.7445 2.5095 3.3430 389.44 0.012990 32.640 0.073219
244.38 3041.9 undefined 852.54 930.22 2.7494 270.00 0.0037037 852.54 930.22 2.7494 2.5128 3.3421 390.49 0.012857 32.667 0.073351 270.00 0.0037037 852.54 930.22 2.7494 2.5128 3.3421 390.49 0.012857 32.667 0.073351
245.38 3058.7 undefined 855.05 933.16 2.7542 270.00 0.0037037 855.05 933.16 2.7542 2.5161 3.3412 391.54 0.012725 32.693 0.073483 270.00 0.0037037 855.05 933.16 2.7542 2.5161 3.3412 391.54 0.012725 32.693 0.073483
246.38 3075.5 undefined 857.57 936.11 2.7591 270.00 0.0037037 857.57 936.11 2.7591 2.5195 3.3403 392.59 0.012594 32.720 0.073616 270.00 0.0037037 857.57 936.11 2.7591 2.5195 3.3403 392.59 0.012594 32.720 0.073616
247.38 3092.3 undefined 860.09 939.06 2.7639 270.00 0.0037037 860.09 939.06 2.7639 2.5228 3.3395 393.64 0.012466 32.747 0.073748 270.00 0.0037037 860.09 939.06 2.7639 2.5228 3.3395 393.64 0.012466 32.747 0.073748
248.38 3109.1 undefined 862.62 942.01 2.7688 270.00 0.0037037 862.62 942.01 2.7688 2.5262 3.3388 394.68 0.012338 32.773 0.073881 270.00 0.0037037 862.62 942.01 2.7688 2.5262 3.3388 394.68 0.012338 32.773 0.073881
249.38 3125.9 undefined 865.15 944.97 2.7736 270.00 0.0037037 865.15 944.97 2.7736 2.5295 3.3381 395.72 0.012212 32.800 0.074014 270.00 0.0037037 865.15 944.97 2.7736 2.5295 3.3381 395.72 0.012212 32.800 0.074014
250.38 3142.6 undefined 867.68 947.93 2.7784 270.00 0.0037037 867.68 947.93 2.7784 2.5329 3.3374 396.75 0.012088 32.826 0.074148 270.00 0.0037037 867.68 947.93 2.7784 2.5329 3.3374 396.75 0.012088 32.826 0.074148
251.38 3159.4 undefined 870.21 950.89 2.7833 270.00 0.0037037 870.21 950.89 2.7833 2.5362 3.3368 397.79 0.011965 32.852 0.074281 270.00 0.0037037 870.21 950.89 2.7833 2.5362 3.3368 397.79 0.011965 32.852 0.074281
252.38 3176.2 undefined 872.75 953.86 2.7881 270.00 0.0037037 872.75 953.86 2.7881 2.5396 3.3363 398.82 0.011843 32.879 0.074415 270.00 0.0037037 872.75 953.86 2.7881 2.5396 3.3363 398.82 0.011843 32.879 0.074415
253.38 3193.0 undefined 875.29 956.83 2.7929 270.00 0.0037037 875.29 956.83 2.7929 2.5429 3.3358 399.84 0.011723 32.905 0.074548 270.00 0.0037037 875.29 956.83 2.7929 2.5429 3.3358 399.84 0.011723 32.905 0.074548
254.38 3209.7 undefined 877.84 959.80 2.7978 270.00 0.0037037 877.84 959.80 2.7978 2.5462 3.3353 400.87 0.011604 32.931 0.074682 270.00 0.0037037 877.84 959.80 2.7978 2.5462 3.3353 400.87 0.011604 32.931 0.074682
255.38 3226.5 undefined 880.38 962.78 2.8026 270.00 0.0037037 880.38 962.78 2.8026 2.5496 3.3349 401.89 0.011486 32.958 0.074816 270.00 0.0037037 880.38 962.78 2.8026 2.5496 3.3349 401.89 0.011486 32.958 0.074816
256.38 3243.3 undefined 882.93 965.76 2.8074 270.00 0.0037037 882.93 965.76 2.8074 2.5529 3.3345 402.91 0.011370 32.984 0.074950 270.00 0.0037037 882.93 965.76 2.8074 2.5529 3.3345 402.91 0.011370 32.984 0.074950
257.38 3260.1 undefined 885.49 968.74 2.8122 270.00 0.0037037 885.49 968.74 2.8122 2.5563 3.3342 403.92 0.011255 33.010 0.075084 270.00 0.0037037 885.49 968.74 2.8122 2.5563 3.3342 403.92 0.011255 33.010 0.075084
258.38 3276.8 undefined 888.05 971.73 2.8171 270.00 0.0037037 888.05 971.73 2.8171 2.5596 3.3339 404.93 0.011141 33.037 0.075218 270.00 0.0037037 888.05 971.73 2.8171 2.5596 3.3339 404.93 0.011141 33.037 0.075218
259.38 3293.6 undefined 890.61 974.71 2.8219 270.00 0.0037037 890.61 974.71 2.8219 2.5629 3.3337 405.94 0.011029 33.063 0.075353 270.00 0.0037037 890.61 974.71 2.8219 2.5629 3.3337 405.94 0.011029 33.063 0.075353
260.38 3310.4 undefined 893.17 977.71 2.8267 270.00 0.0037037 893.17 977.71 2.8267 2.5663 3.3335 406.95 0.010918 33.089 0.075487 270.00 0.0037037 893.17 977.71 2.8267 2.5663 3.3335 406.95 0.010918 33.089 0.075487
261.38 3327.1 undefined 895.74 980.70 2.8315 270.00 0.0037037 895.74 980.70 2.8315 2.5696 3.3333 407.95 0.010808 33.115 0.075621 270.00 0.0037037 895.74 980.70 2.8315 2.5696 3.3333 407.95 0.010808 33.115 0.075621
262.38 3343.9 undefined 898.31 983.70 2.8363 270.00 0.0037037 898.31 983.70 2.8363 2.5730 3.3332 408.96 0.010699 33.141 0.075755 270.00 0.0037037 898.31 983.70 2.8363 2.5730 3.3332 408.96 0.010699 33.141 0.075755
263.38 3360.7 undefined 900.89 986.71 2.8411 270.00 0.0037037 900.89 986.71 2.8411 2.5763 3.3331 409.95 0.010591 33.167 0.075890 270.00 0.0037037 900.89 986.71 2.8411 2.5763 3.3331 409.95 0.010591 33.167 0.075890
264.38 3377.4 undefined 903.46 989.71 2.8459 270.00 0.0037037 903.46 989.71 2.8459 2.5796 3.3331 410.95 0.010485 33.193 0.076024 270.00 0.0037037 903.46 989.71 2.8459 2.5796 3.3331 410.95 0.010485 33.193 0.076024
265.38 3394.2 undefined 906.05 992.72 2.8507 270.00 0.0037037 906.05 992.72 2.8507 2.5830 3.3331 411.94 0.010379 33.219 0.076158 270.00 0.0037037 906.05 992.72 2.8507 2.5830 3.3331 411.94 0.010379 33.219 0.076158
266.38 3411.0 undefined 908.63 995.73 2.8555 270.00 0.0037037 908.63 995.73 2.8555 2.5863 3.3331 412.93 0.010275 33.245 0.076291 270.00 0.0037037 908.63 995.73 2.8555 2.5863 3.3331 412.93 0.010275 33.245 0.076291
267.38 3427.7 undefined 911.22 998.75 2.8603 270.00 0.0037037 911.22 998.75 2.8603 2.5896 3.3332 413.92 0.010172 33.271 0.076425 270.00 0.0037037 911.22 998.75 2.8603 2.5896 3.3332 413.92 0.010172 33.271 0.076425
268.38 3444.5 undefined 913.81 1001.8 2.8651 270.00 0.0037037 913.81 1001.8 2.8651 2.5930 3.3333 414.90 0.010070 33.297 0.076558 270.00 0.0037037 913.81 1001.8 2.8651 2.5930 3.3333 414.90 0.010070 33.297 0.076558
269.38 3461.2 undefined 916.40 1004.8 2.8699 270.00 0.0037037 916.40 1004.8 2.8699 2.5963 3.3334 415.89 0.0099691 33.323 0.076691 270.00 0.0037037 916.40 1004.8 2.8699 2.5963 3.3334 415.89 0.0099691 33.323 0.076691
270.38 3478.0 undefined 919.00 1007.8 2.8746 270.00 0.0037037 919.00 1007.8 2.8746 2.5996 3.3336 416.87 0.0098693 33.349 0.076823 270.00 0.0037037 919.00 1007.8 2.8746 2.5996 3.3336 416.87 0.0098693 33.349 0.076823
271.38 3494.7 undefined 921.60 1010.8 2.8794 270.00 0.0037037 921.60 1010.8 2.8794 2.6029 3.3338 417.84 0.0097705 33.375 0.076955 270.00 0.0037037 921.60 1010.8 2.8794 2.6029 3.3338 417.84 0.0097705 33.375 0.076955
272.38 3511.5 undefined 924.21 1013.9 2.8842 270.00 0.0037037 924.21 1013.9 2.8842 2.6063 3.3341 418.82 0.0096727 33.401 0.077086 270.00 0.0037037 924.21 1013.9 2.8842 2.6063 3.3341 418.82 0.0096727 33.401 0.077086
273.38 3528.2 undefined 926.82 1016.9 2.8890 270.00 0.0037037 926.82 1016.9 2.8890 2.6096 3.3343 419.79 0.0095760 33.427 0.077216 270.00 0.0037037 926.82 1016.9 2.8890 2.6096 3.3343 419.79 0.0095760 33.427 0.077216
274.38 3545.0 undefined 929.43 1020.0 2.8938 270.00 0.0037037 929.43 1020.0 2.8938 2.6129 3.3346 420.76 0.0094803 33.452 0.077345 270.00 0.0037037 929.43 1020.0 2.8938 2.6129 3.3346 420.76 0.0094803 33.452 0.077345
275.38 3561.7 undefined 932.04 1023.0 2.8985 270.00 0.0037037 932.04 1023.0 2.8985 2.6162 3.3350 421.72 0.0093856 33.478 0.077473 270.00 0.0037037 932.04 1023.0 2.8985 2.6162 3.3350 421.72 0.0093856 33.478 0.077473
276.38 3578.5 undefined 934.66 1026.0 2.9033 270.00 0.0037037 934.66 1026.0 2.9033 2.6196 3.3353 422.69 0.0092918 33.504 0.077598 270.00 0.0037037 934.66 1026.0 2.9033 2.6196 3.3353 422.69 0.0092918 33.504 0.077598
277.38 3595.2 undefined 937.28 1029.1 2.9081 270.00 0.0037037 937.28 1029.1 2.9081 2.6229 3.3357 423.65 0.0091990 33.530 0.077721 270.00 0.0037037 937.28 1029.1 2.9081 2.6229 3.3357 423.65 0.0091990 33.530 0.077721
278.38 3611.9 undefined 939.91 1032.1 2.9128 270.00 0.0037037 939.91 1032.1 2.9128 2.6262 3.3362 424.61 0.0091072 33.555 0.077840 270.00 0.0037037 939.91 1032.1 2.9128 2.6262 3.3362 424.61 0.0091072 33.555 0.077840
279.38 3628.7 undefined 942.53 1035.2 2.9176 270.00 0.0037037 942.53 1035.2 2.9176 2.6295 3.3366 425.57 0.0090163 33.581 0.077953 270.00 0.0037037 942.53 1035.2 2.9176 2.6295 3.3366 425.57 0.0090163 33.581 0.077953
280.38 3645.4 undefined 945.17 1038.3 2.9223 270.00 0.0037037 945.17 1038.3 2.9223 2.6328 3.3371 426.52 0.0089264 33.607 0.078054 270.00 0.0037037 945.17 1038.3 2.9223 2.6328 3.3371 426.52 0.0089264 33.607 0.078054
281.38 3662.1 undefined 947.80 1041.3 2.9271 270.00 0.0037037 947.80 1041.3 2.9271 2.6361 3.3376 427.47 0.0088374 33.632 0.078119 270.00 0.0037037 947.80 1041.3 2.9271 2.6361 3.3376 427.47 0.0088374 33.632 0.078119
282.38 3678.9 undefined 950.44 1044.4 2.9318 270.00 0.0037037 950.44 1044.4 2.9318 2.6395 3.3382 428.42 0.0087492 33.658 0.078213 270.00 0.0037037 950.44 1044.4 2.9318 2.6395 3.3382 428.42 0.0087492 33.658 0.078213
283.38 3695.6 undefined 953.08 1047.5 2.9366 270.00 0.0037037 953.08 1047.5 2.9366 2.6428 3.3387 429.37 0.0086620 33.683 0.078371 270.00 0.0037037 953.08 1047.5 2.9366 2.6428 3.3387 429.37 0.0086620 33.683 0.078371
284.38 3712.3 undefined 955.72 1050.5 2.9413 270.00 0.0037037 955.72 1050.5 2.9413 2.6461 3.3393 430.31 0.0085756 33.709 0.078530 270.00 0.0037037 955.72 1050.5 2.9413 2.6461 3.3393 430.31 0.0085756 33.709 0.078530
285.38 3729.1 undefined 958.37 1053.6 2.9461 270.00 0.0037037 958.37 1053.6 2.9461 2.6494 3.3399 431.25 0.0084902 33.734 0.078688 270.00 0.0037037 958.37 1053.6 2.9461 2.6494 3.3399 431.25 0.0084902 33.734 0.078688
286.38 3745.8 undefined 961.02 1056.7 2.9508 270.00 0.0037037 961.02 1056.7 2.9508 2.6527 3.3406 432.19 0.0084055 33.760 0.078847 270.00 0.0037037 961.02 1056.7 2.9508 2.6527 3.3406 432.19 0.0084055 33.760 0.078847
287.38 3762.5 undefined 963.68 1059.8 2.9556 270.00 0.0037037 963.68 1059.8 2.9556 2.6560 3.3413 433.13 0.0083218 33.785 0.079007 270.00 0.0037037 963.68 1059.8 2.9556 2.6560 3.3413 433.13 0.0083218 33.785 0.079007
288.38 3779.2 undefined 966.33 1062.8 2.9603 270.00 0.0037037 966.33 1062.8 2.9603 2.6593 3.3419 434.07 0.0082388 33.811 0.079166 270.00 0.0037037 966.33 1062.8 2.9603 2.6593 3.3419 434.07 0.0082388 33.811 0.079166
289.38 3795.9 undefined 968.99 1065.9 2.9650 270.00 0.0037037 968.99 1065.9 2.9650 2.6626 3.3427 435.00 0.0081567 33.836 0.079326 270.00 0.0037037 968.99 1065.9 2.9650 2.6626 3.3427 435.00 0.0081567 33.836 0.079326
290.38 3812.7 undefined 971.66 1069.0 2.9698 270.00 0.0037037 971.66 1069.0 2.9698 2.6659 3.3434 435.93 0.0080754 33.862 0.079486 270.00 0.0037037 971.66 1069.0 2.9698 2.6659 3.3434 435.93 0.0080754 33.862 0.079486
291.38 3829.4 undefined 974.33 1072.1 2.9745 270.00 0.0037037 974.33 1072.1 2.9745 2.6692 3.3442 436.86 0.0079949 33.887 0.079647 270.00 0.0037037 974.33 1072.1 2.9745 2.6692 3.3442 436.86 0.0079949 33.887 0.079647
292.38 3846.1 undefined 977.00 1075.2 2.9792 270.00 0.0037037 977.00 1075.2 2.9792 2.6725 3.3450 437.78 0.0079152 33.912 0.079807 270.00 0.0037037 977.00 1075.2 2.9792 2.6725 3.3450 437.78 0.0079152 33.912 0.079807
293.38 3862.8 undefined 979.67 1078.3 2.9840 270.00 0.0037037 979.67 1078.3 2.9840 2.6757 3.3458 438.71 0.0078362 33.937 0.079968 270.00 0.0037037 979.67 1078.3 2.9840 2.6757 3.3458 438.71 0.0078362 33.937 0.079968
294.38 3879.5 undefined 982.35 1081.4 2.9887 270.00 0.0037037 982.35 1081.4 2.9887 2.6790 3.3466 439.63 0.0077581 33.963 0.080130 270.00 0.0037037 982.35 1081.4 2.9887 2.6790 3.3466 439.63 0.0077581 33.963 0.080130
295.38 3896.2 undefined 985.03 1084.5 2.9934 270.00 0.0037037 985.03 1084.5 2.9934 2.6823 3.3475 440.55 0.0076807 33.988 0.080291 270.00 0.0037037 985.03 1084.5 2.9934 2.6823 3.3475 440.55 0.0076807 33.988 0.080291
296.38 3912.9 undefined 987.71 1087.6 2.9981 270.00 0.0037037 987.71 1087.6 2.9981 2.6856 3.3484 441.47 0.0076040 34.013 0.080453 270.00 0.0037037 987.71 1087.6 2.9981 2.6856 3.3484 441.47 0.0076040 34.013 0.080453
297.38 3929.6 undefined 990.40 1090.7 3.0028 270.00 0.0037037 990.40 1090.7 3.0028 2.6889 3.3493 442.38 0.0075281 34.038 0.080616 270.00 0.0037037 990.40 1090.7 3.0028 2.6889 3.3493 442.38 0.0075281 34.038 0.080616
298.38 3946.3 undefined 993.09 1093.9 3.0075 270.00 0.0037037 993.09 1093.9 3.0075 2.6922 3.3502 443.29 0.0074529 34.063 0.080778 270.00 0.0037037 993.09 1093.9 3.0075 2.6922 3.3502 443.29 0.0074529 34.063 0.080778
299.38 3963.0 undefined 995.78 1097.0 3.0122 270.00 0.0037037 995.78 1097.0 3.0122 2.6954 3.3511 444.20 0.0073785 34.089 0.080941 270.00 0.0037037 995.78 1097.0 3.0122 2.6954 3.3511 444.20 0.0073785 34.089 0.080941
300.38 3979.7 undefined 998.48 1100.1 3.0170 270.00 0.0037037 998.48 1100.1 3.0170 2.6987 3.3521 445.11 0.0073048 34.114 0.081104 270.00 0.0037037 998.48 1100.1 3.0170 2.6987 3.3521 445.11 0.0073048 34.114 0.081104