Temperature (C) Pressure (psia) Quality (l+v) Internal Energy (l+v, kJ/kg) Enthalpy (l+v, kJ/kg) Entropy (l+v, J/g*K) Density (l, kg/m3) Volume (l, m3/kg) Internal Energy (l, kJ/kg) Enthalpy (l, kJ/kg) Entropy (l, J/g*K) Cv (l, J/g*K) Cp (l, J/g*K) Sound Spd. (l, m/s) Joule-Thomson (l, F/psia) Viscosity (l, uPa*s) Therm. Cond. (l, W/m*K) Density (v, kg/m3) Volume (v, m3/kg) Internal Energy (v, kJ/kg) Enthalpy (v, kJ/kg) Entropy (v, J/g*K) Cv (v, J/g*K) Cp (v, J/g*K) Sound Spd. (v, m/s) Joule-Thomson (v, F/psia) Viscosity (v, uPa*s) Therm. Cond. (v, W/m*K)
-187.62 2.4953e-08 1.5500e-11 -196.64 -196.64 -1.3959 733.13 0.0013640 -196.64 -196.64 -1.3959 1.3553 1.9158 2136.4 -0.0077592 10960. 0.20792 1.0669e-08 9.3732e+07 350.13 366.26 5.1858 0.69067 0.87923 143.28 6.1051 2.3259 0.0017061
-186.62 3.7339e-08 2.2896e-11 -194.73 -194.73 -1.3736 732.08 0.0013660 -194.73 -194.73 -1.3736 1.3539 1.9166 2129.6 -0.0077546 10073. 0.20765 1.5780e-08 6.3371e+07 350.82 367.14 5.1200 0.69462 0.88317 144.03 5.9178 2.3534 0.0017533
-185.62 5.5322e-08 3.3490e-11 -192.81 -192.81 -1.3516 731.04 0.0013679 -192.81 -192.81 -1.3516 1.3525 1.9174 2122.9 -0.0077498 9276.1 0.20737 2.3112e-08 4.3267e+07 351.52 368.02 5.0561 0.69857 0.88713 144.77 5.7383 2.3808 0.0018007
-184.62 8.1182e-08 4.8524e-11 -190.89 -190.89 -1.3298 730.00 0.0013699 -190.89 -190.89 -1.3298 1.3513 1.9182 2116.1 -0.0077448 8557.8 0.20708 3.3533e-08 2.9821e+07 352.22 368.91 4.9939 0.70253 0.89108 145.51 5.5662 2.4083 0.0018485
-183.62 1.1803e-07 6.9668e-11 -188.97 -188.97 -1.3083 728.96 0.0013718 -188.97 -188.97 -1.3083 1.3501 1.9191 2109.3 -0.0077395 7909.8 0.20678 4.8211e-08 2.0742e+07 352.92 369.81 4.9333 0.70648 0.89504 146.24 5.4011 2.4357 0.0018965
-182.62 1.7009e-07 9.9149e-11 -187.05 -187.05 -1.2869 727.92 0.0013738 -187.05 -187.05 -1.2869 1.3490 1.9201 2102.5 -0.0077340 7324.3 0.20647 6.8704e-08 1.4555e+07 353.63 370.70 4.8744 0.71043 0.89899 146.97 5.2426 2.4632 0.0019448
-181.62 2.4299e-07 1.3991e-10 -185.13 -185.13 -1.2658 726.88 0.0013757 -185.13 -185.13 -1.2658 1.3480 1.9210 2095.7 -0.0077283 6794.5 0.20616 9.7079e-08 1.0301e+07 354.35 371.60 4.8170 0.71438 0.90294 147.69 5.0904 2.4906 0.0019934
-180.62 3.4425e-07 1.9580e-10 -183.21 -183.21 -1.2450 725.85 0.0013777 -183.21 -183.21 -1.2450 1.3470 1.9220 2088.9 -0.0077225 6314.4 0.20584 1.3605e-07 7.3504e+06 355.06 372.51 4.7612 0.71833 0.90688 148.41 4.9442 2.5181 0.0020423
-179.62 4.8378e-07 2.7185e-10 -181.29 -181.29 -1.2243 724.81 0.0013797 -181.29 -181.29 -1.2243 1.3461 1.9231 2082.0 -0.0077164 5878.8 0.20551 1.8915e-07 5.2868e+06 355.78 373.42 4.7068 0.72227 0.91082 149.13 4.8038 2.5456 0.0020915
-178.62 6.7459e-07 3.7455e-10 -179.37 -179.37 -1.2038 723.78 0.0013816 -179.37 -179.37 -1.2038 1.3453 1.9241 2075.2 -0.0077102 5482.9 0.20517 2.6096e-07 3.8320e+06 356.51 374.33 4.6538 0.72620 0.91475 149.84 4.6688 2.5731 0.0021410
-177.62 9.3358e-07 5.1221e-10 -177.44 -177.44 -1.1836 722.75 0.0013836 -177.44 -177.44 -1.1836 1.3445 1.9252 2068.4 -0.0077039 5122.6 0.20483 3.5737e-07 2.7982e+06 357.23 375.25 4.6022 0.73012 0.91867 150.54 4.5390 2.6005 0.0021907
-176.62 1.2826e-06 6.9545e-10 -175.52 -175.52 -1.1635 721.72 0.0013856 -175.52 -175.52 -1.1635 1.3437 1.9263 2061.5 -0.0076973 4794.1 0.20447 4.8588e-07 2.0581e+06 357.97 376.17 4.5519 0.73403 0.92258 151.25 4.4142 2.6280 0.0022408
-175.62 1.7496e-06 9.3767e-10 -173.59 -173.59 -1.1437 720.69 0.0013876 -173.59 -173.59 -1.1437 1.3430 1.9274 2054.7 -0.0076907 4494.3 0.20411 6.5601e-07 1.5244e+06 358.70 377.09 4.5029 0.73792 0.92648 151.95 4.2941 2.6555 0.0022912
-174.62 2.3705e-06 1.2557e-09 -171.66 -171.66 -1.1240 719.66 0.0013895 -171.66 -171.66 -1.1240 1.3423 1.9286 2047.9 -0.0076838 4220.2 0.20375 8.7976e-07 1.1367e+06 359.44 378.02 4.4551 0.74181 0.93036 152.64 4.1784 2.6830 0.0023418
-173.62 3.1903e-06 1.6707e-09 -169.73 -169.73 -1.1045 718.64 0.0013915 -169.73 -169.73 -1.1045 1.3417 1.9298 2041.0 -0.0076769 3969.3 0.20338 1.1721e-06 8.5314e+05 360.19 378.95 4.4085 0.74568 0.93423 153.33 4.0671 2.7105 0.0023928
-172.62 4.2661e-06 2.2088e-09 -167.80 -167.80 -1.0852 717.61 0.0013935 -167.80 -167.80 -1.0852 1.3411 1.9310 2034.2 -0.0076698 3739.3 0.20300 1.5518e-06 6.4441e+05 360.93 379.89 4.3631 0.74953 0.93809 154.02 3.9599 2.7379 0.0024440
-171.62 5.6692e-06 2.9023e-09 -165.87 -165.87 -1.0661 716.58 0.0013955 -165.87 -165.87 -1.0661 1.3405 1.9322 2027.3 -0.0076625 3528.0 0.20261 2.0419e-06 4.8974e+05 361.69 380.83 4.3188 0.75337 0.94193 154.71 3.8566 2.7654 0.0024955
-170.62 7.4884e-06 3.7909e-09 -163.94 -163.94 -1.0472 715.56 0.0013975 -163.94 -163.94 -1.0472 1.3400 1.9334 2020.5 -0.0076552 3333.8 0.20222 2.6708e-06 3.7442e+05 362.44 381.77 4.2755 0.75720 0.94575 155.39 3.7570 2.7929 0.0025473
-169.62 9.8334e-06 4.9230e-09 -162.00 -162.00 -1.0284 714.54 0.0013995 -162.00 -162.00 -1.0284 1.3395 1.9347 2013.6 -0.0076477 3154.9 0.20182 3.4733e-06 2.8791e+05 363.20 382.72 4.2334 0.76100 0.94956 156.07 3.6609 2.8204 0.0025994
-168.62 1.2839e-05 6.3575e-09 -160.07 -160.07 -1.0098 713.52 0.0014015 -160.07 -160.07 -1.0098 1.3390 1.9359 2006.8 -0.0076401 2989.9 0.20141 4.4917e-06 2.2263e+05 363.96 383.67 4.1922 0.76479 0.95335 156.74 3.5683 2.8479 0.0026518
-167.62 1.6672e-05 8.1653e-09 -158.13 -158.13 -0.99134 712.49 0.0014035 -158.13 -158.13 -0.99134 1.3386 1.9372 2000.0 -0.0076323 2837.5 0.20100 5.7771e-06 1.7310e+05 364.73 384.63 4.1521 0.76856 0.95712 157.41 3.4790 2.8754 0.0027045
-166.62 2.1533e-05 1.0432e-08 -156.19 -156.19 -0.97306 711.47 0.0014055 -156.19 -156.19 -0.97306 1.3382 1.9385 1993.1 -0.0076245 2696.5 0.20058 7.3914e-06 1.3529e+05 365.50 385.59 4.1129 0.77232 0.96087 158.08 3.3927 2.9029 0.0027575
-165.62 2.7666e-05 1.3260e-08 -154.25 -154.25 -0.95494 710.45 0.0014075 -154.25 -154.25 -0.95494 1.3378 1.9398 1986.3 -0.0076165 2566.0 0.20016 9.4084e-06 1.0629e+05 366.27 386.55 4.0746 0.77605 0.96460 158.75 3.3095 2.9304 0.0028108
-164.62 3.5367e-05 1.6770e-08 -152.31 -152.31 -0.93698 709.44 0.0014096 -152.31 -152.31 -0.93698 1.3375 1.9411 1979.4 -0.0076084 2444.9 0.19973 1.1916e-05 83918. 367.05 387.52 4.0372 0.77976 0.96832 159.41 3.2291 2.9579 0.0028643
-163.62 4.4989e-05 2.1108e-08 -150.37 -150.37 -0.91917 708.42 0.0014116 -150.37 -150.37 -0.91917 1.3371 1.9424 1972.6 -0.0076002 2332.3 0.19930 1.5020e-05 66577. 367.83 388.49 4.0008 0.78346 0.97201 160.07 3.1514 2.9854 0.0029182
-162.62 5.6956e-05 2.6443e-08 -148.43 -148.43 -0.90151 707.40 0.0014136 -148.43 -148.43 -0.90151 1.3368 1.9437 1965.8 -0.0075919 2227.7 0.19886 1.8844e-05 53068. 368.62 389.46 3.9651 0.78713 0.97569 160.72 3.0764 3.0129 0.0029723
-161.62 7.1773e-05 3.2975e-08 -146.48 -146.48 -0.88400 706.38 0.0014157 -146.48 -146.48 -0.88400 1.3365 1.9451 1959.0 -0.0075834 2130.2 0.19841 2.3533e-05 42494. 369.41 390.44 3.9304 0.79079 0.97935 161.38 3.0038 3.0404 0.0030268
-160.62 9.0036e-05 4.0938e-08 -144.54 -144.54 -0.86663 705.37 0.0014177 -144.54 -144.54 -0.86663 1.3363 1.9465 1952.1 -0.0075748 2039.2 0.19796 2.9258e-05 34178. 370.20 391.42 3.8964 0.79443 0.98298 162.03 2.9337 3.0679 0.0030815
-159.62 0.00011245 5.0606e-08 -142.59 -142.59 -0.84940 704.35 0.0014197 -142.59 -142.59 -0.84940 1.3360 1.9478 1945.3 -0.0075661 1954.2 0.19751 3.6221e-05 27609. 371.00 392.40 3.8632 0.79805 0.98660 162.68 2.8658 3.0955 0.0031365
-158.62 0.00013985 6.2295e-08 -140.64 -140.64 -0.83231 703.34 0.0014218 -140.64 -140.64 -0.83231 1.3358 1.9492 1938.5 -0.0075573 1874.8 0.19705 4.4652e-05 22395. 371.80 393.39 3.8307 0.80164 0.99020 163.32 2.8002 3.1230 0.0031918
-157.62 0.00017320 7.6370e-08 -138.69 -138.69 -0.81536 702.32 0.0014238 -138.69 -138.69 -0.81536 1.3356 1.9506 1931.7 -0.0075484 1800.3 0.19658 5.4822e-05 18241. 372.60 394.38 3.7990 0.80522 0.99378 163.96 2.7367 3.1505 0.0032474
-156.62 0.00021364 9.3253e-08 -136.74 -136.74 -0.79854 701.31 0.0014259 -136.74 -136.74 -0.79854 1.3354 1.9520 1924.9 -0.0075393 1730.5 0.19611 6.7040e-05 14916. 373.41 395.38 3.7680 0.80878 0.99734 164.60 2.6752 3.1780 0.0033033
-155.62 0.00026248 1.1343e-07 -134.79 -134.79 -0.78185 700.30 0.0014280 -134.79 -134.79 -0.78185 1.3352 1.9534 1918.1 -0.0075302 1664.9 0.19564 8.1666e-05 12245. 374.22 396.38 3.7377 0.81232 1.0009 165.24 2.6157 3.2055 0.0033595
-154.62 0.00032125 1.3745e-07 -132.83 -132.83 -0.76530 699.29 0.0014300 -132.83 -132.83 -0.76530 1.3350 1.9548 1911.3 -0.0075209 1603.3 0.19516 9.9109e-05 10090. 375.03 397.38 3.7081 0.81585 1.0044 165.87 2.5580 3.2330 0.0034160
-153.62 0.00039171 1.6595e-07 -130.88 -130.88 -0.74887 698.27 0.0014321 -130.88 -130.88 -0.74887 1.3349 1.9563 1904.5 -0.0075114 1545.3 0.19468 0.00011984 8344.6 375.85 398.39 3.6792 0.81935 1.0079 166.50 2.5022 3.2606 0.0034727
-152.62 0.00047590 1.9964e-07 -128.92 -128.92 -0.73256 697.26 0.0014342 -128.92 -128.92 -0.73256 1.3348 1.9577 1897.8 -0.0075019 1490.6 0.19419 0.00014439 6925.9 376.67 399.40 3.6509 0.82284 1.0114 167.13 2.4481 3.2881 0.0035298
-151.62 0.00057613 2.3934e-07 -126.96 -126.96 -0.71638 696.25 0.0014363 -126.96 -126.96 -0.71638 1.3346 1.9592 1891.0 -0.0074922 1438.9 0.19370 0.00017336 5768.4 377.49 400.41 3.6232 0.82631 1.0149 167.76 2.3957 3.3156 0.0035872
-150.62 0.00069507 2.8596e-07 -125.00 -125.00 -0.70032 695.24 0.0014384 -125.00 -125.00 -0.70032 1.3345 1.9606 1884.2 -0.0074824 1390.2 0.19320 0.00020744 4820.7 378.32 401.42 3.5962 0.82976 1.0183 168.38 2.3448 3.3431 0.0036448
-149.62 0.00083574 3.4054e-07 -123.04 -123.04 -0.68437 694.23 0.0014404 -123.04 -123.04 -0.68438 1.3345 1.9621 1877.4 -0.0074724 1344.0 0.19270 0.00024740 4042.0 379.15 402.44 3.5697 0.83319 1.0218 169.00 2.2956 3.3706 0.0037027
-148.62 0.0010016 4.0422e-07 -121.08 -121.08 -0.66855 693.22 0.0014425 -121.08 -121.08 -0.66855 1.3344 1.9636 1870.7 -0.0074623 1300.3 0.19220 0.00029412 3400.0 379.99 403.47 3.5438 0.83661 1.0252 169.62 2.2478 3.3982 0.0037610
-147.62 0.0011965 4.7831e-07 -119.11 -119.11 -0.65284 692.21 0.0014447 -119.11 -119.11 -0.65284 1.3343 1.9651 1863.9 -0.0074521 1258.9 0.19169 0.00034856 2869.0 380.83 404.49 3.5185 0.84001 1.0286 170.24 2.2014 3.4257 0.0038195
-146.62 0.0014249 5.6424e-07 -117.15 -117.15 -0.63724 691.20 0.0014468 -117.15 -117.15 -0.63724 1.3343 1.9666 1857.2 -0.0074417 1219.6 0.19117 0.00041181 2428.3 381.67 405.52 3.4938 0.84340 1.0320 170.85 2.1565 3.4532 0.0038783
-145.62 0.0016917 6.6362e-07 -115.18 -115.18 -0.62175 690.19 0.0014489 -115.18 -115.18 -0.62175 1.3343 1.9682 1850.4 -0.0074312 1182.3 0.19066 0.00048510 2061.4 382.51 406.56 3.4695 0.84677 1.0353 171.46 2.1128 3.4807 0.0039374
-144.62 0.0020026 7.7824e-07 -113.21 -113.21 -0.60637 689.18 0.0014510 -113.21 -113.21 -0.60637 1.3343 1.9697 1843.7 -0.0074206 1146.8 0.19014 0.00056976 1755.1 383.36 407.59 3.4458 0.85012 1.0387 172.07 2.0705 3.5082 0.0039967
-143.62 0.0023637 9.1005e-07 -111.24 -111.24 -0.59109 688.17 0.0014531 -111.24 -111.24 -0.59110 1.3343 1.9713 1836.9 -0.0074098 1113.0 0.18962 0.00066731 1498.6 384.21 408.63 3.4226 0.85346 1.0420 172.68 2.0294 3.5358 0.0040564
-142.62 0.0027820 1.0612e-06 -109.27 -109.27 -0.57593 687.16 0.0014553 -109.27 -109.27 -0.57593 1.3343 1.9728 1830.2 -0.0073988 1080.8 0.18909 0.00077939 1283.1 385.07 409.68 3.3999 0.85679 1.0454 173.28 1.9896 3.5633 0.0041164
-141.62 0.0032653 1.2342e-06 -107.30 -107.30 -0.56086 686.15 0.0014574 -107.30 -107.30 -0.56087 1.3343 1.9744 1823.5 -0.0073878 1050.1 0.18856 0.00090784 1101.5 385.93 410.72 3.3777 0.86011 1.0487 173.88 1.9508 3.5908 0.0041766
-140.62 0.0038222 1.4316e-06 -105.32 -105.32 -0.54590 685.14 0.0014596 -105.32 -105.32 -0.54591 1.3344 1.9760 1816.7 -0.0073765 1020.7 0.18803 0.0010547 948.16 386.79 411.77 3.3560 0.86341 1.0520 174.48 1.9133 3.6183 0.0042372
-139.62 0.0044623 1.6562e-06 -103.34 -103.34 -0.53104 684.13 0.0014617 -103.34 -103.34 -0.53105 1.3344 1.9776 1810.0 -0.0073651 992.74 0.18749 0.0012221 818.26 387.65 412.83 3.3347 0.86670 1.0553 175.08 1.8768 3.6459 0.0042980
-138.62 0.0051963 1.9112e-06 -101.37 -101.37 -0.51628 683.12 0.0014639 -101.37 -101.37 -0.51629 1.3345 1.9792 1803.3 -0.0073536 965.97 0.18695 0.0014125 707.94 388.52 413.88 3.3139 0.86998 1.0586 175.67 1.8413 3.6734 0.0043592
-137.62 0.0060358 2.2001e-06 -99.385 -99.385 -0.50161 682.11 0.0014660 -99.386 -99.386 -0.50162 1.3346 1.9808 1796.6 -0.0073419 940.35 0.18641 0.0016287 614.00 389.39 414.94 3.2935 0.87325 1.0619 176.26 1.8069 3.7009 0.0044206
-136.62 0.0069938 2.5266e-06 -97.403 -97.403 -0.48704 681.10 0.0014682 -97.404 -97.404 -0.48705 1.3347 1.9825 1789.9 -0.0073301 915.81 0.18586 0.0018733 533.80 390.26 416.00 3.2735 0.87650 1.0651 176.85 1.7734 3.7284 0.0044823
-135.62 0.0080843 2.8946e-06 -95.420 -95.420 -0.47257 680.09 0.0014704 -95.421 -95.421 -0.47258 1.3348 1.9841 1783.2 -0.0073180 892.30 0.18531 0.0021497 465.17 391.14 417.07 3.2540 0.87975 1.0684 177.44 1.7409 3.7559 0.0045443
-134.62 0.0093230 3.3087e-06 -93.435 -93.434 -0.45819 679.08 0.0014726 -93.436 -93.436 -0.45820 1.3350 1.9858 1776.5 -0.0073059 869.75 0.18476 0.0024613 406.30 392.02 418.14 3.2348 0.88299 1.0716 178.02 1.7093 3.7834 0.0046066
-133.62 0.010727 3.7736e-06 -91.448 -91.447 -0.44389 678.07 0.0014748 -91.450 -91.449 -0.44391 1.3351 1.9875 1769.8 -0.0072935 848.11 0.18421 0.0028116 355.67 392.91 419.21 3.2161 0.88622 1.0749 178.61 1.6786 3.8109 0.0046691
-132.62 0.012315 4.2943e-06 -89.459 -89.459 -0.42969 677.06 0.0014770 -89.461 -89.461 -0.42971 1.3353 1.9892 1763.1 -0.0072810 827.32 0.18365 0.0032049 312.03 393.79 420.29 3.1977 0.88944 1.0781 179.19 1.6488 3.8385 0.0047320
-131.62 0.014106 4.8763e-06 -87.469 -87.469 -0.41558 676.04 0.0014792 -87.471 -87.471 -0.41560 1.3354 1.9909 1756.4 -0.0072684 807.34 0.18309 0.0036453 274.33 394.68 421.36 3.1798 0.89266 1.0813 179.76 1.6197 3.8660 0.0047951
-130.62 0.016124 5.5257e-06 -85.477 -85.476 -0.40155 675.03 0.0014814 -85.479 -85.479 -0.40157 1.3356 1.9926 1749.7 -0.0072555 788.12 0.18253 0.0041375 241.69 395.58 422.44 3.1622 0.89586 1.0846 180.34 1.5915 3.8935 0.0048586
-129.62 0.018392 6.2486e-06 -83.483 -83.483 -0.38761 674.02 0.0014836 -83.486 -83.486 -0.38763 1.3358 1.9944 1743.0 -0.0072425 769.63 0.18196 0.0046867 213.37 396.47 423.53 3.1450 0.89906 1.0878 180.91 1.5641 3.9210 0.0049223
-128.62 0.020935 7.0520e-06 -81.487 -81.487 -0.37376 673.01 0.0014859 -81.491 -81.490 -0.37378 1.3360 1.9961 1736.3 -0.0072294 751.83 0.18140 0.0052981 188.75 397.37 424.62 3.1281 0.90226 1.0910 181.48 1.5374 3.9485 0.0049863
-127.62 0.023783 7.9431e-06 -79.490 -79.489 -0.35998 672.00 0.0014881 -79.494 -79.493 -0.36001 1.3363 1.9979 1729.6 -0.0072160 734.67 0.18083 0.0059776 167.29 398.27 425.71 3.1116 0.90545 1.0942 182.05 1.5114 3.9760 0.0050506
-126.62 0.026966 8.9295e-06 -77.491 -77.490 -0.34629 670.98 0.0014904 -77.495 -77.495 -0.34632 1.3365 1.9997 1722.9 -0.0072025 718.14 0.18025 0.0067313 148.56 399.18 426.80 3.0954 0.90863 1.0974 182.62 1.4861 4.0035 0.0051152
-125.62 0.030515 1.0020e-05 -75.490 -75.489 -0.33268 669.97 0.0014926 -75.494 -75.494 -0.33272 1.3368 2.0015 1716.2 -0.0071888 702.18 0.17968 0.0075660 132.17 400.09 427.89 3.0795 0.91181 1.1006 183.18 1.4615 4.0310 0.0051800
-124.62 0.034467 1.1222e-05 -73.487 -73.486 -0.31915 668.95 0.0014949 -73.492 -73.492 -0.31919 1.3371 2.0033 1709.5 -0.0071749 686.79 0.17910 0.0084885 117.81 401.00 428.99 3.0640 0.91499 1.1038 183.74 1.4375 4.0584 0.0052452
-123.62 0.038859 1.2546e-05 -71.482 -71.481 -0.30570 667.94 0.0014971 -71.488 -71.487 -0.30574 1.3374 2.0051 1702.8 -0.0071609 671.93 0.17852 0.0095065 105.19 401.91 430.10 3.0488 0.91816 1.1070 184.30 1.4141 4.0859 0.0053106
-122.62 0.043731 1.4002e-05 -69.475 -69.474 -0.29232 666.92 0.0014994 -69.482 -69.481 -0.29237 1.3377 2.0070 1696.2 -0.0071466 657.57 0.17794 0.010628 94.092 402.83 431.20 3.0339 0.92134 1.1102 184.86 1.3913 4.1134 0.0053764
-121.62 0.049128 1.5600e-05 -67.466 -67.465 -0.27902 665.91 0.0015017 -67.474 -67.473 -0.27907 1.3380 2.0089 1689.5 -0.0071322 643.70 0.17736 0.011861 84.309 403.75 432.31 3.0193 0.92451 1.1134 185.41 1.3691 4.1409 0.0054424
-120.62 0.055096 1.7351e-05 -65.456 -65.455 -0.26580 664.89 0.0015040 -65.464 -65.463 -0.26585 1.3384 2.0107 1682.8 -0.0071176 630.28 0.17678 0.013215 75.669 404.67 433.42 3.0050 0.92767 1.1166 185.96 1.3475 4.1683 0.0055087
-119.62 0.061684 1.9266e-05 -63.443 -63.442 -0.25264 663.87 0.0015063 -63.452 -63.452 -0.25271 1.3387 2.0126 1676.1 -0.0071028 617.30 0.17619 0.014700 68.027 405.60 434.53 2.9909 0.93084 1.1198 186.51 1.3264 4.1958 0.0055752
-118.62 0.068946 2.1358e-05 -61.429 -61.427 -0.23956 662.86 0.0015086 -61.439 -61.438 -0.23963 1.3391 2.0146 1669.4 -0.0070878 604.74 0.17560 0.016325 61.255 406.53 435.64 2.9772 0.93401 1.1231 187.06 1.3058 4.2233 0.0056421
-117.62 0.076937 2.3640e-05 -59.412 -59.411 -0.22656 661.84 0.0015109 -59.423 -59.422 -0.22663 1.3395 2.0165 1662.8 -0.0070726 592.58 0.17501 0.018101 55.245 407.46 436.76 2.9638 0.93718 1.1263 187.60 1.2857 4.2507 0.0057092
-116.62 0.085718 2.6125e-05 -57.394 -57.392 -0.21362 660.82 0.0015133 -57.406 -57.405 -0.21370 1.3400 2.0184 1656.1 -0.0070573 580.80 0.17442 0.020040 49.901 408.39 437.88 2.9506 0.94035 1.1295 188.14 1.2660 4.2782 0.0057767
-115.62 0.095353 2.8827e-05 -55.373 -55.371 -0.20075 659.80 0.0015156 -55.386 -55.385 -0.20084 1.3404 2.0204 1649.4 -0.0070417 569.38 0.17383 0.022152 45.142 409.33 439.01 2.9377 0.94352 1.1327 188.68 1.2468 4.3056 0.0058444
-114.62 0.10591 3.1762e-05 -53.350 -53.348 -0.18795 658.78 0.0015180 -53.365 -53.364 -0.18805 1.3409 2.0224 1642.7 -0.0070260 558.32 0.17323 0.024451 40.898 410.27 440.13 2.9250 0.94669 1.1360 189.22 1.2281 4.3330 0.0059123
-113.62 0.11746 3.4944e-05 -51.325 -51.323 -0.17522 657.76 0.0015203 -51.342 -51.340 -0.17533 1.3413 2.0244 1636.0 -0.0070100 547.59 0.17264 0.026949 37.107 411.21 441.26 2.9126 0.94987 1.1392 189.75 1.2097 4.3604 0.0059806
-112.62 0.13008 3.8389e-05 -49.298 -49.296 -0.16255 656.73 0.0015227 -49.316 -49.315 -0.16267 1.3418 2.0264 1629.3 -0.0069938 537.18 0.17204 0.029661 33.715 412.16 442.39 2.9005 0.95305 1.1424 190.28 1.1918 4.3879 0.0060491
-111.62 0.14384 4.2115e-05 -47.269 -47.267 -0.14995 655.71 0.0015251 -47.289 -47.287 -0.15008 1.3424 2.0285 1622.7 -0.0069774 527.08 0.17144 0.032600 30.675 413.10 443.53 2.8885 0.95623 1.1457 190.81 1.1742 4.4153 0.0061180
-110.62 0.15884 4.6140e-05 -45.238 -45.235 -0.13741 654.69 0.0015274 -45.259 -45.258 -0.13755 1.3429 2.0305 1616.0 -0.0069609 517.28 0.17084 0.035781 27.948 414.06 444.66 2.8769 0.95942 1.1490 191.34 1.1570 4.4427 0.0061871
-109.62 0.17516 5.0481e-05 -43.205 -43.201 -0.12494 653.66 0.0015298 -43.228 -43.226 -0.12509 1.3435 2.0326 1609.3 -0.0069441 507.76 0.17024 0.039220 25.497 415.01 445.80 2.8654 0.96261 1.1522 191.86 1.1402 4.4701 0.0062564
-108.62 0.19290 5.5157e-05 -41.169 -41.165 -0.11253 652.64 0.0015322 -41.194 -41.192 -0.11269 1.3441 2.0347 1602.6 -0.0069271 498.51 0.16964 0.042933 23.292 415.96 446.94 2.8542 0.96581 1.1555 192.38 1.1236 4.4974 0.0063261
-107.62 0.21215 6.0189e-05 -39.131 -39.127 -0.10018 651.61 0.0015347 -39.158 -39.156 -0.10036 1.3447 2.0369 1595.9 -0.0069098 489.52 0.16903 0.046937 21.305 416.92 448.09 2.8433 0.96901 1.1588 192.90 1.1075 4.5248 0.0063960
-106.62 0.23301 6.5596e-05 -37.091 -37.086 -0.087891 650.58 0.0015371 -37.120 -37.118 -0.088082 1.3453 2.0390 1589.2 -0.0068924 480.79 0.16843 0.051250 19.512 417.88 449.23 2.8325 0.97222 1.1621 193.41 1.0916 4.5522 0.0064662
-105.62 0.25561 7.1400e-05 -35.048 -35.043 -0.075662 649.55 0.0015395 -35.080 -35.078 -0.075868 1.3460 2.0412 1582.6 -0.0068747 472.30 0.16782 0.055891 17.892 418.85 450.38 2.8220 0.97544 1.1655 193.93 1.0760 4.5795 0.0065367
-104.62 0.28004 7.7622e-05 -33.003 -32.998 -0.063491 648.52 0.0015420 -33.038 -33.035 -0.063714 1.3467 2.0434 1575.9 -0.0068569 464.04 0.16721 0.060878 16.426 419.81 451.53 2.8116 0.97867 1.1688 194.44 1.0608 4.6069 0.0066074
-103.62 0.30643 8.4286e-05 -30.956 -30.950 -0.051378 647.49 0.0015444 -30.994 -30.991 -0.051619 1.3474 2.0456 1569.2 -0.0068387 456.00 0.16660 0.066231 15.099 420.78 452.68 2.8015 0.98191 1.1722 194.94 1.0458 4.6342 0.0066785
-102.62 0.33490 9.1415e-05 -28.906 -28.900 -0.039323 646.46 0.0015469 -28.947 -28.944 -0.039582 1.3481 2.0478 1562.5 -0.0068204 448.18 0.16600 0.071971 13.894 421.75 453.84 2.7916 0.98516 1.1755 195.44 1.0310 4.6615 0.0067498
-101.62 0.36558 9.9032e-05 -26.854 -26.847 -0.027323 645.43 0.0015494 -26.898 -26.894 -0.027602 1.3489 2.0501 1555.8 -0.0068018 440.57 0.16539 0.078120 12.801 422.73 454.99 2.7818 0.98841 1.1789 195.95 1.0166 4.6888 0.0068213
-100.62 0.39862 0.00010716 -24.799 -24.791 -0.015379 644.39 0.0015519 -24.847 -24.843 -0.015678 1.3497 2.0524 1549.1 -0.0067830 433.16 0.16478 0.084699 11.807 423.70 456.15 2.7723 0.99168 1.1823 196.44 1.0024 4.7161 0.0068932
-99.625 0.43414 0.00011583 -22.742 -22.734 -0.0034898 643.36 0.0015544 -22.794 -22.789 -0.0038103 1.3505 2.0547 1542.4 -0.0067639 425.95 0.16416 0.091731 10.901 424.68 457.31 2.7630 0.99496 1.1858 196.94 0.98838 4.7434 0.0069653
-98.625 0.47230 0.00012507 -20.682 -20.673 0.0083461 642.32 0.0015569 -20.738 -20.733 0.0080027 1.3514 2.0570 1535.7 -0.0067447 418.92 0.16355 0.099240 10.077 425.66 458.48 2.7538 0.99825 1.1892 197.43 0.97464 4.7707 0.0070377
-97.625 0.51325 0.00013489 -18.620 -18.610 0.020129 641.28 0.0015594 -18.680 -18.674 0.019762 1.3522 2.0594 1529.0 -0.0067251 412.07 0.16294 0.10725 9.3239 426.65 459.64 2.7448 1.0016 1.1927 197.92 0.96112 4.7979 0.0071103
-96.625 0.55714 0.00014534 -16.555 -16.544 0.031860 640.24 0.0015619 -16.620 -16.614 0.031467 1.3531 2.0618 1522.3 -0.0067053 405.39 0.16233 0.11579 8.6365 427.63 460.81 2.7360 1.0049 1.1962 198.40 0.94783 4.8251 0.0071832
-95.625 0.60416 0.00015643 -14.487 -14.476 0.043540 639.20 0.0015645 -14.557 -14.550 0.043120 1.3540 2.0642 1515.7 -0.0066853 398.88 0.16171 0.12488 8.0078 428.62 461.98 2.7274 1.0082 1.1997 198.88 0.93475 4.8524 0.0072564
-94.625 0.65446 0.00016820 -12.417 -12.404 0.055169 638.16 0.0015670 -12.491 -12.484 0.054721 1.3550 2.0667 1509.0 -0.0066650 392.53 0.16110 0.13455 7.4323 429.61 463.15 2.7189 1.0116 1.2032 199.36 0.92188 4.8796 0.0073299
-93.625 0.70822 0.00018068 -10.344 -10.330 0.066749 637.12 0.0015696 -10.424 -10.416 0.066271 1.3560 2.0691 1502.3 -0.0066444 386.34 0.16048 0.14482 6.9050 430.60 464.32 2.7107 1.0149 1.2068 199.83 0.90921 4.9068 0.0074036
-92.625 0.76564 0.00019390 -8.2682 -8.2533 0.078279 636.07 0.0015722 -8.3535 -8.3452 0.077771 1.3570 2.0716 1495.6 -0.0066236 380.31 0.15987 0.15573 6.4212 431.60 465.49 2.7025 1.0183 1.2104 200.30 0.89673 4.9340 0.0074776
-91.625 0.82689 0.00020788 -6.1896 -6.1735 0.089762 635.02 0.0015747 -6.2808 -6.2719 0.089220 1.3580 2.0742 1488.9 -0.0066025 374.41 0.15925 0.16731 5.9769 432.59 466.67 2.6946 1.0217 1.2140 200.77 0.88445 4.9611 0.0075518
-90.625 0.89218 0.00022266 -4.1082 -4.0908 0.10120 633.98 0.0015773 -4.2056 -4.1959 0.10062 1.3591 2.0767 1482.2 -0.0065811 368.66 0.15864 0.17958 5.5685 433.59 467.84 2.6868 1.0251 1.2177 201.24 0.87236 4.9883 0.0076263
-89.625 0.96172 0.00023828 -2.0238 -2.0051 0.11259 632.93 0.0015800 -2.1279 -2.1174 0.11197 1.3602 2.0793 1475.5 -0.0065595 363.05 0.15802 0.19258 5.1928 434.59 469.02 2.6791 1.0285 1.2213 201.70 0.86045 5.0154 0.0077011
-88.625 1.0357 0.00025476 0.063467 0.083582 0.12393 631.88 0.0015826 -0.047516 -0.036215 0.12328 1.3613 2.0819 1468.8 -0.0065375 357.56 0.15740 0.20633 4.8466 435.59 470.20 2.6717 1.0320 1.2250 202.15 0.84873 5.0425 0.0077761
-87.625 1.1144 0.00027214 2.1537 2.1754 0.13522 630.83 0.0015852 2.0355 2.0476 0.13454 1.3625 2.0846 1462.1 -0.0065153 352.21 0.15679 0.22087 4.5276 436.60 471.39 2.6643 1.0354 1.2288 202.61 0.83718 5.0696 0.0078514
-86.625 1.1979 0.00029044 4.2470 4.2702 0.14648 629.77 0.0015879 4.1211 4.1342 0.14575 1.3637 2.0873 1455.4 -0.0064928 346.98 0.15617 0.23623 4.2331 437.61 472.57 2.6571 1.0389 1.2325 203.06 0.82580 5.0967 0.0079270
-85.625 1.2866 0.00030972 6.3433 6.3683 0.15769 628.72 0.0015905 6.2094 6.2235 0.15691 1.3649 2.0900 1448.8 -0.0064701 341.87 0.15555 0.25245 3.9612 438.61 473.75 2.6501 1.0424 1.2363 203.50 0.81460 5.1237 0.0080028
-84.625 1.3806 0.00033000 8.4427 8.4695 0.16885 627.66 0.0015932 8.3004 8.3155 0.16803 1.3661 2.0927 1442.1 -0.0064470 336.87 0.15494 0.26956 3.7097 439.63 474.94 2.6432 1.0460 1.2402 203.95 0.80356 5.1508 0.0080789
-83.625 1.4803 0.00035132 10.545 10.574 0.17997 626.60 0.0015959 10.394 10.410 0.17911 1.3674 2.0955 1435.4 -0.0064236 331.99 0.15432 0.28760 3.4771 440.64 476.13 2.6364 1.0495 1.2440 204.38 0.79269 5.1778 0.0081553
-82.625 1.5858 0.00037371 12.651 12.682 0.19106 625.54 0.0015986 12.491 12.508 0.19014 1.3687 2.0983 1428.7 -0.0063999 327.22 0.15370 0.30659 3.2616 441.65 477.31 2.6298 1.0531 1.2479 204.82 0.78199 5.2048 0.0082319
-81.625 1.6975 0.00039721 14.760 14.793 0.20210 624.48 0.0016013 14.590 14.609 0.20113 1.3700 2.1012 1422.0 -0.0063759 322.55 0.15309 0.32659 3.0619 442.67 478.50 2.6233 1.0567 1.2519 205.25 0.77144 5.2318 0.0083088
-80.625 1.8155 0.00042185 16.872 16.907 0.21310 623.42 0.0016041 16.692 16.712 0.21208 1.3714 2.1041 1415.4 -0.0063516 317.99 0.15247 0.34763 2.8766 443.69 479.70 2.6169 1.0603 1.2558 205.67 0.76106 5.2587 0.0083860
-79.625 1.9402 0.00044769 18.988 19.025 0.22406 622.36 0.0016068 18.797 18.819 0.22299 1.3728 2.1070 1408.7 -0.0063270 313.52 0.15186 0.36974 2.7046 444.71 480.89 2.6106 1.0639 1.2598 206.10 0.75083 5.2857 0.0084634
-78.625 2.0718 0.00047474 21.107 21.147 0.23498 621.29 0.0016096 20.905 20.928 0.23385 1.3742 2.1099 1402.0 -0.0063021 309.15 0.15124 0.39296 2.5448 445.73 482.08 2.6045 1.0676 1.2639 206.51 0.74076 5.3126 0.0085411
-77.625 2.2107 0.00050306 23.229 23.272 0.24586 620.22 0.0016123 23.016 23.040 0.24468 1.3757 2.1129 1395.3 -0.0062768 304.88 0.15062 0.41735 2.3961 446.75 483.27 2.5985 1.0712 1.2680 206.93 0.73084 5.3395 0.0086190
-76.625 2.3571 0.00053268 25.355 25.401 0.25670 619.15 0.0016151 25.130 25.156 0.25546 1.3772 2.1159 1388.7 -0.0062512 300.69 0.15001 0.44292 2.2577 447.78 484.47 2.5926 1.0749 1.2721 207.34 0.72107 5.3664 0.0086972
-75.625 2.5113 0.00056364 27.484 27.533 0.26751 618.08 0.0016179 27.247 27.275 0.26620 1.3787 2.1190 1382.0 -0.0062253 296.59 0.14939 0.46974 2.1288 448.81 485.67 2.5869 1.0787 1.2762 207.74 0.71146 5.3933 0.0087757
-74.625 2.6736 0.00059598 29.617 29.669 0.27828 617.01 0.0016207 29.366 29.396 0.27691 1.3802 2.1221 1375.4 -0.0061990 292.58 0.14878 0.49783 2.0087 449.83 486.86 2.5812 1.0824 1.2804 208.14 0.70200 5.4201 0.0088544
-73.625 2.8444 0.00062974 31.753 31.809 0.28902 615.93 0.0016236 31.489 31.521 0.28758 1.3818 2.1252 1368.7 -0.0061724 288.65 0.14816 0.52725 1.8966 450.86 488.06 2.5757 1.0862 1.2847 208.54 0.69268 5.4469 0.0089334
-72.625 3.0240 0.00066495 33.894 33.952 0.29972 614.85 0.0016264 33.615 33.649 0.29821 1.3834 2.1284 1362.0 -0.0061454 284.81 0.14755 0.55804 1.7920 451.90 489.26 2.5703 1.0900 1.2889 208.93 0.68351 5.4737 0.0090126
-71.625 3.2127 0.00070167 36.037 36.100 0.31038 613.78 0.0016293 35.745 35.781 0.30880 1.3851 2.1316 1355.4 -0.0061181 281.03 0.14694 0.59024 1.6942 452.93 490.46 2.5650 1.0938 1.2932 209.32 0.67448 5.5005 0.0090922
-70.625 3.4108 0.00073993 38.185 38.251 0.32101 612.69 0.0016321 37.877 37.915 0.31935 1.3867 2.1349 1348.7 -0.0060904 277.34 0.14632 0.62390 1.6028 453.96 491.66 2.5598 1.0976 1.2976 209.70 0.66560 5.5273 0.0091720
-69.625 3.6187 0.00077977 40.336 40.407 0.33161 611.61 0.0016350 40.013 40.053 0.32987 1.3884 2.1382 1342.1 -0.0060624 273.72 0.14571 0.65906 1.5173 455.00 492.86 2.5547 1.1015 1.3020 210.08 0.65687 5.5540 0.0092520
-68.625 3.8367 0.00082123 42.491 42.566 0.34217 610.53 0.0016379 42.152 42.195 0.34036 1.3902 2.1415 1335.5 -0.0060339 270.17 0.14510 0.69577 1.4372 456.04 494.06 2.5497 1.1054 1.3064 210.45 0.64827 5.5807 0.0093324
-67.625 4.0652 0.00086436 44.650 44.729 0.35270 609.44 0.0016409 44.294 44.340 0.35080 1.3919 2.1449 1328.8 -0.0060051 266.69 0.14449 0.73408 1.3622 457.08 495.26 2.5448 1.1093 1.3109 210.82 0.63981 5.6074 0.0094130
-66.625 4.3046 0.00090919 46.814 46.897 0.36320 608.35 0.0016438 46.439 46.488 0.36122 1.3937 2.1483 1322.2 -0.0059760 263.28 0.14388 0.77404 1.2919 458.12 496.46 2.5400 1.1133 1.3154 211.18 0.63150 5.6341 0.0094939
-65.625 4.5551 0.00095578 48.981 49.069 0.37367 607.26 0.0016467 48.588 48.640 0.37160 1.3955 2.1518 1315.6 -0.0059464 259.93 0.14327 0.81570 1.2259 459.16 497.67 2.5353 1.1172 1.3200 211.54 0.62332 5.6608 0.0095750
-64.625 4.8173 0.0010041 51.152 51.245 0.38410 606.16 0.0016497 50.740 50.795 0.38195 1.3974 2.1553 1308.9 -0.0059164 256.65 0.14266 0.85910 1.1640 460.21 498.87 2.5307 1.1212 1.3246 211.89 0.61527 5.6874 0.0096564
-63.625 5.0915 0.0010544 53.327 53.426 0.39451 605.07 0.0016527 52.896 52.954 0.39226 1.3993 2.1588 1302.3 -0.0058861 253.42 0.14205 0.90429 1.1058 461.25 500.07 2.5262 1.1252 1.3293 212.24 0.60736 5.7140 0.0097382
-62.625 5.3781 0.0011064 55.506 55.610 0.40489 603.97 0.0016557 55.055 55.117 0.40254 1.4012 2.1624 1295.7 -0.0058553 250.26 0.14144 0.95134 1.0511 462.30 501.28 2.5218 1.1293 1.3340 212.58 0.59958 5.7406 0.0098201
-61.625 5.6774 0.0011604 57.689 57.800 0.41523 602.87 0.0016587 57.218 57.283 0.41279 1.4031 2.1660 1289.1 -0.0058241 247.16 0.14084 1.0003 0.99972 463.35 502.48 2.5175 1.1333 1.3387 212.92 0.59194 5.7672 0.0099024
-60.625 5.9899 0.0012164 59.877 59.994 0.42555 601.77 0.0016618 59.385 59.453 0.42301 1.4051 2.1697 1282.5 -0.0057925 244.12 0.14023 1.0512 0.95131 464.40 503.68 2.5133 1.1374 1.3435 213.26 0.58442 5.7938 0.0099850
-59.625 6.3160 0.0012743 62.069 62.192 0.43584 600.66 0.0016648 61.554 61.627 0.43320 1.4071 2.1734 1275.9 -0.0057605 241.13 0.13962 1.1041 0.90573 465.45 504.89 2.5091 1.1415 1.3483 213.58 0.57704 5.8203 0.010068
-58.625 6.6561 0.0013343 64.266 64.395 0.44610 599.55 0.0016679 63.728 63.805 0.44335 1.4091 2.1772 1269.3 -0.0057280 238.19 0.13902 1.1591 0.86277 466.50 506.09 2.5051 1.1457 1.3532 213.90 0.56978 5.8468 0.010151
-57.625 7.0107 0.0013964 66.466 66.602 0.45634 598.44 0.0016710 65.905 65.986 0.45348 1.4111 2.1810 1262.7 -0.0056951 235.31 0.13842 1.2161 0.82228 467.55 507.30 2.5011 1.1498 1.3581 214.22 0.56265 5.8733 0.010234
-56.625 7.3801 0.0014606 68.671 68.815 0.46655 597.33 0.0016741 68.086 68.172 0.46358 1.4132 2.1848 1256.1 -0.0056617 232.48 0.13781 1.2754 0.78408 468.60 508.50 2.4972 1.1540 1.3631 214.53 0.55564 5.8998 0.010318
-55.625 7.7648 0.0015270 70.881 71.032 0.47673 596.22 0.0016772 70.271 70.361 0.47364 1.4153 2.1887 1249.5 -0.0056279 229.69 0.13721 1.3369 0.74802 469.66 509.71 2.4934 1.1582 1.3681 214.84 0.54875 5.9263 0.010402
-54.625 8.1652 0.0015956 73.095 73.254 0.48688 595.10 0.0016804 72.460 72.554 0.48368 1.4174 2.1927 1242.9 -0.0055937 226.96 0.13661 1.4006 0.71396 470.72 510.91 2.4897 1.1624 1.3731 215.14 0.54199 5.9527 0.010486
-53.625 8.5819 0.0016664 75.314 75.481 0.49701 593.98 0.0016836 74.652 74.752 0.49369 1.4196 2.1967 1236.3 -0.0055589 224.27 0.13601 1.4667 0.68178 471.77 512.11 2.4860 1.1667 1.3782 215.43 0.53535 5.9792 0.010571
-52.625 9.0151 0.0017396 77.538 77.713 0.50712 592.86 0.0016867 76.849 76.954 0.50368 1.4218 2.2007 1229.8 -0.0055237 221.63 0.13541 1.5353 0.65136 472.83 513.32 2.4824 1.1710 1.3834 215.72 0.52882 6.0056 0.010656
-51.625 9.4655 0.0018151 79.766 79.950 0.51720 591.73 0.0016900 79.049 79.159 0.51363 1.4240 2.2048 1223.2 -0.0054880 219.04 0.13482 1.6062 0.62258 473.89 514.52 2.4789 1.1752 1.3886 216.00 0.52241 6.0320 0.010741
-50.625 9.9335 0.0018929 81.999 82.192 0.52726 590.60 0.0016932 81.253 81.369 0.52356 1.4262 2.2089 1216.6 -0.0054519 216.48 0.13422 1.6797 0.59534 474.95 515.73 2.4755 1.1796 1.3938 216.28 0.51612 6.0584 0.010827
-49.625 10.419 0.0019732 84.236 84.439 0.53729 589.47 0.0016964 83.462 83.584 0.53347 1.4285 2.2131 1210.1 -0.0054152 213.98 0.13363 1.7558 0.56954 476.01 516.93 2.4722 1.1839 1.3991 216.55 0.50994 6.0848 0.010913
-48.625 10.924 0.0020559 86.479 86.691 0.54730 588.34 0.0016997 85.674 85.802 0.54334 1.4308 2.2173 1203.5 -0.0053780 211.51 0.13303 1.8345 0.54510 477.07 518.13 2.4689 1.1883 1.4044 216.82 0.50387 6.1112 0.010999
-47.625 11.448 0.0021412 88.726 88.949 0.55729 587.20 0.0017030 87.891 88.025 0.55319 1.4331 2.2216 1196.9 -0.0053403 209.08 0.13244 1.9159 0.52194 478.14 519.33 2.4657 1.1927 1.4098 217.08 0.49792 6.1375 0.011085
-46.625 11.991 0.0022289 90.979 91.211 0.56725 586.06 0.0017063 90.111 90.252 0.56302 1.4354 2.2259 1190.4 -0.0053020 206.69 0.13185 2.0001 0.49997 479.20 520.53 2.4625 1.1971 1.4153 217.33 0.49207 6.1639 0.011172
-45.625 12.554 0.0023193 93.236 93.480 0.57720 584.92 0.0017096 92.336 92.484 0.57282 1.4378 2.2303 1183.8 -0.0052633 204.34 0.13126 2.0872 0.47912 480.27 521.74 2.4594 1.2015 1.4207 217.58 0.48633 6.1902 0.011259
-44.625 13.137 0.0024123 95.498 95.753 0.58712 583.77 0.0017130 94.565 94.720 0.58260 1.4402 2.2347 1177.3 -0.0052240 202.03 0.13067 2.1771 0.45933 481.33 522.94 2.4564 1.2060 1.4263 217.82 0.48069 6.2165 0.011347
-43.625 13.741 0.0025080 97.766 98.033 0.59702 582.62 0.0017164 96.799 96.961 0.59235 1.4426 2.2392 1170.7 -0.0051841 199.75 0.13008 2.2700 0.44053 482.40 524.14 2.4535 1.2104 1.4319 218.05 0.47516 6.2429 0.011435
-42.625 14.367 0.0026063 100.04 100.32 0.60690 581.47 0.0017198 99.036 99.207 0.60208 1.4450 2.2437 1164.2 -0.0051437 197.51 0.12949 2.3659 0.42267 483.46 525.33 2.4506 1.2149 1.4375 218.28 0.46973 6.2692 0.011523
-41.625 15.015 0.0027074 102.32 102.61 0.61676 580.32 0.0017232 101.28 101.46 0.61179 1.4475 2.2483 1157.7 -0.0051027 195.30 0.12891 2.4649 0.40569 484.53 526.53 2.4478 1.2195 1.4432 218.50 0.46440 6.2955 0.011612
-40.625 15.686 0.0028113 104.60 104.90 0.62660 579.16 0.0017266 103.52 103.71 0.62147 1.4500 2.2529 1151.1 -0.0050611 193.13 0.12832 2.5671 0.38954 485.60 527.73 2.4450 1.2240 1.4489 218.72 0.45917 6.3218 0.011701
-39.625 16.380 0.0029180 106.89 107.21 0.63642 578.00 0.0017301 105.78 105.97 0.63113 1.4525 2.2576 1144.6 -0.0050189 190.99 0.12774 2.6725 0.37418 486.67 528.93 2.4423 1.2286 1.4547 218.93 0.45403 6.3481 0.011790
-38.625 17.097 0.0030275 109.18 109.51 0.64622 576.83 0.0017336 108.03 108.24 0.64077 1.4550 2.2623 1138.0 -0.0049761 188.88 0.12716 2.7813 0.35955 487.74 530.12 2.4397 1.2332 1.4606 219.13 0.44900 6.3744 0.011880
-37.625 17.838 0.0031400 111.48 111.83 0.65600 575.66 0.0017371 110.29 110.51 0.65039 1.4576 2.2671 1131.5 -0.0049327 186.81 0.12658 2.8934 0.34562 488.81 531.32 2.4371 1.2378 1.4665 219.33 0.44405 6.4007 0.011970
-36.625 18.604 0.0032554 113.78 114.15 0.66576 574.49 0.0017407 112.56 112.78 0.65999 1.4602 2.2719 1125.0 -0.0048887 184.76 0.12600 3.0089 0.33235 489.88 532.51 2.4346 1.2424 1.4724 219.52 0.43920 6.4270 0.012060
-35.625 19.395 0.0033737 116.09 116.47 0.67551 573.32 0.0017442 114.83 115.06 0.66956 1.4628 2.2768 1118.5 -0.0048440 182.75 0.12542 3.1280 0.31969 490.95 533.70 2.4321 1.2471 1.4784 219.70 0.43444 6.4533 0.012151
-34.625 20.212 0.0034950 118.41 118.80 0.68524 572.14 0.0017478 117.10 117.34 0.67912 1.4654 2.2818 1111.9 -0.0047987 180.76 0.12485 3.2506 0.30763 492.02 534.89 2.4297 1.2517 1.4845 219.88 0.42977 6.4797 0.012243
-33.625 21.056 0.0036194 120.73 121.14 0.69495 570.96 0.0017514 119.38 119.63 0.68865 1.4681 2.2868 1105.4 -0.0047527 178.80 0.12427 3.3770 0.29612 493.09 536.08 2.4273 1.2564 1.4906 220.05 0.42519 6.5060 0.012334
-32.625 21.926 0.0037469 123.06 123.48 0.70464 569.77 0.0017551 121.66 121.93 0.69817 1.4708 2.2918 1098.9 -0.0047061 176.87 0.12370 3.5071 0.28514 494.17 537.27 2.4250 1.2611 1.4968 220.21 0.42070 6.5323 0.012426
-31.625 22.823 0.0038775 125.39 125.83 0.71432 568.58 0.0017588 123.95 124.23 0.70767 1.4735 2.2970 1092.3 -0.0046587 174.97 0.12313 3.6410 0.27465 495.24 538.46 2.4227 1.2659 1.5031 220.36 0.41629 6.5587 0.012519
-30.625 23.749 0.0040112 127.73 128.19 0.72398 567.39 0.0017625 126.24 126.53 0.71714 1.4762 2.3021 1085.8 -0.0046107 173.09 0.12256 3.7787 0.26464 496.31 539.64 2.4205 1.2706 1.5094 220.51 0.41196 6.5850 0.012612
-29.625 24.703 0.0041480 130.07 130.55 0.73362 566.19 0.0017662 128.54 128.84 0.72660 1.4790 2.3074 1079.3 -0.0045619 171.24 0.12200 3.9205 0.25507 497.38 540.83 2.4184 1.2754 1.5157 220.65 0.40772 6.6114 0.012706
-28.625 25.687 0.0042881 132.42 132.92 0.74325 564.99 0.0017699 130.84 131.16 0.73604 1.4818 2.3126 1072.8 -0.0045124 169.42 0.12143 4.0663 0.24592 498.46 542.01 2.4162 1.2802 1.5222 220.79 0.40356 6.6378 0.012800
-27.625 26.700 0.0044314 134.78 135.29 0.75286 563.78 0.0017737 133.15 133.48 0.74547 1.4846 2.3180 1066.2 -0.0044621 167.62 0.12087 4.2163 0.23717 499.53 543.19 2.4142 1.2850 1.5286 220.91 0.39947 6.6642 0.012894
-26.625 27.743 0.0045780 137.14 137.68 0.76246 562.57 0.0017775 135.47 135.81 0.75487 1.4874 2.3234 1059.7 -0.0044111 165.84 0.12031 4.3705 0.22881 500.60 544.37 2.4122 1.2899 1.5352 221.03 0.39547 6.6906 0.012989
-25.625 28.817 0.0047279 139.50 140.06 0.77204 561.36 0.0017814 137.78 138.14 0.76426 1.4902 2.3289 1053.2 -0.0043593 164.09 0.11975 4.5290 0.22080 501.68 545.55 2.4102 1.2947 1.5418 221.14 0.39154 6.7171 0.013084
-24.625 29.923 0.0048811 141.88 142.46 0.78161 560.14 0.0017853 140.11 140.48 0.77363 1.4931 2.3344 1046.7 -0.0043067 162.36 0.11919 4.6918 0.21314 502.75 546.72 2.4083 1.2996 1.5485 221.25 0.38768 6.7436 0.013180
-23.625 31.061 0.0050377 144.26 144.86 0.79116 558.92 0.0017892 142.44 142.82 0.78298 1.4960 2.3400 1040.1 -0.0042533 160.65 0.11863 4.8592 0.20580 503.82 547.90 2.4064 1.3045 1.5552 221.35 0.38391 6.7701 0.013277
-22.625 32.232 0.0051977 146.64 147.27 0.80070 557.69 0.0017931 144.77 145.17 0.79232 1.4990 2.3457 1033.6 -0.0041990 158.97 0.11807 5.0311 0.19877 504.90 549.07 2.4045 1.3095 1.5621 221.44 0.38020 6.7967 0.013374
-21.625 33.435 0.0053610 149.03 149.68 0.81023 556.46 0.0017971 147.11 147.52 0.80164 1.5019 2.3514 1027.1 -0.0041439 157.30 0.11752 5.2076 0.19203 505.97 550.24 2.4027 1.3144 1.5690 221.52 0.37656 6.8232 0.013471
-20.625 34.673 0.0055278 151.43 152.10 0.81974 555.23 0.0018011 149.45 149.88 0.81095 1.5049 2.3572 1020.6 -0.0040879 155.66 0.11697 5.3889 0.18557 507.04 551.40 2.4010 1.3194 1.5759 221.59 0.37300 6.8499 0.013569
-19.625 35.946 0.0056981 153.83 154.53 0.82924 553.99 0.0018051 151.80 152.25 0.82024 1.5079 2.3630 1014.0 -0.0040311 154.04 0.11642 5.5750 0.17937 508.11 552.57 2.3992 1.3244 1.5829 221.66 0.36950 6.8765 0.013668
-18.625 37.253 0.0058719 156.24 156.97 0.83873 552.74 0.0018092 154.16 154.62 0.82952 1.5109 2.3689 1007.5 -0.0039733 152.44 0.11587 5.7660 0.17343 509.19 553.73 2.3976 1.3294 1.5901 221.72 0.36608 6.9032 0.013767
-17.625 38.596 0.0060491 158.66 159.41 0.84820 551.49 0.0018133 156.52 157.00 0.83878 1.5140 2.3749 1001.0 -0.0039145 150.86 0.11532 5.9621 0.16773 510.26 554.89 2.3959 1.3345 1.5972 221.77 0.36272 6.9300 0.013867
-16.625 39.976 0.0062299 161.08 161.86 0.85766 550.24 0.0018174 158.89 159.39 0.84803 1.5171 2.3810 994.44 -0.0038549 149.29 0.11478 6.1632 0.16225 511.33 556.05 2.3943 1.3395 1.6045 221.81 0.35942 6.9568 0.013968
-15.625 41.392 0.0064142 163.51 164.32 0.86711 548.98 0.0018216 161.26 161.78 0.85726 1.5202 2.3871 987.91 -0.0037942 147.75 0.11423 6.3696 0.15700 512.40 557.20 2.3927 1.3446 1.6119 221.85 0.35619 6.9836 0.014069
-14.625 42.846 0.0066022 165.95 166.78 0.87655 547.71 0.0018258 163.64 164.18 0.86649 1.5233 2.3933 981.37 -0.0037325 146.22 0.11369 6.5812 0.15195 513.47 558.36 2.3912 1.3497 1.6193 221.87 0.35302 7.0105 0.014170
-13.625 44.338 0.0067936 168.39 169.25 0.88598 546.44 0.0018300 166.02 166.58 0.87569 1.5264 2.3996 974.83 -0.0036698 144.72 0.11315 6.7983 0.14710 514.54 559.51 2.3897 1.3549 1.6268 221.89 0.34992 7.0375 0.014273
-12.625 45.870 0.0069887 170.84 171.73 0.89539 545.17 0.0018343 168.41 168.99 0.88489 1.5296 2.4059 968.29 -0.0036061 143.23 0.11261 7.0208 0.14243 515.61 560.65 2.3883 1.3600 1.6344 221.90 0.34688 7.0646 0.014376
-11.625 47.440 0.0071875 173.29 174.21 0.90480 543.89 0.0018386 170.81 171.41 0.89407 1.5328 2.4124 961.75 -0.0035413 141.76 0.11208 7.2490 0.13795 516.68 561.80 2.3868 1.3652 1.6421 221.91 0.34389 7.0917 0.014479
-10.625 49.051 0.0073898 175.75 176.71 0.91419 542.60 0.0018430 173.21 173.83 0.90324 1.5360 2.4189 955.20 -0.0034753 140.30 0.11154 7.4829 0.13364 517.75 562.94 2.3854 1.3704 1.6498 221.90 0.34097 7.1188 0.014584
-9.6250 50.703 0.0075958 178.22 179.21 0.92358 541.31 0.0018474 175.61 176.26 0.91240 1.5393 2.4255 948.65 -0.0034082 138.86 0.11101 7.7226 0.12949 518.81 564.08 2.3841 1.3757 1.6577 221.88 0.33810 7.1461 0.014689
-8.6250 52.396 0.0078055 180.70 181.71 0.93295 540.02 0.0018518 178.03 178.70 0.92154 1.5426 2.4321 942.10 -0.0033400 137.44 0.11048 7.9683 0.12550 519.88 565.21 2.3827 1.3809 1.6657 221.86 0.33529 7.1734 0.014795
-7.6250 54.131 0.0080188 183.18 184.23 0.94231 538.72 0.0018563 180.45 181.14 0.93068 1.5459 2.4389 935.55 -0.0032705 136.03 0.10995 8.2200 0.12165 520.94 566.35 2.3814 1.3862 1.6737 221.83 0.33254 7.2008 0.014902
-6.6250 55.909 0.0082358 185.67 186.75 0.95167 537.41 0.0018608 182.87 183.59 0.93980 1.5492 2.4457 928.99 -0.0031998 134.64 0.10942 8.4779 0.11795 522.01 567.48 2.3801 1.3915 1.6819 221.79 0.32984 7.2284 0.015009
-5.6250 57.730 0.0084565 188.16 189.28 0.96101 536.10 0.0018653 185.30 186.05 0.94892 1.5525 2.4526 922.43 -0.0031279 133.27 0.10889 8.7420 0.11439 523.07 568.60 2.3789 1.3969 1.6902 221.74 0.32720 7.2560 0.015117
-4.6250 59.595 0.0086808 190.66 191.82 0.97034 534.78 0.0018699 187.74 188.51 0.95802 1.5559 2.4596 915.87 -0.0030546 131.91 0.10837 9.0126 0.11096 524.13 569.72 2.3777 1.4022 1.6985 221.68 0.32461 7.2837 0.015226
-3.6250 61.505 0.0089089 193.17 194.37 0.97967 533.45 0.0018746 190.19 190.98 0.96711 1.5593 2.4667 909.30 -0.0029800 130.56 0.10785 9.2896 0.10765 525.19 570.84 2.3765 1.4076 1.7070 221.62 0.32207 7.3115 0.015336
-2.6250 63.461 0.0091406 195.69 196.92 0.98899 532.12 0.0018793 192.64 193.46 0.97620 1.5627 2.4739 902.73 -0.0029041 129.23 0.10733 9.5733 0.10446 526.25 571.96 2.3753 1.4131 1.7156 221.54 0.31958 7.3394 0.015447
-1.6250 65.462 0.0093760 198.21 199.48 0.99830 530.78 0.0018840 195.10 195.95 0.98527 1.5662 2.4811 896.16 -0.0028267 127.91 0.10681 9.8638 0.10138 527.31 573.07 2.3742 1.4185 1.7243 221.45 0.31715 7.3674 0.015559
-0.62500 67.510 0.0096151 200.74 202.05 1.0076 529.44 0.0018888 197.56 198.44 0.99434 1.5696 2.4885 889.58 -0.0027478 126.61 0.10629 10.161 0.098414 528.37 574.18 2.3731 1.4240 1.7331 221.36 0.31476 7.3956 0.015671
0.37500 69.606 0.0098579 203.28 204.63 1.0169 528.09 0.0018936 200.03 200.94 1.0034 1.5731 2.4960 883.00 -0.0026675 125.32 0.10578 10.466 0.095552 529.42 575.28 2.3720 1.4295 1.7421 221.26 0.31242 7.4239 0.015785
1.3750 71.749 0.010104 205.82 207.21 1.0262 526.73 0.0018985 202.51 203.45 1.0124 1.5767 2.5035 876.42 -0.0025856 124.04 0.10527 10.777 0.092790 530.48 576.38 2.3709 1.4350 1.7512 221.14 0.31013 7.4523 0.015899
2.3750 73.941 0.010354 208.37 209.81 1.0354 525.37 0.0019034 204.99 205.96 1.0215 1.5802 2.5112 869.83 -0.0025022 122.78 0.10476 11.096 0.090123 531.53 577.47 2.3699 1.4406 1.7604 221.02 0.30789 7.4808 0.016015
3.3750 76.183 0.010608 210.93 212.41 1.0447 523.99 0.0019084 207.48 208.48 1.0305 1.5838 2.5190 863.24 -0.0024171 121.53 0.10425 11.422 0.087549 532.58 578.56 2.3688 1.4462 1.7697 220.89 0.30569 7.5095 0.016131
4.3750 78.475 0.010865 213.50 215.02 1.0540 522.62 0.0019134 209.98 211.01 1.0395 1.5874 2.5268 856.64 -0.0023303 120.29 0.10374 11.756 0.085062 533.63 579.65 2.3678 1.4518 1.7792 220.75 0.30354 7.5384 0.016249
5.3750 80.817 0.011126 216.07 217.64 1.0632 521.23 0.0019185 212.48 213.55 1.0486 1.5910 2.5348 850.04 -0.0022417 119.06 0.10324 12.098 0.082660 534.67 580.73 2.3669 1.4575 1.7888 220.60 0.30144 7.5674 0.016368
6.3750 83.211 0.011391 218.65 220.26 1.0725 519.84 0.0019237 215.00 216.10 1.0576 1.5946 2.5429 843.43 -0.0021514 117.85 0.10273 12.447 0.080340 535.72 581.81 2.3659 1.4632 1.7986 220.44 0.29938 7.5966 0.016487
7.3750 85.657 0.011659 221.24 222.90 1.0817 518.44 0.0019289 217.51 218.65 1.0666 1.5983 2.5511 836.82 -0.0020593 116.65 0.10223 12.805 0.078096 536.76 582.88 2.3650 1.4689 1.8085 220.27 0.29736 7.6259 0.016608
8.3750 88.156 0.011931 223.83 225.54 1.0910 517.03 0.0019341 220.04 221.22 1.0756 1.6020 2.5595 830.20 -0.0019652 115.46 0.10173 13.170 0.075928 537.80 583.95 2.3640 1.4746 1.8186 220.08 0.29538 7.6555 0.016730
9.3750 90.708 0.012206 226.43 228.20 1.1002 515.62 0.0019394 222.57 223.79 1.0846 1.6057 2.5679 823.58 -0.0018691 114.28 0.10124 13.545 0.073830 538.84 585.01 2.3631 1.4804 1.8288 219.89 0.29345 7.6852 0.016853
10.375 93.315 0.012484 229.04 230.86 1.1094 514.19 0.0019448 225.11 226.37 1.0936 1.6095 2.5765 816.96 -0.0017710 113.11 0.10074 13.927 0.071802 539.87 586.07 2.3622 1.4863 1.8392 219.69 0.29156 7.7151 0.016978
11.375 95.977 0.012766 231.66 233.53 1.1186 512.76 0.0019502 227.66 228.95 1.1025 1.6132 2.5852 810.32 -0.0016708 111.95 0.10025 14.319 0.069840 540.90 587.12 2.3614 1.4921 1.8498 219.48 0.28971 7.7452 0.017103
12.375 98.694 0.013051 234.29 236.20 1.1278 511.32 0.0019557 230.22 231.55 1.1115 1.6170 2.5940 803.68 -0.0015685 110.80 0.099756 14.719 0.067941 541.93 588.17 2.3605 1.4980 1.8605 219.26 0.28790 7.7756 0.017230
13.375 101.47 0.013340 236.92 238.89 1.1370 509.87 0.0019613 232.78 234.15 1.1205 1.6208 2.6030 797.04 -0.0014639 109.67 0.099267 15.128 0.066103 542.96 589.21 2.3597 1.5040 1.8715 219.03 0.28612 7.8061 0.017359
14.375 104.30 0.013632 239.56 241.59 1.1462 508.42 0.0019669 235.35 236.77 1.1295 1.6247 2.6121 790.39 -0.0013569 108.54 0.098779 15.547 0.064323 543.99 590.24 2.3588 1.5099 1.8826 218.79 0.28439 7.8369 0.017488
15.375 107.19 0.013927 242.21 244.29 1.1554 506.95 0.0019726 237.93 239.39 1.1384 1.6286 2.6214 783.73 -0.0012476 107.43 0.098294 15.974 0.062600 545.01 591.27 2.3580 1.5159 1.8940 218.53 0.28270 7.8680 0.017619
16.375 110.13 0.014225 244.86 247.00 1.1646 505.48 0.0019783 240.52 242.02 1.1474 1.6324 2.6308 777.07 -0.0011357 106.32 0.097810 16.412 0.060931 546.03 592.29 2.3572 1.5220 1.9055 218.27 0.28104 7.8993 0.017752
17.375 113.14 0.014526 247.53 249.72 1.1738 504.00 0.0019841 243.11 244.66 1.1564 1.6364 2.6403 770.40 -0.0010213 105.22 0.097328 16.859 0.059314 547.04 593.31 2.3564 1.5281 1.9172 217.99 0.27942 7.9308 0.017886
18.375 116.21 0.014830 250.20 252.46 1.1830 502.50 0.0019900 245.72 247.31 1.1653 1.6403 2.6501 763.72 -0.00090422 104.14 0.096848 17.317 0.057747 548.05 594.32 2.3557 1.5342 1.9292 217.71 0.27783 7.9626 0.018021
19.375 119.33 0.015137 252.88 255.20 1.1922 501.00 0.0019960 248.33 249.97 1.1743 1.6443 2.6599 757.04 -0.00078435 103.06 0.096371 17.785 0.056228 549.06 595.33 2.3549 1.5404 1.9414 217.41 0.27628 7.9947 0.018159
20.375 122.52 0.015446 255.57 257.95 1.2013 499.49 0.0020020 250.95 252.64 1.1832 1.6483 2.6700 750.35 -0.00066161 101.99 0.095895 18.263 0.054756 550.07 596.32 2.3541 1.5466 1.9538 217.10 0.27477 8.0272 0.018297
21.375 125.77 0.015759 258.26 260.70 1.2105 497.97 0.0020082 253.57 255.32 1.1922 1.6523 2.6802 743.64 -0.00053589 100.93 0.095420 18.752 0.053328 551.07 597.31 2.3534 1.5528 1.9665 216.78 0.27329 8.0599 0.018438
22.375 129.08 0.016074 260.97 263.47 1.2197 496.43 0.0020144 256.21 258.00 1.2012 1.6563 2.6906 736.94 -0.00040708 99.877 0.094948 19.252 0.051943 552.07 598.30 2.3526 1.5591 1.9795 216.45 0.27184 8.0929 0.018580
23.375 132.46 0.016391 263.68 266.25 1.2288 494.89 0.0020206 258.86 260.70 1.2101 1.6604 2.7012 730.22 -0.00027505 98.834 0.094478 19.763 0.050600 553.06 599.27 2.3519 1.5655 1.9927 216.11 0.27043 8.1263 0.018724
24.375 135.90 0.016710 266.40 269.04 1.2380 493.34 0.0020270 261.51 263.41 1.2191 1.6645 2.7120 723.49 -0.00013968 97.800 0.094009 20.285 0.049297 554.05 600.24 2.3512 1.5718 2.0061 215.75 0.26906 8.1600 0.018870
25.375 139.41 0.017032 269.13 271.83 1.2471 491.77 0.0020335 264.17 266.13 1.2280 1.6686 2.7230 716.76 -8.3775e-07 96.773 0.093543 20.820 0.048032 555.03 601.20 2.3504 1.5783 2.0199 215.39 0.26771 8.1941 0.019017
26.375 142.98 0.017356 271.86 274.64 1.2563 490.20 0.0020400 266.84 268.85 1.2370 1.6728 2.7342 710.01 0.00014161 95.755 0.093078 21.366 0.046804 556.01 602.15 2.3497 1.5847 2.0340 215.01 0.26640 8.2286 0.019167
27.375 146.62 0.017681 274.61 277.45 1.2654 488.61 0.0020466 269.52 271.59 1.2459 1.6770 2.7456 703.26 0.00028782 94.745 0.092615 21.924 0.045612 556.99 603.10 2.3490 1.5913 2.0484 214.62 0.26512 8.2634 0.019319
28.375 150.33 0.018009 277.36 280.28 1.2746 487.01 0.0020533 272.21 274.34 1.2549 1.6812 2.7573 696.49 0.00043793 93.742 0.092154 22.495 0.044454 557.96 604.03 2.3483 1.5978 2.0631 214.21 0.26387 8.2987 0.019472
29.375 154.10 0.018337 280.12 283.11 1.2837 485.40 0.0020601 274.91 277.10 1.2638 1.6854 2.7691 689.72 0.00059212 92.747 0.091695 23.079 0.043329 558.92 604.96 2.3476 1.6044 2.0781 213.80 0.26265 8.3344 0.019628
30.375 157.94 0.018667 282.89 285.96 1.2929 483.78 0.0020671 277.62 279.87 1.2728 1.6897 2.7813 682.93 0.00075055 91.760 0.091238 23.676 0.042237 559.88 605.88 2.3469 1.6111 2.0935 213.37 0.26147 8.3705 0.019786
31.375 161.86 0.018998 285.67 288.81 1.3020 482.15 0.0020741 280.34 282.66 1.2818 1.6939 2.7936 676.13 0.00091340 90.779 0.090782 24.287 0.041175 560.84 606.79 2.3462 1.6178 2.1092 212.93 0.26031 8.4071 0.019947
32.375 165.84 0.019330 288.46 291.68 1.3111 480.50 0.0020812 283.07 285.45 1.2908 1.6983 2.8063 669.32 0.0010809 89.806 0.090328 24.911 0.040143 561.79 607.69 2.3455 1.6246 2.1254 212.48 0.25919 8.4442 0.020110
33.375 169.90 0.019662 291.25 294.55 1.3203 478.83 0.0020884 285.81 288.26 1.2997 1.7026 2.8192 662.50 0.0012532 88.840 0.089876 25.549 0.039140 562.73 608.58 2.3448 1.6314 2.1419 212.01 0.25809 8.4818 0.020275
34.375 174.02 0.019994 294.06 297.44 1.3294 477.16 0.0020957 288.56 291.07 1.3087 1.7070 2.8324 655.67 0.0014305 87.880 0.089426 26.202 0.038164 563.67 609.46 2.3440 1.6383 2.1589 211.53 0.25702 8.5199 0.020443
35.375 178.22 0.020327 296.87 300.33 1.3385 475.47 0.0021032 291.32 293.90 1.3177 1.7114 2.8459 648.82 0.0016131 86.927 0.088977 26.870 0.037216 564.60 610.33 2.3433 1.6452 2.1763 211.04 0.25599 8.5586 0.020613
36.375 182.50 0.020658 299.69 303.24 1.3477 473.77 0.0021107 294.09 296.74 1.3267 1.7158 2.8597 641.96 0.0018012 85.980 0.088531 27.553 0.036293 565.52 611.19 2.3426 1.6522 2.1942 210.53 0.25498 8.5978 0.020786
37.375 186.84 0.020990 302.53 306.15 1.3568 472.05 0.0021184 296.87 299.60 1.3357 1.7203 2.8739 635.08 0.0019950 85.040 0.088085 28.252 0.035395 566.44 612.04 2.3419 1.6592 2.2125 210.01 0.25400 8.6376 0.020962
38.375 191.27 0.021320 305.37 309.08 1.3659 470.31 0.0021262 299.66 302.46 1.3447 1.7248 2.8884 628.19 0.0021949 84.105 0.087642 28.967 0.034522 567.35 612.88 2.3411 1.6663 2.2314 209.47 0.25305 8.6780 0.021141
39.375 195.77 0.021648 308.21 312.02 1.3751 468.56 0.0021342 302.46 305.34 1.3537 1.7293 2.9033 621.29 0.0024011 83.177 0.087200 29.699 0.033671 568.26 613.70 2.3404 1.6734 2.2508 208.92 0.25213 8.7190 0.021323
40.375 200.34 0.021974 311.07 314.96 1.3842 466.80 0.0021423 305.27 308.23 1.3627 1.7339 2.9185 614.37 0.0026140 82.254 0.086760 30.447 0.032844 569.15 614.52 2.3396 1.6806 2.2708 208.36 0.25123 8.7608 0.021508
41.375 205.00 0.022298 313.94 317.92 1.3933 465.01 0.0021505 308.10 311.14 1.3718 1.7385 2.9342 607.43 0.0028338 81.338 0.086322 31.214 0.032037 570.04 615.32 2.3389 1.6879 2.2913 207.78 0.25037 8.8032 0.021696
42.375 209.73 0.022619 316.82 320.89 1.4025 463.21 0.0021588 310.94 314.06 1.3808 1.7432 2.9502 600.47 0.0030609 80.426 0.085885 31.998 0.031252 570.92 616.11 2.3381 1.6952 2.3125 207.19 0.24953 8.8463 0.021888
43.375 214.54 0.022937 319.70 323.87 1.4116 461.40 0.0021673 313.79 316.99 1.3899 1.7478 2.9667 593.50 0.0032957 79.520 0.085449 32.800 0.030488 571.79 616.88 2.3373 1.7027 2.3344 206.58 0.24871 8.8902 0.022084
44.375 219.43 0.023250 322.60 326.86 1.4207 459.56 0.0021760 316.65 319.94 1.3989 1.7525 2.9837 586.51 0.0035386 78.619 0.085015 33.622 0.029742 572.65 617.65 2.3365 1.7101 2.3569 205.96 0.24793 8.9349 0.022283
45.375 224.41 0.023558 325.50 329.86 1.4299 457.71 0.0021848 319.52 322.90 1.4080 1.7573 3.0012 579.50 0.0037900 77.723 0.084583 34.463 0.029016 573.50 618.40 2.3357 1.7177 2.3802 205.32 0.24717 8.9805 0.022485
46.375 229.46 0.023861 328.42 332.88 1.4390 455.83 0.0021938 322.41 325.88 1.4171 1.7621 3.0192 572.46 0.0040504 76.832 0.084152 35.325 0.028308 574.34 619.13 2.3349 1.7253 2.4042 204.67 0.24644 9.0269 0.022692
47.375 234.60 0.024157 331.34 335.90 1.4481 453.94 0.0022029 325.31 328.87 1.4262 1.7669 3.0377 565.41 0.0043202 75.946 0.083723 36.208 0.027618 575.17 619.85 2.3340 1.7329 2.4291 204.00 0.24573 9.0742 0.022903
48.375 239.83 0.024447 334.28 338.94 1.4573 452.03 0.0022123 328.22 331.88 1.4353 1.7718 3.0569 558.34 0.0046000 75.064 0.083295 37.112 0.026945 576.00 620.55 2.3332 1.7407 2.4548 203.31 0.24505 9.1224 0.023119
49.375 245.13 0.024728 337.22 341.98 1.4664 450.09 0.0022218 331.15 334.90 1.4445 1.7767 3.0766 551.24 0.0048904 74.186 0.082868 38.039 0.026289 576.81 621.24 2.3323 1.7485 2.4815 202.61 0.24440 9.1716 0.023339
50.375 250.53 0.025000 340.18 345.04 1.4756 448.13 0.0022315 334.09 337.94 1.4536 1.7817 3.0970 544.13 0.0051920 73.313 0.082442 38.989 0.025648 577.61 621.91 2.3314 1.7564 2.5092 201.89 0.24377 9.2219 0.023564
51.375 256.01 0.025261 343.14 348.11 1.4847 446.15 0.0022414 337.04 341.00 1.4628 1.7867 3.1181 536.98 0.0055054 72.443 0.082018 39.962 0.025024 578.39 622.56 2.3304 1.7644 2.5379 201.16 0.24317 9.2733 0.023794
52.375 261.57 0.025512 346.11 351.19 1.4939 444.15 0.0022515 340.01 344.07 1.4720 1.7918 3.1400 529.82 0.0058313 71.577 0.081595 40.961 0.024414 579.17 623.20 2.3295 1.7724 2.5677 200.41 0.24260 9.3258 0.024029
53.375 267.23 0.025749 349.10 354.29 1.5030 442.12 0.0022618 343.00 347.17 1.4812 1.7969 3.1627 522.62 0.0061705 70.715 0.081174 41.985 0.023818 579.93 623.81 2.3285 1.7805 2.5987 199.63 0.24205 9.3795 0.024270
54.375 272.97 0.025972 352.09 357.40 1.5122 440.06 0.0022724 346.00 350.28 1.4904 1.8021 3.1862 515.40 0.0065239 69.856 0.080753 43.036 0.023237 580.68 624.41 2.3274 1.7887 2.6310 198.85 0.24154 9.4344 0.024516
55.375 278.81 0.026180 355.10 360.51 1.5213 437.98 0.0022832 349.02 353.40 1.4997 1.8073 3.2106 508.15 0.0068923 69.001 0.080334 44.114 0.022669 581.41 624.99 2.3264 1.7969 2.6646 198.04 0.24105 9.4907 0.024769
56.375 284.74 0.026370 358.12 363.65 1.5305 435.87 0.0022943 352.05 356.55 1.5090 1.8126 3.2360 500.87 0.0072767 68.148 0.079915 45.221 0.022114 582.13 625.54 2.3253 1.8052 2.6998 197.22 0.24059 9.5484 0.025028
57.375 290.76 0.026541 361.14 366.79 1.5397 433.73 0.0023056 355.10 359.72 1.5183 1.8179 3.2624 493.56 0.0076782 67.299 0.079498 46.358 0.021571 582.83 626.07 2.3241 1.8136 2.7365 196.37 0.24016 9.6075 0.025294
58.375 296.87 0.026690 364.18 369.95 1.5489 431.56 0.0023172 358.17 362.91 1.5276 1.8233 3.2900 486.22 0.0080980 66.451 0.079082 47.525 0.021041 583.52 626.58 2.3230 1.8220 2.7749 195.51 0.23976 9.6682 0.025568
59.375 303.08 0.026815 367.23 373.12 1.5580 429.36 0.0023290 361.25 366.12 1.5370 1.8288 3.3188 478.84 0.0085373 65.606 0.078666 48.726 0.020523 584.18 627.07 2.3218 1.8305 2.8152 194.63 0.23939 9.7305 0.025849
60.375 309.38 0.026914 370.29 376.30 1.5672 427.13 0.0023412 364.36 369.35 1.5464 1.8343 3.3489 471.43 0.0089976 64.763 0.078251 49.960 0.020016 584.83 627.53 2.3205 1.8391 2.8576 193.73 0.23905 9.7945 0.026138
61.375 315.78 0.026984 373.36 379.49 1.5764 424.87 0.0023537 367.48 372.60 1.5558 1.8400 3.3805 463.99 0.0094803 63.922 0.077838 51.229 0.019520 585.46 627.96 2.3192 1.8479 2.9022 192.82 0.23873 9.8603 0.026436
62.375 322.28 0.027021 376.44 382.70 1.5856 422.56 0.0023665 370.62 375.88 1.5653 1.8457 3.4136 456.50 0.0099871 63.083 0.077425 52.535 0.019035 586.07 628.37 2.3178 1.8567 2.9492 191.88 0.23845 9.9281 0.026744
63.375 328.88 0.027022 379.54 385.93 1.5948 420.22 0.0023797 373.79 379.18 1.5748 1.8514 3.4483 448.97 0.010520 62.244 0.077012 53.879 0.018560 586.66 628.74 2.3164 1.8656 2.9989 190.92 0.23819 9.9979 0.027061
64.375 335.58 0.026983 382.65 389.16 1.6041 417.85 0.0023932 376.97 382.51 1.5844 1.8573 3.4850 441.40 0.011081 61.407 0.076600 55.265 0.018095 587.22 629.09 2.3149 1.8747 3.0517 189.95 0.23796 10.070 0.027389
65.375 342.38 0.026899 385.77 392.42 1.6133 415.42 0.0024072 380.18 385.86 1.5939 1.8633 3.5236 433.79 0.011672 60.570 0.076189 56.692 0.017639 587.76 629.40 2.3133 1.8839 3.1077 188.95 0.23775 10.144 0.027729
66.375 349.28 0.026766 388.90 395.68 1.6225 412.96 0.0024215 383.41 389.25 1.6036 1.8693 3.5645 426.12 0.012296 59.733 0.075779 58.165 0.017193 588.28 629.68 2.3117 1.8933 3.1674 187.93 0.23757 10.221 0.028080
67.375 356.28 0.026578 392.04 398.96 1.6318 410.45 0.0024363 386.67 392.65 1.6133 1.8755 3.6078 418.41 0.012956 58.897 0.075368 59.684 0.016755 588.76 629.92 2.3100 1.9030 3.2311 186.89 0.23740 10.300 0.028446
68.375 363.40 0.026328 395.20 402.26 1.6410 407.89 0.0024516 389.95 396.09 1.6230 1.8818 3.6537 410.64 0.013655 58.059 0.074959 61.253 0.016326 589.22 630.13 2.3082 1.9129 3.2994 185.83 0.23724 10.382 0.028825
69.375 370.61 0.026008 398.37 405.57 1.6503 405.28 0.0024674 393.26 399.57 1.6328 1.8882 3.7027 402.81 0.014396 57.221 0.074549 62.875 0.015905 589.65 630.29 2.3064 1.9231 3.3727 184.74 0.23710 10.467 0.029221
70.375 377.94 0.025612 401.55 408.89 1.6596 402.62 0.0024838 396.60 403.07 1.6426 1.8947 3.7550 394.92 0.015183 56.381 0.074141 64.552 0.015491 590.04 630.41 2.3044 1.9336 3.4518 183.63 0.23697 10.555 0.029633
71.375 385.37 0.025128 404.75 412.23 1.6689 399.89 0.0025007 399.96 406.61 1.6525 1.9014 3.8109 386.97 0.016021 55.540 0.073732 66.288 0.015086 590.40 630.49 2.3024 1.9444 3.5371 182.50 0.23684 10.647 0.030064
72.375 392.92 0.024546 407.96 415.59 1.6782 397.11 0.0025182 403.36 410.18 1.6625 1.9083 3.8711 378.95 0.016915 54.696 0.073324 68.087 0.014687 590.73 630.51 2.3002 1.9556 3.6297 181.34 0.23671 10.743 0.030515
73.375 400.57 0.023853 411.19 418.97 1.6875 394.26 0.0025364 406.79 413.80 1.6726 1.9153 3.9359 370.85 0.017871 53.848 0.072917 69.953 0.014295 591.01 630.49 2.2979 1.9673 3.7303 180.16 0.23658 10.842 0.030989
74.375 408.34 0.023035 414.43 422.36 1.6968 391.34 0.0025553 410.26 417.45 1.6827 1.9226 4.0060 362.67 0.018894 52.997 0.072510 71.890 0.013910 591.25 630.41 2.2955 1.9793 3.8401 178.95 0.23643 10.946 0.031488
75.375 416.23 0.022073 417.69 425.77 1.7062 388.34 0.0025751 413.76 421.15 1.6930 1.9301 4.0822 354.41 0.019993 52.142 0.072104 73.904 0.013531 591.44 630.27 2.2930 1.9919 3.9604 177.71 0.23627 11.054 0.032014
76.375 424.23 0.020947 420.96 429.20 1.7156 385.26 0.0025957 417.31 424.90 1.7033 1.9378 4.1654 346.06 0.021177 51.281 0.071699 76.001 0.013158 591.59 630.07 2.2903 2.0050 4.0927 176.44 0.23609 11.168 0.032570
77.375 432.35 0.019633 424.25 432.64 1.7250 382.09 0.0026172 420.89 428.70 1.7137 1.9459 4.2565 337.60 0.022455 50.414 0.071295 78.187 0.012790 591.68 629.80 2.2874 2.0186 4.2389 175.15 0.23588 11.287 0.033161
78.375 440.59 0.018101 427.55 436.11 1.7344 378.83 0.0026397 424.53 432.54 1.7243 1.9543 4.3570 329.05 0.023838 49.539 0.070893 80.469 0.012427 591.71 629.46 2.2844 2.0328 4.4012 173.82 0.23563 11.412 0.033789
79.375 448.95 0.016317 430.88 439.60 1.7438 375.46 0.0026634 428.21 436.45 1.7349 1.9631 4.4684 320.38 0.025341 48.657 0.070494 82.856 0.012069 591.68 629.04 2.2812 2.0475 4.5824 172.46 0.23535 11.544 0.034461
80.375 457.44 0.014238 434.22 443.10 1.7533 371.97 0.0026884 431.94 440.42 1.7457 1.9723 4.5928 311.58 0.026980 47.764 0.070099 85.359 0.011715 591.58 628.53 2.2778 2.0630 4.7859 171.07 0.23501 11.684 0.035181
81.375 466.05 0.011810 437.58 446.63 1.7628 368.36 0.0027147 435.74 444.46 1.7567 1.9820 4.7327 302.66 0.028773 46.860 0.069708 87.988 0.011365 591.40 627.92 2.2742 2.0791 5.0161 169.64 0.23461 11.832 0.035957
82.375 474.79 0.0089692 440.96 450.18 1.7723 364.61 0.0027427 439.60 448.58 1.7678 1.9924 4.8914 293.60 0.030744 45.942 0.069323 90.757 0.011018 591.14 627.21 2.2703 2.0959 5.2786 168.17 0.23413 11.989 0.036797
83.375 483.66 0.0056325 444.36 453.76 1.7819 360.70 0.0027724 443.53 452.78 1.7791 2.0034 5.0731 284.38 0.032920 45.010 0.068948 93.681 0.010674 590.79 626.38 2.2661 2.1136 5.5807 166.67 0.23357 12.157 0.037711
84.375 492.67 0.0016942 447.79 457.36 1.7915 356.61 0.0028041 447.54 457.07 1.7907 2.0153 5.2834 275.00 0.035335 44.059 0.068586 96.781 0.010333 590.33 625.42 2.2616 2.1321 5.9321 165.13 0.23290 12.338 0.038713
85.375 512.37 undefined 450.35 460.30 1.7986 355.00 0.0028169 450.35 460.30 1.7986 2.0192 5.2809 274.12 0.035612 43.706 0.068437 355.00 0.0028169 450.35 460.30 1.7986 2.0192 5.2809 274.12 0.035612 43.706 0.068437
86.375 538.77 undefined 452.37 462.83 1.8043 355.00 0.0028169 452.37 462.83 1.8043 2.0181 5.1456 278.45 0.034518 43.733 0.068425 355.00 0.0028169 452.37 462.83 1.8043 2.0181 5.1456 278.45 0.034518 43.733 0.068425
87.375 565.33 undefined 454.39 465.37 1.8099 355.00 0.0028169 454.39 465.37 1.8099 2.0172 5.0249 282.62 0.033500 43.759 0.068424 355.00 0.0028169 454.39 465.37 1.8099 2.0172 5.0249 282.62 0.033500 43.759 0.068424
88.375 592.03 undefined 456.40 467.90 1.8154 355.00 0.0028169 456.40 467.90 1.8154 2.0166 4.9165 286.64 0.032550 43.786 0.068433 355.00 0.0028169 456.40 467.90 1.8154 2.0166 4.9165 286.64 0.032550 43.786 0.068433
89.375 618.86 undefined 458.42 470.44 1.8210 355.00 0.0028169 458.42 470.44 1.8210 2.0162 4.8184 290.52 0.031658 43.812 0.068449 355.00 0.0028169 458.42 470.44 1.8210 2.0162 4.8184 290.52 0.031658 43.812 0.068449
90.375 645.83 undefined 460.44 472.98 1.8266 355.00 0.0028169 460.44 472.98 1.8266 2.0160 4.7289 294.27 0.030818 43.839 0.068473 355.00 0.0028169 460.44 472.98 1.8266 2.0160 4.7289 294.27 0.030818 43.839 0.068473
91.375 672.91 undefined 462.45 475.52 1.8321 355.00 0.0028169 462.45 475.52 1.8321 2.0161 4.6470 297.90 0.030024 43.865 0.068503 355.00 0.0028169 462.45 475.52 1.8321 2.0161 4.6470 297.90 0.030024 43.865 0.068503
92.375 700.11 undefined 464.47 478.07 1.8376 355.00 0.0028169 464.47 478.07 1.8376 2.0164 4.5715 301.42 0.029271 43.892 0.068538 355.00 0.0028169 464.47 478.07 1.8376 2.0164 4.5715 301.42 0.029271 43.892 0.068538
93.375 727.41 undefined 466.48 480.61 1.8431 355.00 0.0028169 466.48 480.61 1.8431 2.0169 4.5018 304.84 0.028556 43.918 0.068578 355.00 0.0028169 466.48 480.61 1.8431 2.0169 4.5018 304.84 0.028556 43.918 0.068578
94.375 754.82 undefined 468.50 483.16 1.8486 355.00 0.0028169 468.50 483.16 1.8486 2.0176 4.4371 308.17 0.027874 43.945 0.068623 355.00 0.0028169 468.50 483.16 1.8486 2.0176 4.4371 308.17 0.027874 43.945 0.068623
95.375 782.32 undefined 470.52 485.71 1.8541 355.00 0.0028169 470.52 485.71 1.8541 2.0185 4.3768 311.41 0.027223 43.972 0.068671 355.00 0.0028169 470.52 485.71 1.8541 2.0185 4.3768 311.41 0.027223 43.972 0.068671
96.375 809.91 undefined 472.54 488.27 1.8596 355.00 0.0028169 472.54 488.27 1.8596 2.0196 4.3206 314.58 0.026600 44.000 0.068722 355.00 0.0028169 472.54 488.27 1.8596 2.0196 4.3206 314.58 0.026600 44.000 0.068722
97.375 837.58 undefined 474.56 490.83 1.8650 355.00 0.0028169 474.56 490.83 1.8650 2.0208 4.2680 317.67 0.026002 44.026 0.068777 355.00 0.0028169 474.56 490.83 1.8650 2.0208 4.2680 317.67 0.026002 44.026 0.068777
98.375 865.34 undefined 476.58 493.39 1.8705 355.00 0.0028169 476.58 493.39 1.8705 2.0223 4.2187 320.69 0.025428 44.051 0.068835 355.00 0.0028169 476.58 493.39 1.8705 2.0223 4.2187 320.69 0.025428 44.051 0.068835
99.375 893.17 undefined 478.60 495.95 1.8759 355.00 0.0028169 478.60 495.95 1.8759 2.0238 4.1723 323.64 0.024876 44.077 0.068896 355.00 0.0028169 478.60 495.95 1.8759 2.0238 4.1723 323.64 0.024876 44.077 0.068896
100.38 921.08 undefined 480.63 498.52 1.8814 355.00 0.0028169 480.63 498.52 1.8814 2.0255 4.1286 326.54 0.024345 44.103 0.068958 355.00 0.0028169 480.63 498.52 1.8814 2.0255 4.1286 326.54 0.024345 44.103 0.068958
101.38 949.06 undefined 482.66 501.09 1.8868 355.00 0.0028169 482.66 501.09 1.8868 2.0274 4.0874 329.39 0.023832 44.129 0.069024 355.00 0.0028169 482.66 501.09 1.8868 2.0274 4.0874 329.39 0.023832 44.129 0.069024
102.38 977.10 undefined 484.68 503.66 1.8922 355.00 0.0028169 484.68 503.66 1.8922 2.0293 4.0485 332.18 0.023338 44.155 0.069091 355.00 0.0028169 484.68 503.66 1.8922 2.0293 4.0485 332.18 0.023338 44.155 0.069091
103.38 1005.2 undefined 486.71 506.24 1.8976 355.00 0.0028169 486.71 506.24 1.8976 2.0313 4.0116 334.92 0.022860 44.182 0.069160 355.00 0.0028169 486.71 506.24 1.8976 2.0313 4.0116 334.92 0.022860 44.182 0.069160
104.38 1033.4 undefined 488.75 508.82 1.9030 355.00 0.0028169 488.75 508.82 1.9030 2.0335 3.9767 337.62 0.022398 44.208 0.069231 355.00 0.0028169 488.75 508.82 1.9030 2.0335 3.9767 337.62 0.022398 44.208 0.069231
105.38 1061.6 undefined 490.78 511.40 1.9084 355.00 0.0028169 490.78 511.40 1.9084 2.0357 3.9436 340.27 0.021950 44.234 0.069304 355.00 0.0028169 490.78 511.40 1.9084 2.0357 3.9436 340.27 0.021950 44.234 0.069304
106.38 1089.9 undefined 492.82 513.99 1.9137 355.00 0.0028169 492.82 513.99 1.9137 2.0380 3.9121 342.88 0.021517 44.260 0.069378 355.00 0.0028169 492.82 513.99 1.9137 2.0380 3.9121 342.88 0.021517 44.260 0.069378
107.38 1118.2 undefined 494.86 516.58 1.9191 355.00 0.0028169 494.86 516.58 1.9191 2.0404 3.8822 345.45 0.021096 44.287 0.069454 355.00 0.0028169 494.86 516.58 1.9191 2.0404 3.8822 345.45 0.021096 44.287 0.069454
108.38 1146.6 undefined 496.90 519.17 1.9245 355.00 0.0028169 496.90 519.17 1.9245 2.0429 3.8537 347.99 0.020689 44.313 0.069531 355.00 0.0028169 496.90 519.17 1.9245 2.0429 3.8537 347.99 0.020689 44.313 0.069531
109.38 1175.1 undefined 498.94 521.76 1.9298 355.00 0.0028169 498.94 521.76 1.9298 2.0454 3.8266 350.49 0.020293 44.339 0.069610 355.00 0.0028169 498.94 521.76 1.9298 2.0454 3.8266 350.49 0.020293 44.339 0.069610
110.38 1203.6 undefined 500.99 524.37 1.9352 355.00 0.0028169 500.99 524.37 1.9352 2.0480 3.8007 352.95 0.019909 44.365 0.069690 355.00 0.0028169 500.99 524.37 1.9352 2.0480 3.8007 352.95 0.019909 44.365 0.069690
111.38 1232.1 undefined 503.04 526.97 1.9405 355.00 0.0028169 503.04 526.97 1.9405 2.0507 3.7760 355.38 0.019535 44.391 0.069771 355.00 0.0028169 503.04 526.97 1.9405 2.0507 3.7760 355.38 0.019535 44.391 0.069771
112.38 1260.7 undefined 505.09 529.58 1.9458 355.00 0.0028169 505.09 529.58 1.9458 2.0534 3.7524 357.79 0.019172 44.417 0.069853 355.00 0.0028169 505.09 529.58 1.9458 2.0534 3.7524 357.79 0.019172 44.417 0.069853
113.38 1289.3 undefined 507.15 532.19 1.9511 355.00 0.0028169 507.15 532.19 1.9511 2.0562 3.7298 360.16 0.018818 44.444 0.069936 355.00 0.0028169 507.15 532.19 1.9511 2.0562 3.7298 360.16 0.018818 44.444 0.069936
114.38 1318.0 undefined 509.20 534.80 1.9565 355.00 0.0028169 509.20 534.80 1.9565 2.0590 3.7082 362.50 0.018474 44.470 0.070021 355.00 0.0028169 509.20 534.80 1.9565 2.0590 3.7082 362.50 0.018474 44.470 0.070021
115.38 1346.7 undefined 511.26 537.42 1.9618 355.00 0.0028169 511.26 537.42 1.9618 2.0619 3.6875 364.82 0.018139 44.496 0.070107 355.00 0.0028169 511.26 537.42 1.9618 2.0619 3.6875 364.82 0.018139 44.496 0.070107
116.38 1375.5 undefined 513.33 540.04 1.9671 355.00 0.0028169 513.33 540.04 1.9671 2.0648 3.6677 367.11 0.017813 44.522 0.070193 355.00 0.0028169 513.33 540.04 1.9671 2.0648 3.6677 367.11 0.017813 44.522 0.070193
117.38 1404.3 undefined 515.39 542.67 1.9724 355.00 0.0028169 515.39 542.67 1.9724 2.0677 3.6488 369.37 0.017494 44.548 0.070281 355.00 0.0028169 515.39 542.67 1.9724 2.0677 3.6488 369.37 0.017494 44.548 0.070281
118.38 1433.1 undefined 517.46 545.30 1.9777 355.00 0.0028169 517.46 545.30 1.9777 2.0707 3.6305 371.61 0.017184 44.574 0.070369 355.00 0.0028169 517.46 545.30 1.9777 2.0707 3.6305 371.61 0.017184 44.574 0.070369
119.38 1461.9 undefined 519.53 547.93 1.9829 355.00 0.0028169 519.53 547.93 1.9829 2.0738 3.6131 373.82 0.016881 44.600 0.070458 355.00 0.0028169 519.53 547.93 1.9829 2.0738 3.6131 373.82 0.016881 44.600 0.070458
120.38 1490.8 undefined 521.61 550.56 1.9882 355.00 0.0028169 521.61 550.56 1.9882 2.0768 3.5963 376.02 0.016585 44.626 0.070548 355.00 0.0028169 521.61 550.56 1.9882 2.0768 3.5963 376.02 0.016585 44.626 0.070548
121.38 1519.8 undefined 523.69 553.20 1.9935 355.00 0.0028169 523.69 553.20 1.9935 2.0799 3.5802 378.19 0.016297 44.652 0.070639 355.00 0.0028169 523.69 553.20 1.9935 2.0799 3.5802 378.19 0.016297 44.652 0.070639
122.38 1548.7 undefined 525.77 555.85 1.9988 355.00 0.0028169 525.77 555.85 1.9988 2.0831 3.5647 380.33 0.016015 44.678 0.070731 355.00 0.0028169 525.77 555.85 1.9988 2.0831 3.5647 380.33 0.016015 44.678 0.070731
123.38 1577.7 undefined 527.85 558.50 2.0040 355.00 0.0028169 527.85 558.50 2.0040 2.0862 3.5498 382.46 0.015740 44.704 0.070823 355.00 0.0028169 527.85 558.50 2.0040 2.0862 3.5498 382.46 0.015740 44.704 0.070823
124.38 1606.7 undefined 529.94 561.15 2.0093 355.00 0.0028169 529.94 561.15 2.0093 2.0894 3.5355 384.57 0.015470 44.730 0.070917 355.00 0.0028169 529.94 561.15 2.0093 2.0894 3.5355 384.57 0.015470 44.730 0.070917
125.38 1635.8 undefined 532.03 563.80 2.0145 355.00 0.0028169 532.03 563.80 2.0145 2.0927 3.5217 386.66 0.015207 44.756 0.071011 355.00 0.0028169 532.03 563.80 2.0145 2.0927 3.5217 386.66 0.015207 44.756 0.071011
126.38 1664.8 undefined 534.13 566.46 2.0198 355.00 0.0028169 534.13 566.46 2.0198 2.0959 3.5085 388.73 0.014950 44.782 0.071105 355.00 0.0028169 534.13 566.46 2.0198 2.0959 3.5085 388.73 0.014950 44.782 0.071105
127.38 1694.0 undefined 536.23 569.12 2.0250 355.00 0.0028169 536.23 569.12 2.0250 2.0992 3.4957 390.78 0.014698 44.808 0.071201 355.00 0.0028169 536.23 569.12 2.0250 2.0992 3.4957 390.78 0.014698 44.808 0.071201
128.38 1723.1 undefined 538.33 571.79 2.0303 355.00 0.0028169 538.33 571.79 2.0303 2.1025 3.4834 392.82 0.014452 44.834 0.071297 355.00 0.0028169 538.33 571.79 2.0303 2.1025 3.4834 392.82 0.014452 44.834 0.071297
129.38 1752.2 undefined 540.43 574.46 2.0355 355.00 0.0028169 540.43 574.46 2.0355 2.1058 3.4716 394.84 0.014211 44.860 0.071393 355.00 0.0028169 540.43 574.46 2.0355 2.1058 3.4716 394.84 0.014211 44.860 0.071393
130.38 1781.4 undefined 542.54 577.14 2.0407 355.00 0.0028169 542.54 577.14 2.0407 2.1091 3.4602 396.84 0.013975 44.886 0.071491 355.00 0.0028169 542.54 577.14 2.0407 2.1091 3.4602 396.84 0.013975 44.886 0.071491
131.38 1810.6 undefined 544.65 579.81 2.0460 355.00 0.0028169 544.65 579.81 2.0460 2.1125 3.4492 398.82 0.013744 44.912 0.071589 355.00 0.0028169 544.65 579.81 2.0460 2.1125 3.4492 398.82 0.013744 44.912 0.071589
132.38 1839.8 undefined 546.76 582.50 2.0512 355.00 0.0028169 546.76 582.50 2.0512 2.1158 3.4386 400.79 0.013518 44.938 0.071687 355.00 0.0028169 546.76 582.50 2.0512 2.1158 3.4386 400.79 0.013518 44.938 0.071687
133.38 1869.1 undefined 548.88 585.18 2.0564 355.00 0.0028169 548.88 585.18 2.0564 2.1192 3.4284 402.74 0.013296 44.964 0.071786 355.00 0.0028169 548.88 585.18 2.0564 2.1192 3.4284 402.74 0.013296 44.964 0.071786
134.38 1898.3 undefined 551.00 587.87 2.0616 355.00 0.0028169 551.00 587.87 2.0616 2.1226 3.4186 404.68 0.013079 44.990 0.071886 355.00 0.0028169 551.00 587.87 2.0616 2.1226 3.4186 404.68 0.013079 44.990 0.071886
135.38 1927.6 undefined 553.13 590.56 2.0668 355.00 0.0028169 553.13 590.56 2.0668 2.1260 3.4091 406.61 0.012867 45.016 0.071986 355.00 0.0028169 553.13 590.56 2.0668 2.1260 3.4091 406.61 0.012867 45.016 0.071986
136.38 1956.9 undefined 555.25 593.26 2.0720 355.00 0.0028169 555.25 593.26 2.0720 2.1295 3.3999 408.52 0.012658 45.041 0.072087 355.00 0.0028169 555.25 593.26 2.0720 2.1295 3.3999 408.52 0.012658 45.041 0.072087
137.38 1986.3 undefined 557.38 595.96 2.0772 355.00 0.0028169 557.38 595.96 2.0772 2.1329 3.3910 410.41 0.012453 45.067 0.072188 355.00 0.0028169 557.38 595.96 2.0772 2.1329 3.3910 410.41 0.012453 45.067 0.072188
138.38 2015.6 undefined 559.52 598.67 2.0824 355.00 0.0028169 559.52 598.67 2.0824 2.1364 3.3825 412.29 0.012253 45.093 0.072290 355.00 0.0028169 559.52 598.67 2.0824 2.1364 3.3825 412.29 0.012253 45.093 0.072290
139.38 2045.0 undefined 561.66 601.37 2.0876 355.00 0.0028169 561.66 601.37 2.0876 2.1398 3.3743 414.16 0.012056 45.119 0.072393 355.00 0.0028169 561.66 601.37 2.0876 2.1398 3.3743 414.16 0.012056 45.119 0.072393
140.38 2074.4 undefined 563.80 604.09 2.0928 355.00 0.0028169 563.80 604.09 2.0928 2.1433 3.3663 416.02 0.011863 45.145 0.072496 355.00 0.0028169 563.80 604.09 2.0928 2.1433 3.3663 416.02 0.011863 45.145 0.072496
141.38 2103.8 undefined 565.94 606.80 2.0980 355.00 0.0028169 565.94 606.80 2.0980 2.1468 3.3586 417.86 0.011674 45.170 0.072599 355.00 0.0028169 565.94 606.80 2.0980 2.1468 3.3586 417.86 0.011674 45.170 0.072599
142.38 2133.2 undefined 568.09 609.52 2.1031 355.00 0.0028169 568.09 609.52 2.1031 2.1503 3.3512 419.69 0.011488 45.196 0.072703 355.00 0.0028169 568.09 609.52 2.1031 2.1503 3.3512 419.69 0.011488 45.196 0.072703
143.38 2162.6 undefined 570.24 612.25 2.1083 355.00 0.0028169 570.24 612.25 2.1083 2.1538 3.3441 421.51 0.011305 45.222 0.072808 355.00 0.0028169 570.24 612.25 2.1083 2.1538 3.3441 421.51 0.011305 45.222 0.072808
144.38 2192.1 undefined 572.40 614.97 2.1135 355.00 0.0028169 572.40 614.97 2.1135 2.1574 3.3372 423.32 0.011126 45.247 0.072913 355.00 0.0028169 572.40 614.97 2.1135 2.1574 3.3372 423.32 0.011126 45.247 0.072913
145.38 2221.6 undefined 574.56 617.71 2.1187 355.00 0.0028169 574.56 617.71 2.1187 2.1609 3.3305 425.12 0.010950 45.273 0.073018 355.00 0.0028169 574.56 617.71 2.1187 2.1609 3.3305 425.12 0.010950 45.273 0.073018
146.38 2251.0 undefined 576.72 620.44 2.1238 355.00 0.0028169 576.72 620.44 2.1238 2.1644 3.3241 426.90 0.010778 45.299 0.073124 355.00 0.0028169 576.72 620.44 2.1238 2.1644 3.3241 426.90 0.010778 45.299 0.073124
147.38 2280.5 undefined 578.89 623.18 2.1290 355.00 0.0028169 578.89 623.18 2.1290 2.1680 3.3178 428.68 0.010608 45.324 0.073230 355.00 0.0028169 578.89 623.18 2.1290 2.1680 3.3178 428.68 0.010608 45.324 0.073230
148.38 2310.0 undefined 581.06 625.92 2.1341 355.00 0.0028169 581.06 625.92 2.1341 2.1715 3.3118 430.44 0.010441 45.350 0.073337 355.00 0.0028169 581.06 625.92 2.1341 2.1715 3.3118 430.44 0.010441 45.350 0.073337
149.38 2339.6 undefined 583.23 628.67 2.1393 355.00 0.0028169 583.23 628.67 2.1393 2.1751 3.3060 432.19 0.010278 45.376 0.073444 355.00 0.0028169 583.23 628.67 2.1393 2.1751 3.3060 432.19 0.010278 45.376 0.073444
150.38 2369.1 undefined 585.41 631.42 2.1444 355.00 0.0028169 585.41 631.42 2.1444 2.1786 3.3004 433.93 0.010117 45.401 0.073552 355.00 0.0028169 585.41 631.42 2.1444 2.1786 3.3004 433.93 0.010117 45.401 0.073552
151.38 2398.6 undefined 587.59 634.17 2.1496 355.00 0.0028169 587.59 634.17 2.1496 2.1822 3.2950 435.66 0.0099585 45.427 0.073660 355.00 0.0028169 587.59 634.17 2.1496 2.1822 3.2950 435.66 0.0099585 45.427 0.073660
152.38 2428.2 undefined 589.77 636.93 2.1547 355.00 0.0028169 589.77 636.93 2.1547 2.1858 3.2898 437.39 0.0098031 45.453 0.073769 355.00 0.0028169 589.77 636.93 2.1547 2.1858 3.2898 437.39 0.0098031 45.453 0.073769
153.38 2457.8 undefined 591.96 639.69 2.1598 355.00 0.0028169 591.96 639.69 2.1598 2.1894 3.2848 439.10 0.0096504 45.478 0.073878 355.00 0.0028169 591.96 639.69 2.1598 2.1894 3.2848 439.10 0.0096504 45.478 0.073878
154.38 2487.4 undefined 594.15 642.46 2.1650 355.00 0.0028169 594.15 642.46 2.1650 2.1930 3.2799 440.80 0.0095002 45.504 0.073987 355.00 0.0028169 594.15 642.46 2.1650 2.1930 3.2799 440.80 0.0095002 45.504 0.073987
155.38 2517.0 undefined 596.35 645.23 2.1701 355.00 0.0028169 596.35 645.23 2.1701 2.1966 3.2752 442.49 0.0093525 45.529 0.074097 355.00 0.0028169 596.35 645.23 2.1701 2.1966 3.2752 442.49 0.0093525 45.529 0.074097
156.38 2546.6 undefined 598.54 648.00 2.1752 355.00 0.0028169 598.54 648.00 2.1752 2.2002 3.2707 444.17 0.0092072 45.555 0.074207 355.00 0.0028169 598.54 648.00 2.1752 2.2002 3.2707 444.17 0.0092072 45.555 0.074207
157.38 2576.2 undefined 600.75 650.78 2.1803 355.00 0.0028169 600.75 650.78 2.1803 2.2038 3.2664 445.85 0.0090644 45.580 0.074318 355.00 0.0028169 600.75 650.78 2.1803 2.2038 3.2664 445.85 0.0090644 45.580 0.074318
158.38 2605.8 undefined 602.95 653.56 2.1855 355.00 0.0028169 602.95 653.56 2.1855 2.2074 3.2621 447.51 0.0089238 45.606 0.074429 355.00 0.0028169 602.95 653.56 2.1855 2.2074 3.2621 447.51 0.0089238 45.606 0.074429
159.38 2635.5 undefined 605.16 656.35 2.1906 355.00 0.0028169 605.16 656.35 2.1906 2.2110 3.2581 449.17 0.0087856 45.631 0.074541 355.00 0.0028169 605.16 656.35 2.1906 2.2110 3.2581 449.17 0.0087856 45.631 0.074541
160.38 2665.1 undefined 607.37 659.13 2.1957 355.00 0.0028169 607.37 659.13 2.1957 2.2146 3.2542 450.81 0.0086496 45.657 0.074652 355.00 0.0028169 607.37 659.13 2.1957 2.2146 3.2542 450.81 0.0086496 45.657 0.074652
161.38 2694.8 undefined 609.59 661.93 2.2008 355.00 0.0028169 609.59 661.93 2.2008 2.2182 3.2504 452.45 0.0085157 45.682 0.074765 355.00 0.0028169 609.59 661.93 2.2008 2.2182 3.2504 452.45 0.0085157 45.682 0.074765
162.38 2724.4 undefined 611.81 664.72 2.2059 355.00 0.0028169 611.81 664.72 2.2059 2.2218 3.2467 454.08 0.0083840 45.708 0.074877 355.00 0.0028169 611.81 664.72 2.2059 2.2218 3.2467 454.08 0.0083840 45.708 0.074877
163.38 2754.1 undefined 614.03 667.52 2.2110 355.00 0.0028169 614.03 667.52 2.2110 2.2254 3.2432 455.70 0.0082543 45.733 0.074991 355.00 0.0028169 614.03 667.52 2.2110 2.2254 3.2432 455.70 0.0082543 45.733 0.074991
164.38 2783.8 undefined 616.26 670.33 2.2161 355.00 0.0028169 616.26 670.33 2.2161 2.2291 3.2399 457.31 0.0081267 45.758 0.075104 355.00 0.0028169 616.26 670.33 2.2161 2.2291 3.2399 457.31 0.0081267 45.758 0.075104
165.38 2813.5 undefined 618.49 673.13 2.2212 355.00 0.0028169 618.49 673.13 2.2212 2.2327 3.2366 458.92 0.0080010 45.784 0.075218 355.00 0.0028169 618.49 673.13 2.2212 2.2327 3.2366 458.92 0.0080010 45.784 0.075218
166.38 2843.2 undefined 620.73 675.95 2.2263 355.00 0.0028169 620.73 675.95 2.2263 2.2363 3.2335 460.52 0.0078773 45.809 0.075332 355.00 0.0028169 620.73 675.95 2.2263 2.2363 3.2335 460.52 0.0078773 45.809 0.075332
167.38 2872.9 undefined 622.96 678.76 2.2314 355.00 0.0028169 622.96 678.76 2.2314 2.2400 3.2305 462.11 0.0077555 45.835 0.075447 355.00 0.0028169 622.96 678.76 2.2314 2.2400 3.2305 462.11 0.0077555 45.835 0.075447
168.38 2902.6 undefined 625.21 681.58 2.2364 355.00 0.0028169 625.21 681.58 2.2364 2.2436 3.2276 463.69 0.0076355 45.860 0.075562 355.00 0.0028169 625.21 681.58 2.2364 2.2436 3.2276 463.69 0.0076355 45.860 0.075562
169.38 2932.3 undefined 627.45 684.40 2.2415 355.00 0.0028169 627.45 684.40 2.2415 2.2472 3.2248 465.26 0.0075174 45.885 0.075677 355.00 0.0028169 627.45 684.40 2.2415 2.2472 3.2248 465.26 0.0075174 45.885 0.075677
170.38 2962.0 undefined 629.70 687.23 2.2466 355.00 0.0028169 629.70 687.23 2.2466 2.2509 3.2221 466.83 0.0074010 45.910 0.075793 355.00 0.0028169 629.70 687.23 2.2466 2.2509 3.2221 466.83 0.0074010 45.910 0.075793
171.38 2991.8 undefined 631.95 690.06 2.2517 355.00 0.0028169 631.95 690.06 2.2517 2.2545 3.2195 468.38 0.0072864 45.936 0.075909 355.00 0.0028169 631.95 690.06 2.2517 2.2545 3.2195 468.38 0.0072864 45.936 0.075909
172.38 3021.5 undefined 634.21 692.89 2.2567 355.00 0.0028169 634.21 692.89 2.2567 2.2581 3.2170 469.94 0.0071734 45.961 0.076025 355.00 0.0028169 634.21 692.89 2.2567 2.2581 3.2170 469.94 0.0071734 45.961 0.076025
173.38 3051.2 undefined 636.47 695.73 2.2618 355.00 0.0028169 636.47 695.73 2.2618 2.2618 3.2147 471.48 0.0070622 45.986 0.076142 355.00 0.0028169 636.47 695.73 2.2618 2.2618 3.2147 471.48 0.0070622 45.986 0.076142
174.38 3081.0 undefined 638.73 698.57 2.2669 355.00 0.0028169 638.73 698.57 2.2669 2.2654 3.2124 473.02 0.0069525 46.012 0.076259 355.00 0.0028169 638.73 698.57 2.2669 2.2654 3.2124 473.02 0.0069525 46.012 0.076259
175.38 3110.7 undefined 641.00 701.42 2.2719 355.00 0.0028169 641.00 701.42 2.2719 2.2691 3.2102 474.55 0.0068445 46.037 0.076377 355.00 0.0028169 641.00 701.42 2.2719 2.2691 3.2102 474.55 0.0068445 46.037 0.076377
176.38 3140.5 undefined 643.27 704.27 2.2770 355.00 0.0028169 643.27 704.27 2.2770 2.2727 3.2081 476.07 0.0067380 46.062 0.076495 355.00 0.0028169 643.27 704.27 2.2770 2.2727 3.2081 476.07 0.0067380 46.062 0.076495
177.38 3170.3 undefined 645.55 707.12 2.2820 355.00 0.0028169 645.55 707.12 2.2820 2.2763 3.2061 477.58 0.0066331 46.087 0.076613 355.00 0.0028169 645.55 707.12 2.2820 2.2763 3.2061 477.58 0.0066331 46.087 0.076613
178.38 3200.0 undefined 647.82 709.97 2.2871 355.00 0.0028169 647.82 709.97 2.2871 2.2800 3.2042 479.09 0.0065296 46.112 0.076731 355.00 0.0028169 647.82 709.97 2.2871 2.2800 3.2042 479.09 0.0065296 46.112 0.076731
179.38 3229.8 undefined 650.11 712.83 2.2921 355.00 0.0028169 650.11 712.83 2.2921 2.2836 3.2024 480.60 0.0064276 46.137 0.076850 355.00 0.0028169 650.11 712.83 2.2921 2.2836 3.2024 480.60 0.0064276 46.137 0.076850
180.38 3259.6 undefined 652.39 715.70 2.2972 355.00 0.0028169 652.39 715.70 2.2972 2.2873 3.2007 482.09 0.0063271 46.163 0.076970 355.00 0.0028169 652.39 715.70 2.2972 2.2873 3.2007 482.09 0.0063271 46.163 0.076970
181.38 3289.4 undefined 654.68 718.57 2.3022 355.00 0.0028169 654.68 718.57 2.3022 2.2909 3.1990 483.58 0.0062280 46.188 0.077089 355.00 0.0028169 654.68 718.57 2.3022 2.2909 3.1990 483.58 0.0062280 46.188 0.077089
182.38 3319.1 undefined 656.97 721.44 2.3073 355.00 0.0028169 656.97 721.44 2.3073 2.2946 3.1974 485.06 0.0061302 46.213 0.077209 355.00 0.0028169 656.97 721.44 2.3073 2.2946 3.1974 485.06 0.0061302 46.213 0.077209
183.38 3348.9 undefined 659.27 724.31 2.3123 355.00 0.0028169 659.27 724.31 2.3123 2.2982 3.1959 486.54 0.0060339 46.238 0.077330 355.00 0.0028169 659.27 724.31 2.3123 2.2982 3.1959 486.54 0.0060339 46.238 0.077330
184.38 3378.7 undefined 661.57 727.19 2.3173 355.00 0.0028169 661.57 727.19 2.3173 2.3019 3.1945 488.01 0.0059388 46.263 0.077450 355.00 0.0028169 661.57 727.19 2.3173 2.3019 3.1945 488.01 0.0059388 46.263 0.077450
185.38 3408.5 undefined 663.87 730.07 2.3224 355.00 0.0028169 663.87 730.07 2.3224 2.3055 3.1931 489.47 0.0058451 46.288 0.077571 355.00 0.0028169 663.87 730.07 2.3224 2.3055 3.1931 489.47 0.0058451 46.288 0.077571
186.38 3438.3 undefined 666.18 732.96 2.3274 355.00 0.0028169 666.18 732.96 2.3274 2.3092 3.1918 490.93 0.0057526 46.313 0.077692 355.00 0.0028169 666.18 732.96 2.3274 2.3092 3.1918 490.93 0.0057526 46.313 0.077692
187.38 3468.1 undefined 668.49 735.85 2.3324 355.00 0.0028169 668.49 735.85 2.3324 2.3128 3.1906 492.38 0.0056614 46.338 0.077814 355.00 0.0028169 668.49 735.85 2.3324 2.3128 3.1906 492.38 0.0056614 46.338 0.077814
188.38 3497.9 undefined 670.81 738.74 2.3374 355.00 0.0028169 670.81 738.74 2.3374 2.3164 3.1895 493.83 0.0055714 46.363 0.077936 355.00 0.0028169 670.81 738.74 2.3374 2.3164 3.1895 493.83 0.0055714 46.363 0.077936
189.38 3527.7 undefined 673.12 741.64 2.3425 355.00 0.0028169 673.12 741.64 2.3425 2.3201 3.1884 495.27 0.0054827 46.388 0.078058 355.00 0.0028169 673.12 741.64 2.3425 2.3201 3.1884 495.27 0.0054827 46.388 0.078058
190.38 3557.5 undefined 675.45 744.54 2.3475 355.00 0.0028169 675.45 744.54 2.3475 2.3237 3.1874 496.70 0.0053951 46.413 0.078181 355.00 0.0028169 675.45 744.54 2.3475 2.3237 3.1874 496.70 0.0053951 46.413 0.078181
191.38 3587.3 undefined 677.77 747.44 2.3525 355.00 0.0028169 677.77 747.44 2.3525 2.3274 3.1864 498.13 0.0053087 46.438 0.078304 355.00 0.0028169 677.77 747.44 2.3525 2.3274 3.1864 498.13 0.0053087 46.438 0.078304
192.38 3617.1 undefined 680.10 750.35 2.3575 355.00 0.0028169 680.10 750.35 2.3575 2.3310 3.1856 499.55 0.0052234 46.463 0.078427 355.00 0.0028169 680.10 750.35 2.3575 2.3310 3.1856 499.55 0.0052234 46.463 0.078427
193.38 3647.0 undefined 682.43 753.26 2.3625 355.00 0.0028169 682.43 753.26 2.3625 2.3347 3.1847 500.97 0.0051392 46.488 0.078551 355.00 0.0028169 682.43 753.26 2.3625 2.3347 3.1847 500.97 0.0051392 46.488 0.078551
194.38 3676.8 undefined 684.77 756.18 2.3675 355.00 0.0028169 684.77 756.18 2.3675 2.3383 3.1840 502.38 0.0050562 46.513 0.078675 355.00 0.0028169 684.77 756.18 2.3675 2.3383 3.1840 502.38 0.0050562 46.513 0.078675
195.38 3706.6 undefined 687.11 759.10 2.3725 355.00 0.0028169 687.11 759.10 2.3725 2.3419 3.1833 503.79 0.0049742 46.538 0.078799 355.00 0.0028169 687.11 759.10 2.3725 2.3419 3.1833 503.79 0.0049742 46.538 0.078799
196.38 3736.4 undefined 689.45 762.02 2.3775 355.00 0.0028169 689.45 762.02 2.3775 2.3456 3.1826 505.19 0.0048933 46.563 0.078924 355.00 0.0028169 689.45 762.02 2.3775 2.3456 3.1826 505.19 0.0048933 46.563 0.078924
197.38 3766.2 undefined 691.80 764.95 2.3825 355.00 0.0028169 691.80 764.95 2.3825 2.3492 3.1820 506.58 0.0048135 46.587 0.079048 355.00 0.0028169 691.80 764.95 2.3825 2.3492 3.1820 506.58 0.0048135 46.587 0.079048
198.38 3796.0 undefined 694.15 767.88 2.3875 355.00 0.0028169 694.15 767.88 2.3875 2.3529 3.1815 507.97 0.0047346 46.612 0.079174 355.00 0.0028169 694.15 767.88 2.3875 2.3529 3.1815 507.97 0.0047346 46.612 0.079174
199.38 3825.8 undefined 696.51 770.81 2.3925 355.00 0.0028169 696.51 770.81 2.3925 2.3565 3.1810 509.35 0.0046568 46.637 0.079299 355.00 0.0028169 696.51 770.81 2.3925 2.3565 3.1810 509.35 0.0046568 46.637 0.079299
200.38 3855.7 undefined 698.87 773.75 2.3975 355.00 0.0028169 698.87 773.75 2.3975 2.3601 3.1805 510.73 0.0045800 46.662 0.079425 355.00 0.0028169 698.87 773.75 2.3975 2.3601 3.1805 510.73 0.0045800 46.662 0.079425
201.38 3885.5 undefined 701.23 776.69 2.4024 355.00 0.0028169 701.23 776.69 2.4024 2.3638 3.1802 512.11 0.0045041 46.687 0.079551 355.00 0.0028169 701.23 776.69 2.4024 2.3638 3.1802 512.11 0.0045041 46.687 0.079551
202.38 3915.3 undefined 703.59 779.64 2.4074 355.00 0.0028169 703.59 779.64 2.4074 2.3674 3.1798 513.48 0.0044292 46.711 0.079678 355.00 0.0028169 703.59 779.64 2.4074 2.3674 3.1798 513.48 0.0044292 46.711 0.079678
203.38 3945.1 undefined 705.96 782.58 2.4124 355.00 0.0028169 705.96 782.58 2.4124 2.3710 3.1795 514.84 0.0043553 46.736 0.079804 355.00 0.0028169 705.96 782.58 2.4124 2.3710 3.1795 514.84 0.0043553 46.736 0.079804
204.38 3974.9 undefined 708.34 785.54 2.4174 355.00 0.0028169 708.34 785.54 2.4174 2.3747 3.1793 516.20 0.0042822 46.761 0.079931 355.00 0.0028169 708.34 785.54 2.4174 2.3747 3.1793 516.20 0.0042822 46.761 0.079931
205.38 4004.7 undefined 710.71 788.49 2.4223 355.00 0.0028169 710.71 788.49 2.4223 2.3783 3.1791 517.55 0.0042101 46.786 0.080059 355.00 0.0028169 710.71 788.49 2.4223 2.3783 3.1791 517.55 0.0042101 46.786 0.080059
206.38 4034.6 undefined 713.09 791.45 2.4273 355.00 0.0028169 713.09 791.45 2.4273 2.3819 3.1789 518.90 0.0041388 46.810 0.080186 355.00 0.0028169 713.09 791.45 2.4273 2.3819 3.1789 518.90 0.0041388 46.810 0.080186
207.38 4064.4 undefined 715.48 794.41 2.4323 355.00 0.0028169 715.48 794.41 2.4323 2.3856 3.1788 520.24 0.0040685 46.835 0.080314 355.00 0.0028169 715.48 794.41 2.4323 2.3856 3.1788 520.24 0.0040685 46.835 0.080314
208.38 4094.2 undefined 717.86 797.38 2.4372 355.00 0.0028169 717.86 797.38 2.4372 2.3892 3.1788 521.58 0.0039990 46.860 0.080443 355.00 0.0028169 717.86 797.38 2.4372 2.3892 3.1788 521.58 0.0039990 46.860 0.080443
209.38 4124.0 undefined 720.25 800.35 2.4422 355.00 0.0028169 720.25 800.35 2.4422 2.3928 3.1788 522.92 0.0039303 46.884 0.080571 355.00 0.0028169 720.25 800.35 2.4422 2.3928 3.1788 522.92 0.0039303 46.884 0.080571
210.38 4153.8 undefined 722.65 803.32 2.4472 355.00 0.0028169 722.65 803.32 2.4472 2.3964 3.1788 524.25 0.0038625 46.909 0.080700 355.00 0.0028169 722.65 803.32 2.4472 2.3964 3.1788 524.25 0.0038625 46.909 0.080700
211.38 4183.6 undefined 725.05 806.30 2.4521 355.00 0.0028169 725.05 806.30 2.4521 2.4001 3.1788 525.57 0.0037955 46.934 0.080829 355.00 0.0028169 725.05 806.30 2.4521 2.4001 3.1788 525.57 0.0037955 46.934 0.080829
212.38 4213.4 undefined 727.45 809.28 2.4571 355.00 0.0028169 727.45 809.28 2.4571 2.4037 3.1790 526.89 0.0037293 46.958 0.080959 355.00 0.0028169 727.45 809.28 2.4571 2.4037 3.1790 526.89 0.0037293 46.958 0.080959
213.38 4243.2 undefined 729.85 812.27 2.4620 355.00 0.0028169 729.85 812.27 2.4620 2.4073 3.1791 528.21 0.0036639 46.983 0.081088 355.00 0.0028169 729.85 812.27 2.4620 2.4073 3.1791 528.21 0.0036639 46.983 0.081088
214.38 4273.1 undefined 732.26 815.25 2.4670 355.00 0.0028169 732.26 815.25 2.4670 2.4109 3.1793 529.52 0.0035993 47.007 0.081218 355.00 0.0028169 732.26 815.25 2.4670 2.4109 3.1793 529.52 0.0035993 47.007 0.081218
215.38 4302.9 undefined 734.68 818.25 2.4719 355.00 0.0028169 734.68 818.25 2.4719 2.4145 3.1795 530.82 0.0035354 47.032 0.081349 355.00 0.0028169 734.68 818.25 2.4719 2.4145 3.1795 530.82 0.0035354 47.032 0.081349
216.38 4332.7 undefined 737.09 821.24 2.4768 355.00 0.0028169 737.09 821.24 2.4768 2.4181 3.1798 532.13 0.0034723 47.056 0.081479 355.00 0.0028169 737.09 821.24 2.4768 2.4181 3.1798 532.13 0.0034723 47.056 0.081479
217.38 4362.5 undefined 739.51 824.24 2.4818 355.00 0.0028169 739.51 824.24 2.4818 2.4217 3.1801 533.42 0.0034100 47.081 0.081610 355.00 0.0028169 739.51 824.24 2.4818 2.4217 3.1801 533.42 0.0034100 47.081 0.081610
218.38 4392.3 undefined 741.94 827.24 2.4867 355.00 0.0028169 741.94 827.24 2.4867 2.4254 3.1804 534.72 0.0033483 47.105 0.081741 355.00 0.0028169 741.94 827.24 2.4867 2.4254 3.1804 534.72 0.0033483 47.105 0.081741
219.38 4422.1 undefined 744.36 830.25 2.4916 355.00 0.0028169 744.36 830.25 2.4916 2.4290 3.1808 536.01 0.0032874 47.130 0.081873 355.00 0.0028169 744.36 830.25 2.4916 2.4290 3.1808 536.01 0.0032874 47.130 0.081873
220.38 4451.9 undefined 746.79 833.26 2.4966 355.00 0.0028169 746.79 833.26 2.4966 2.4326 3.1811 537.29 0.0032273 47.154 0.082005 355.00 0.0028169 746.79 833.26 2.4966 2.4326 3.1811 537.29 0.0032273 47.154 0.082005
221.38 4481.6 undefined 749.23 836.27 2.5015 355.00 0.0028169 749.23 836.27 2.5015 2.4362 3.1816 538.57 0.0031678 47.179 0.082137 355.00 0.0028169 749.23 836.27 2.5015 2.4362 3.1816 538.57 0.0031678 47.179 0.082137
222.38 4511.4 undefined 751.67 839.29 2.5064 355.00 0.0028169 751.67 839.29 2.5064 2.4398 3.1820 539.85 0.0031090 47.203 0.082269 355.00 0.0028169 751.67 839.29 2.5064 2.4398 3.1820 539.85 0.0031090 47.203 0.082269
223.38 4541.2 undefined 754.11 842.31 2.5114 355.00 0.0028169 754.11 842.31 2.5114 2.4434 3.1825 541.12 0.0030508 47.228 0.082402 355.00 0.0028169 754.11 842.31 2.5114 2.4434 3.1825 541.12 0.0030508 47.228 0.082402
224.38 4571.0 undefined 756.55 845.33 2.5163 355.00 0.0028169 756.55 845.33 2.5163 2.4470 3.1831 542.39 0.0029934 47.252 0.082535 355.00 0.0028169 756.55 845.33 2.5163 2.4470 3.1831 542.39 0.0029934 47.252 0.082535
225.38 4600.8 undefined 759.00 848.36 2.5212 355.00 0.0028169 759.00 848.36 2.5212 2.4506 3.1836 543.65 0.0029366 47.276 0.082668 355.00 0.0028169 759.00 848.36 2.5212 2.4506 3.1836 543.65 0.0029366 47.276 0.082668
226.38 4630.6 undefined 761.45 851.39 2.5261 355.00 0.0028169 761.45 851.39 2.5261 2.4542 3.1842 544.91 0.0028804 47.301 0.082801 355.00 0.0028169 761.45 851.39 2.5261 2.4542 3.1842 544.91 0.0028804 47.301 0.082801
227.38 4660.3 undefined 763.91 854.42 2.5310 355.00 0.0028169 763.91 854.42 2.5310 2.4578 3.1848 546.17 0.0028249 47.325 0.082935 355.00 0.0028169 763.91 854.42 2.5310 2.4578 3.1848 546.17 0.0028249 47.325 0.082935
228.38 4690.1 undefined 766.37 857.46 2.5359 355.00 0.0028169 766.37 857.46 2.5359 2.4613 3.1855 547.42 0.0027700 47.349 0.083069 355.00 0.0028169 766.37 857.46 2.5359 2.4613 3.1855 547.42 0.0027700 47.349 0.083069
229.38 4719.9 undefined 768.83 860.50 2.5408 355.00 0.0028169 768.83 860.50 2.5408 2.4649 3.1862 548.67 0.0027158 47.374 0.083203 355.00 0.0028169 768.83 860.50 2.5408 2.4649 3.1862 548.67 0.0027158 47.374 0.083203
230.38 4749.7 undefined 771.30 863.55 2.5457 355.00 0.0028169 771.30 863.55 2.5457 2.4685 3.1869 549.91 0.0026621 47.398 0.083338 355.00 0.0028169 771.30 863.55 2.5457 2.4685 3.1869 549.91 0.0026621 47.398 0.083338
231.38 4779.4 undefined 773.77 866.59 2.5506 355.00 0.0028169 773.77 866.59 2.5506 2.4721 3.1876 551.15 0.0026090 47.422 0.083472 355.00 0.0028169 773.77 866.59 2.5506 2.4721 3.1876 551.15 0.0026090 47.422 0.083472
232.38 4809.2 undefined 776.24 869.65 2.5555 355.00 0.0028169 776.24 869.65 2.5555 2.4757 3.1884 552.39 0.0025566 47.446 0.083607 355.00 0.0028169 776.24 869.65 2.5555 2.4757 3.1884 552.39 0.0025566 47.446 0.083607
233.38 4838.9 undefined 778.72 872.70 2.5604 355.00 0.0028169 778.72 872.70 2.5604 2.4792 3.1892 553.62 0.0025047 47.471 0.083743 355.00 0.0028169 778.72 872.70 2.5604 2.4792 3.1892 553.62 0.0025047 47.471 0.083743
234.38 4868.7 undefined 781.20 875.76 2.5653 355.00 0.0028169 781.20 875.76 2.5653 2.4828 3.1900 554.85 0.0024534 47.495 0.083878 355.00 0.0028169 781.20 875.76 2.5653 2.4828 3.1900 554.85 0.0024534 47.495 0.083878
235.38 4898.4 undefined 783.69 878.82 2.5702 355.00 0.0028169 783.69 878.82 2.5702 2.4864 3.1908 556.08 0.0024026 47.519 0.084014 355.00 0.0028169 783.69 878.82 2.5702 2.4864 3.1908 556.08 0.0024026 47.519 0.084014
236.38 4928.2 undefined 786.17 881.89 2.5751 355.00 0.0028169 786.17 881.89 2.5751 2.4900 3.1917 557.30 0.0023524 47.543 0.084150 355.00 0.0028169 786.17 881.89 2.5751 2.4900 3.1917 557.30 0.0023524 47.543 0.084150
237.38 4957.9 undefined 788.67 884.96 2.5800 355.00 0.0028169 788.67 884.96 2.5800 2.4935 3.1926 558.52 0.0023028 47.567 0.084286 355.00 0.0028169 788.67 884.96 2.5800 2.4935 3.1926 558.52 0.0023028 47.567 0.084286
238.38 4987.7 undefined 791.16 888.03 2.5849 355.00 0.0028169 791.16 888.03 2.5849 2.4971 3.1935 559.73 0.0022537 47.591 0.084423 355.00 0.0028169 791.16 888.03 2.5849 2.4971 3.1935 559.73 0.0022537 47.591 0.084423
239.38 5017.4 undefined 793.66 891.11 2.5898 355.00 0.0028169 793.66 891.11 2.5898 2.5007 3.1944 560.94 0.0022051 47.616 0.084560 355.00 0.0028169 793.66 891.11 2.5898 2.5007 3.1944 560.94 0.0022051 47.616 0.084560
240.38 5047.1 undefined 796.16 894.19 2.5946 355.00 0.0028169 796.16 894.19 2.5946 2.5042 3.1954 562.15 0.0021571 47.640 0.084697 355.00 0.0028169 796.16 894.19 2.5946 2.5042 3.1954 562.15 0.0021571 47.640 0.084697
241.38 5076.8 undefined 798.67 897.27 2.5995 355.00 0.0028169 798.67 897.27 2.5995 2.5078 3.1964 563.35 0.0021095 47.664 0.084834 355.00 0.0028169 798.67 897.27 2.5995 2.5078 3.1964 563.35 0.0021095 47.664 0.084834
242.38 5106.6 undefined 801.18 900.36 2.6044 355.00 0.0028169 801.18 900.36 2.6044 2.5113 3.1974 564.55 0.0020625 47.688 0.084971 355.00 0.0028169 801.18 900.36 2.6044 2.5113 3.1974 564.55 0.0020625 47.688 0.084971
243.38 5136.3 undefined 803.69 903.45 2.6092 355.00 0.0028169 803.69 903.45 2.6092 2.5149 3.1984 565.75 0.0020160 47.712 0.085109 355.00 0.0028169 803.69 903.45 2.6092 2.5149 3.1984 565.75 0.0020160 47.712 0.085109
244.38 5166.0 undefined 806.21 906.54 2.6141 355.00 0.0028169 806.21 906.54 2.6141 2.5184 3.1995 566.94 0.0019700 47.736 0.085247 355.00 0.0028169 806.21 906.54 2.6141 2.5184 3.1995 566.94 0.0019700 47.736 0.085247
245.38 5195.7 undefined 808.73 909.64 2.6190 355.00 0.0028169 808.73 909.64 2.6190 2.5220 3.2005 568.13 0.0019245 47.760 0.085385 355.00 0.0028169 808.73 909.64 2.6190 2.5220 3.2005 568.13 0.0019245 47.760 0.085385
246.38 5225.4 undefined 811.25 912.74 2.6238 355.00 0.0028169 811.25 912.74 2.6238 2.5255 3.2016 569.32 0.0018795 47.784 0.085524 355.00 0.0028169 811.25 912.74 2.6238 2.5255 3.2016 569.32 0.0018795 47.784 0.085524
247.38 5255.1 undefined 813.78 915.84 2.6287 355.00 0.0028169 813.78 915.84 2.6287 2.5291 3.2027 570.50 0.0018349 47.808 0.085662 355.00 0.0028169 813.78 915.84 2.6287 2.5291 3.2027 570.50 0.0018349 47.808 0.085662
248.38 5284.8 undefined 816.31 918.95 2.6336 355.00 0.0028169 816.31 918.95 2.6336 2.5326 3.2039 571.68 0.0017908 47.832 0.085801 355.00 0.0028169 816.31 918.95 2.6336 2.5326 3.2039 571.68 0.0017908 47.832 0.085801
249.38 5314.5 undefined 818.84 922.06 2.6384 355.00 0.0028169 818.84 922.06 2.6384 2.5361 3.2050 572.85 0.0017472 47.856 0.085940 355.00 0.0028169 818.84 922.06 2.6384 2.5361 3.2050 572.85 0.0017472 47.856 0.085940
250.38 5344.2 undefined 821.38 925.18 2.6433 355.00 0.0028169 821.38 925.18 2.6433 2.5397 3.2062 574.03 0.0017040 47.880 0.086079 355.00 0.0028169 821.38 925.18 2.6433 2.5397 3.2062 574.03 0.0017040 47.880 0.086079
251.38 5373.8 undefined 823.92 928.29 2.6481 355.00 0.0028169 823.92 928.29 2.6481 2.5432 3.2074 575.20 0.0016613 47.903 0.086226 355.00 0.0028169 823.92 928.29 2.6481 2.5432 3.2074 575.20 0.0016613 47.903 0.086226
252.38 5403.5 undefined 826.47 931.42 2.6530 355.00 0.0028169 826.47 931.42 2.6530 2.5467 3.2086 576.36 0.0016190 47.927 0.086374 355.00 0.0028169 826.47 931.42 2.6530 2.5467 3.2086 576.36 0.0016190 47.927 0.086374
253.38 5433.2 undefined 829.02 934.54 2.6578 355.00 0.0028169 829.02 934.54 2.6578 2.5502 3.2098 577.53 0.0015772 47.951 0.086524 355.00 0.0028169 829.02 934.54 2.6578 2.5502 3.2098 577.53 0.0015772 47.951 0.086524
254.38 5462.8 undefined 831.57 937.67 2.6626 355.00 0.0028169 831.57 937.67 2.6626 2.5538 3.2111 578.69 0.0015358 47.975 0.086673 355.00 0.0028169 831.57 937.67 2.6626 2.5538 3.2111 578.69 0.0015358 47.975 0.086673
255.38 5492.5 undefined 834.13 940.80 2.6675 355.00 0.0028169 834.13 940.80 2.6675 2.5573 3.2124 579.84 0.0014948 47.999 0.086823 355.00 0.0028169 834.13 940.80 2.6675 2.5573 3.2124 579.84 0.0014948 47.999 0.086823
256.38 5522.2 undefined 836.68 943.93 2.6723 355.00 0.0028169 836.68 943.93 2.6723 2.5608 3.2136 581.00 0.0014543 48.023 0.086973 355.00 0.0028169 836.68 943.93 2.6723 2.5608 3.2136 581.00 0.0014543 48.023 0.086973
257.38 5551.8 undefined 839.25 947.07 2.6772 355.00 0.0028169 839.25 947.07 2.6772 2.5643 3.2149 582.15 0.0014141 48.046 0.087123 355.00 0.0028169 839.25 947.07 2.6772 2.5643 3.2149 582.15 0.0014141 48.046 0.087123
258.38 5581.5 undefined 841.81 950.21 2.6820 355.00 0.0028169 841.81 950.21 2.6820 2.5678 3.2163 583.29 0.0013744 48.070 0.087273 355.00 0.0028169 841.81 950.21 2.6820 2.5678 3.2163 583.29 0.0013744 48.070 0.087273
259.38 5611.1 undefined 844.38 953.36 2.6868 355.00 0.0028169 844.38 953.36 2.6868 2.5713 3.2176 584.44 0.0013351 48.094 0.087424 355.00 0.0028169 844.38 953.36 2.6868 2.5713 3.2176 584.44 0.0013351 48.094 0.087424
260.38 5640.7 undefined 846.96 956.51 2.6917 355.00 0.0028169 846.96 956.51 2.6917 2.5748 3.2190 585.58 0.0012962 48.118 0.087575 355.00 0.0028169 846.96 956.51 2.6917 2.5748 3.2190 585.58 0.0012962 48.118 0.087575
261.38 5670.3 undefined 849.53 959.66 2.6965 355.00 0.0028169 849.53 959.66 2.6965 2.5783 3.2203 586.72 0.0012577 48.141 0.087727 355.00 0.0028169 849.53 959.66 2.6965 2.5783 3.2203 586.72 0.0012577 48.141 0.087727
262.38 5700.0 undefined 852.11 962.82 2.7013 355.00 0.0028169 852.11 962.82 2.7013 2.5818 3.2217 587.85 0.0012195 48.165 0.087879 355.00 0.0028169 852.11 962.82 2.7013 2.5818 3.2217 587.85 0.0012195 48.165 0.087879
263.38 5729.6 undefined 854.70 965.97 2.7061 355.00 0.0028169 854.70 965.97 2.7061 2.5853 3.2231 588.99 0.0011818 48.189 0.088031 355.00 0.0028169 854.70 965.97 2.7061 2.5853 3.2231 588.99 0.0011818 48.189 0.088031
264.38 5759.2 undefined 857.28 969.14 2.7109 355.00 0.0028169 857.28 969.14 2.7109 2.5888 3.2245 590.11 0.0011444 48.212 0.088183 355.00 0.0028169 857.28 969.14 2.7109 2.5888 3.2245 590.11 0.0011444 48.212 0.088183
265.38 5788.8 undefined 859.87 972.30 2.7158 355.00 0.0028169 859.87 972.30 2.7158 2.5923 3.2259 591.24 0.0011074 48.236 0.088336 355.00 0.0028169 859.87 972.30 2.7158 2.5923 3.2259 591.24 0.0011074 48.236 0.088336
266.38 5818.4 undefined 862.47 975.47 2.7206 355.00 0.0028169 862.47 975.47 2.7206 2.5958 3.2274 592.37 0.0010708 48.260 0.088489 355.00 0.0028169 862.47 975.47 2.7206 2.5958 3.2274 592.37 0.0010708 48.260 0.088489
267.38 5848.0 undefined 865.06 978.64 2.7254 355.00 0.0028169 865.06 978.64 2.7254 2.5992 3.2289 593.49 0.0010346 48.283 0.088642 355.00 0.0028169 865.06 978.64 2.7254 2.5992 3.2289 593.49 0.0010346 48.283 0.088642
268.38 5877.6 undefined 867.67 981.82 2.7302 355.00 0.0028169 867.67 981.82 2.7302 2.6027 3.2303 594.60 0.00099868 48.307 0.088795 355.00 0.0028169 867.67 981.82 2.7302 2.6027 3.2303 594.60 0.00099868 48.307 0.088795
269.38 5907.2 undefined 870.27 985.00 2.7350 355.00 0.0028169 870.27 985.00 2.7350 2.6062 3.2318 595.72 0.00096314 48.330 0.088949 355.00 0.0028169 870.27 985.00 2.7350 2.6062 3.2318 595.72 0.00096314 48.330 0.088949
270.38 5936.7 undefined 872.88 988.18 2.7398 355.00 0.0028169 872.88 988.18 2.7398 2.6097 3.2333 596.83 0.00092796 48.354 0.089103 355.00 0.0028169 872.88 988.18 2.7398 2.6097 3.2333 596.83 0.00092796 48.354 0.089103
271.38 5966.3 undefined 875.49 991.37 2.7446 355.00 0.0028169 875.49 991.37 2.7446 2.6131 3.2348 597.94 0.00089312 48.377 0.089258 355.00 0.0028169 875.49 991.37 2.7446 2.6131 3.2348 597.94 0.00089312 48.377 0.089258
272.38 5995.9 undefined 878.10 994.56 2.7494 355.00 0.0028169 878.10 994.56 2.7494 2.6166 3.2364 599.05 0.00085863 48.401 0.089412 355.00 0.0028169 878.10 994.56 2.7494 2.6166 3.2364 599.05 0.00085863 48.401 0.089412
273.38 6025.4 undefined 880.72 997.75 2.7542 355.00 0.0028169 880.72 997.75 2.7542 2.6201 3.2379 600.15 0.00082447 48.424 0.089567 355.00 0.0028169 880.72 997.75 2.7542 2.6201 3.2379 600.15 0.00082447 48.424 0.089567
274.38 6055.0 undefined 883.34 1000.9 2.7590 355.00 0.0028169 883.34 1000.9 2.7590 2.6235 3.2394 601.25 0.00079065 48.448 0.089722 355.00 0.0028169 883.34 1000.9 2.7590 2.6235 3.2394 601.25 0.00079065 48.448 0.089722
275.38 6084.5 undefined 885.97 1004.1 2.7638 355.00 0.0028169 885.97 1004.1 2.7638 2.6270 3.2410 602.35 0.00075716 48.471 0.089878 355.00 0.0028169 885.97 1004.1 2.7638 2.6270 3.2410 602.35 0.00075716 48.471 0.089878
276.38 6114.1 undefined 888.60 1007.3 2.7686 355.00 0.0028169 888.60 1007.3 2.7686 2.6304 3.2426 603.45 0.00072400 48.495 0.090034 355.00 0.0028169 888.60 1007.3 2.7686 2.6304 3.2426 603.45 0.00072400 48.495 0.090034
277.38 6143.6 undefined 891.23 1010.6 2.7733 355.00 0.0028169 891.23 1010.6 2.7733 2.6339 3.2442 604.54 0.00069116 48.518 0.090190 355.00 0.0028169 891.23 1010.6 2.7733 2.6339 3.2442 604.54 0.00069116 48.518 0.090190
278.38 6173.1 undefined 893.87 1013.8 2.7781 355.00 0.0028169 893.87 1013.8 2.7781 2.6373 3.2458 605.63 0.00065864 48.541 0.090346 355.00 0.0028169 893.87 1013.8 2.7781 2.6373 3.2458 605.63 0.00065864 48.541 0.090346
279.38 6202.6 undefined 896.51 1017.0 2.7829 355.00 0.0028169 896.51 1017.0 2.7829 2.6408 3.2474 606.72 0.00062643 48.565 0.090503 355.00 0.0028169 896.51 1017.0 2.7829 2.6408 3.2474 606.72 0.00062643 48.565 0.090503
280.38 6232.2 undefined 899.15 1020.2 2.7877 355.00 0.0028169 899.15 1020.2 2.7877 2.6442 3.2490 607.80 0.00059453 48.588 0.090660 355.00 0.0028169 899.15 1020.2 2.7877 2.6442 3.2490 607.80 0.00059453 48.588 0.090660
281.38 6261.7 undefined 901.79 1023.4 2.7925 355.00 0.0028169 901.79 1023.4 2.7925 2.6476 3.2507 608.88 0.00056294 48.611 0.090818 355.00 0.0028169 901.79 1023.4 2.7925 2.6476 3.2507 608.88 0.00056294 48.611 0.090818
282.38 6291.2 undefined 904.44 1026.6 2.7972 355.00 0.0028169 904.44 1026.6 2.7972 2.6511 3.2523 609.96 0.00053165 48.635 0.090474 355.00 0.0028169 904.44 1026.6 2.7972 2.6511 3.2523 609.96 0.00053165 48.635 0.090474
283.38 6320.7 undefined 907.10 1029.9 2.8020 355.00 0.0028169 907.10 1029.9 2.8020 2.6545 3.2540 611.04 0.00050067 48.658 0.090631 355.00 0.0028169 907.10 1029.9 2.8020 2.6545 3.2540 611.04 0.00050067 48.658 0.090631
284.38 6350.2 undefined 909.75 1033.1 2.8068 355.00 0.0028169 909.75 1033.1 2.8068 2.6579 3.2556 612.12 0.00046998 48.681 0.090788 355.00 0.0028169 909.75 1033.1 2.8068 2.6579 3.2556 612.12 0.00046998 48.681 0.090788
285.38 6379.6 undefined 912.41 1036.3 2.8115 355.00 0.0028169 912.41 1036.3 2.8115 2.6613 3.2573 613.19 0.00043958 48.704 0.090946 355.00 0.0028169 912.41 1036.3 2.8115 2.6613 3.2573 613.19 0.00043958 48.704 0.090946
286.38 6409.1 undefined 915.07 1039.6 2.8163 355.00 0.0028169 915.07 1039.6 2.8163 2.6647 3.2590 614.26 0.00040947 48.728 0.091103 355.00 0.0028169 915.07 1039.6 2.8163 2.6647 3.2590 614.26 0.00040947 48.728 0.091103
287.38 6438.6 undefined 917.74 1042.8 2.8211 355.00 0.0028169 917.74 1042.8 2.8211 2.6682 3.2607 615.32 0.00037964 48.751 0.091262 355.00 0.0028169 917.74 1042.8 2.8211 2.6682 3.2607 615.32 0.00037964 48.751 0.091262
288.38 6468.0 undefined 920.41 1046.0 2.8258 355.00 0.0028169 920.41 1046.0 2.8258 2.6716 3.2624 616.39 0.00035010 48.774 0.091420 355.00 0.0028169 920.41 1046.0 2.8258 2.6716 3.2624 616.39 0.00035010 48.774 0.091420
289.38 6497.5 undefined 923.08 1049.3 2.8306 355.00 0.0028169 923.08 1049.3 2.8306 2.6750 3.2642 617.45 0.00032084 48.797 0.091579 355.00 0.0028169 923.08 1049.3 2.8306 2.6750 3.2642 617.45 0.00032084 48.797 0.091579
290.38 6527.0 undefined 925.76 1052.5 2.8353 355.00 0.0028169 925.76 1052.5 2.8353 2.6784 3.2659 618.51 0.00029185 48.820 0.091738 355.00 0.0028169 925.76 1052.5 2.8353 2.6784 3.2659 618.51 0.00029185 48.820 0.091738
291.38 6556.4 undefined 928.44 1055.8 2.8401 355.00 0.0028169 928.44 1055.8 2.8401 2.6818 3.2676 619.57 0.00026314 48.844 0.091897 355.00 0.0028169 928.44 1055.8 2.8401 2.6818 3.2676 619.57 0.00026314 48.844 0.091897
292.38 6585.8 undefined 931.12 1059.0 2.8448 355.00 0.0028169 931.12 1059.0 2.8448 2.6852 3.2694 620.62 0.00023469 48.867 0.092057 355.00 0.0028169 931.12 1059.0 2.8448 2.6852 3.2694 620.62 0.00023469 48.867 0.092057
293.38 6615.3 undefined 933.81 1062.3 2.8496 355.00 0.0028169 933.81 1062.3 2.8496 2.6886 3.2711 621.68 0.00020651 48.890 0.092217 355.00 0.0028169 933.81 1062.3 2.8496 2.6886 3.2711 621.68 0.00020651 48.890 0.092217
294.38 6644.7 undefined 936.50 1065.6 2.8543 355.00 0.0028169 936.50 1065.6 2.8543 2.6920 3.2729 622.73 0.00017860 48.913 0.092377 355.00 0.0028169 936.50 1065.6 2.8543 2.6920 3.2729 622.73 0.00017860 48.913 0.092377
295.38 6674.1 undefined 939.19 1068.8 2.8591 355.00 0.0028169 939.19 1068.8 2.8591 2.6953 3.2747 623.77 0.00015094 48.936 0.092538 355.00 0.0028169 939.19 1068.8 2.8591 2.6953 3.2747 623.77 0.00015094 48.936 0.092538
296.38 6703.5 undefined 941.89 1072.1 2.8638 355.00 0.0028169 941.89 1072.1 2.8638 2.6987 3.2765 624.82 0.00012354 48.959 0.092698 355.00 0.0028169 941.89 1072.1 2.8638 2.6987 3.2765 624.82 0.00012354 48.959 0.092698
297.38 6732.9 undefined 944.59 1075.4 2.8685 355.00 0.0028169 944.59 1075.4 2.8685 2.7021 3.2783 625.86 9.6396e-05 48.982 0.092859 355.00 0.0028169 944.59 1075.4 2.8685 2.7021 3.2783 625.86 9.6396e-05 48.982 0.092859
298.38 6762.3 undefined 947.30 1078.6 2.8733 355.00 0.0028169 947.30 1078.6 2.8733 2.7055 3.2801 626.90 6.9502e-05 49.005 0.093021 355.00 0.0028169 947.30 1078.6 2.8733 2.7055 3.2801 626.90 6.9502e-05 49.005 0.093021
299.38 6791.7 undefined 950.00 1081.9 2.8780 355.00 0.0028169 950.00 1081.9 2.8780 2.7088 3.2819 627.94 4.2855e-05 49.028 0.093183 355.00 0.0028169 950.00 1081.9 2.8780 2.7088 3.2819 627.94 4.2855e-05 49.028 0.093183
300.38 6821.1 undefined 952.71 1085.2 2.8827 355.00 0.0028169 952.71 1085.2 2.8827 2.7122 3.2837 628.98 1.6454e-05 49.051 0.093345 355.00 0.0028169 952.71 1085.2 2.8827 2.7122 3.2837 628.98 1.6454e-05 49.051 0.093345