Temperature (C) Pressure (psia) Quality (l+v) Internal Energy (l+v, kJ/kg) Enthalpy (l+v, kJ/kg) Entropy (l+v, J/g*K) Density (l, kg/m3) Volume (l, m3/kg) Internal Energy (l, kJ/kg) Enthalpy (l, kJ/kg) Entropy (l, J/g*K) Cv (l, J/g*K) Cp (l, J/g*K) Sound Spd. (l, m/s) Joule-Thomson (l, F/psia) Viscosity (l, uPa*s) Therm. Cond. (l, W/m*K) Density (v, kg/m3) Volume (v, m3/kg) Internal Energy (v, kJ/kg) Enthalpy (v, kJ/kg) Entropy (v, J/g*K) Cv (v, J/g*K) Cp (v, J/g*K) Sound Spd. (v, m/s) Joule-Thomson (v, F/psia) Viscosity (v, uPa*s) Therm. Cond. (v, W/m*K)
-187.62 2.4953e-08 1.1790e-11 -196.64 -196.64 -1.3959 733.13 0.0013640 -196.64 -196.64 -1.3959 1.3553 1.9158 2136.4 -0.0077592 10960. 0.20792 1.0669e-08 9.3732e+07 350.13 366.26 5.1858 0.69067 0.87923 143.28 6.1051 2.3259 0.0017061
-186.62 3.7339e-08 1.7408e-11 -194.73 -194.73 -1.3736 732.08 0.0013660 -194.73 -194.73 -1.3736 1.3539 1.9166 2129.6 -0.0077546 10073. 0.20765 1.5780e-08 6.3371e+07 350.82 367.14 5.1200 0.69462 0.88317 144.03 5.9178 2.3534 0.0017533
-185.62 5.5322e-08 2.5452e-11 -192.81 -192.81 -1.3516 731.04 0.0013679 -192.81 -192.81 -1.3516 1.3525 1.9174 2122.9 -0.0077498 9276.1 0.20737 2.3112e-08 4.3267e+07 351.52 368.02 5.0561 0.69857 0.88713 144.77 5.7383 2.3808 0.0018007
-184.62 8.1182e-08 3.6862e-11 -190.89 -190.89 -1.3298 730.00 0.0013699 -190.89 -190.89 -1.3298 1.3513 1.9182 2116.1 -0.0077448 8557.8 0.20708 3.3533e-08 2.9821e+07 352.22 368.91 4.9939 0.70253 0.89108 145.51 5.5662 2.4083 0.0018485
-183.62 1.1803e-07 5.2902e-11 -188.97 -188.97 -1.3083 728.96 0.0013718 -188.97 -188.97 -1.3083 1.3501 1.9191 2109.3 -0.0077395 7909.8 0.20678 4.8211e-08 2.0742e+07 352.92 369.81 4.9333 0.70648 0.89504 146.24 5.4011 2.4357 0.0018965
-182.62 1.7009e-07 7.5256e-11 -187.05 -187.05 -1.2869 727.92 0.0013738 -187.05 -187.05 -1.2869 1.3490 1.9201 2102.5 -0.0077340 7324.3 0.20647 6.8704e-08 1.4555e+07 353.63 370.70 4.8744 0.71043 0.89899 146.97 5.2426 2.4632 0.0019448
-181.62 2.4299e-07 1.0615e-10 -185.13 -185.13 -1.2658 726.88 0.0013757 -185.13 -185.13 -1.2658 1.3480 1.9210 2095.7 -0.0077283 6794.5 0.20616 9.7079e-08 1.0301e+07 354.35 371.60 4.8170 0.71438 0.90294 147.69 5.0904 2.4906 0.0019934
-180.62 3.4425e-07 1.4849e-10 -183.21 -183.21 -1.2450 725.85 0.0013777 -183.21 -183.21 -1.2450 1.3470 1.9220 2088.9 -0.0077225 6314.4 0.20584 1.3605e-07 7.3504e+06 355.06 372.51 4.7612 0.71833 0.90688 148.41 4.9442 2.5181 0.0020423
-179.62 4.8378e-07 2.0607e-10 -181.29 -181.29 -1.2243 724.81 0.0013797 -181.29 -181.29 -1.2243 1.3461 1.9231 2082.0 -0.0077164 5878.8 0.20551 1.8915e-07 5.2868e+06 355.78 373.42 4.7068 0.72227 0.91082 149.13 4.8038 2.5456 0.0020915
-178.62 6.7459e-07 2.8380e-10 -179.37 -179.37 -1.2038 723.78 0.0013816 -179.37 -179.37 -1.2038 1.3453 1.9241 2075.2 -0.0077102 5482.9 0.20517 2.6096e-07 3.8320e+06 356.51 374.33 4.6538 0.72620 0.91475 149.84 4.6688 2.5731 0.0021410
-177.62 9.3358e-07 3.8793e-10 -177.44 -177.44 -1.1836 722.75 0.0013836 -177.44 -177.44 -1.1836 1.3445 1.9252 2068.4 -0.0077039 5122.6 0.20483 3.5737e-07 2.7982e+06 357.23 375.25 4.6022 0.73012 0.91867 150.54 4.5390 2.6005 0.0021907
-176.62 1.2826e-06 5.2648e-10 -175.52 -175.52 -1.1635 721.72 0.0013856 -175.52 -175.52 -1.1635 1.3437 1.9263 2061.5 -0.0076973 4794.1 0.20447 4.8588e-07 2.0581e+06 357.97 376.17 4.5519 0.73403 0.92258 151.25 4.4142 2.6280 0.0022408
-175.62 1.7496e-06 7.0953e-10 -173.59 -173.59 -1.1437 720.69 0.0013876 -173.59 -173.59 -1.1437 1.3430 1.9274 2054.7 -0.0076907 4494.3 0.20411 6.5601e-07 1.5244e+06 358.70 377.09 4.5029 0.73792 0.92648 151.95 4.2941 2.6555 0.0022912
-174.62 2.3705e-06 9.4979e-10 -171.66 -171.66 -1.1240 719.66 0.0013895 -171.66 -171.66 -1.1240 1.3423 1.9286 2047.9 -0.0076838 4220.2 0.20375 8.7976e-07 1.1367e+06 359.44 378.02 4.4551 0.74181 0.93036 152.64 4.1784 2.6830 0.0023418
-173.62 3.1903e-06 1.2631e-09 -169.73 -169.73 -1.1045 718.64 0.0013915 -169.73 -169.73 -1.1045 1.3417 1.9298 2041.0 -0.0076769 3969.3 0.20338 1.1721e-06 8.5314e+05 360.19 378.95 4.4085 0.74568 0.93423 153.33 4.0671 2.7105 0.0023928
-172.62 4.2661e-06 1.6692e-09 -167.80 -167.80 -1.0852 717.61 0.0013935 -167.80 -167.80 -1.0852 1.3411 1.9310 2034.2 -0.0076698 3739.3 0.20300 1.5518e-06 6.4441e+05 360.93 379.89 4.3631 0.74953 0.93809 154.02 3.9599 2.7379 0.0024440
-171.62 5.6692e-06 2.1922e-09 -165.87 -165.87 -1.0661 716.58 0.0013955 -165.87 -165.87 -1.0661 1.3405 1.9322 2027.3 -0.0076625 3528.0 0.20261 2.0419e-06 4.8974e+05 361.69 380.83 4.3188 0.75337 0.94193 154.71 3.8566 2.7654 0.0024955
-170.62 7.4884e-06 2.8621e-09 -163.94 -163.94 -1.0472 715.56 0.0013975 -163.94 -163.94 -1.0472 1.3400 1.9334 2020.5 -0.0076552 3333.8 0.20222 2.6708e-06 3.7442e+05 362.44 381.77 4.2755 0.75720 0.94575 155.39 3.7570 2.7929 0.0025473
-169.62 9.8334e-06 3.7151e-09 -162.00 -162.00 -1.0284 714.54 0.0013995 -162.00 -162.00 -1.0284 1.3395 1.9347 2013.6 -0.0076477 3154.9 0.20182 3.4733e-06 2.8791e+05 363.20 382.72 4.2334 0.76100 0.94956 156.07 3.6609 2.8204 0.0025994
-168.62 1.2839e-05 4.7954e-09 -160.07 -160.07 -1.0098 713.52 0.0014015 -160.07 -160.07 -1.0098 1.3390 1.9359 2006.8 -0.0076401 2989.9 0.20141 4.4917e-06 2.2263e+05 363.96 383.67 4.1922 0.76479 0.95335 156.74 3.5683 2.8479 0.0026518
-167.62 1.6672e-05 6.1562e-09 -158.13 -158.13 -0.99134 712.49 0.0014035 -158.13 -158.13 -0.99134 1.3386 1.9372 2000.0 -0.0076323 2837.5 0.20100 5.7771e-06 1.7310e+05 364.73 384.63 4.1521 0.76856 0.95712 157.41 3.4790 2.8754 0.0027045
-166.62 2.1533e-05 7.8615e-09 -156.19 -156.19 -0.97306 711.47 0.0014055 -156.19 -156.19 -0.97306 1.3382 1.9385 1993.1 -0.0076245 2696.5 0.20058 7.3914e-06 1.3529e+05 365.50 385.59 4.1129 0.77232 0.96087 158.08 3.3927 2.9029 0.0027575
-165.62 2.7666e-05 9.9878e-09 -154.25 -154.25 -0.95494 710.45 0.0014075 -154.25 -154.25 -0.95494 1.3378 1.9398 1986.3 -0.0076165 2566.0 0.20016 9.4084e-06 1.0629e+05 366.27 386.55 4.0746 0.77605 0.96460 158.75 3.3095 2.9304 0.0028108
-164.62 3.5367e-05 1.2626e-08 -152.31 -152.31 -0.93698 709.44 0.0014096 -152.31 -152.31 -0.93698 1.3375 1.9411 1979.4 -0.0076084 2444.9 0.19973 1.1916e-05 83918. 367.05 387.52 4.0372 0.77976 0.96832 159.41 3.2291 2.9579 0.0028643
-163.62 4.4989e-05 1.5884e-08 -150.37 -150.37 -0.91917 708.42 0.0014116 -150.37 -150.37 -0.91917 1.3371 1.9424 1972.6 -0.0076002 2332.3 0.19930 1.5020e-05 66577. 367.83 388.49 4.0008 0.78346 0.97201 160.07 3.1514 2.9854 0.0029182
-162.62 5.6956e-05 1.9890e-08 -148.43 -148.43 -0.90151 707.40 0.0014136 -148.43 -148.43 -0.90151 1.3368 1.9437 1965.8 -0.0075919 2227.7 0.19886 1.8844e-05 53068. 368.62 389.46 3.9651 0.78713 0.97569 160.72 3.0764 3.0129 0.0029723
-161.62 7.1773e-05 2.4791e-08 -146.48 -146.48 -0.88400 706.38 0.0014157 -146.48 -146.48 -0.88400 1.3365 1.9451 1959.0 -0.0075834 2130.2 0.19841 2.3533e-05 42494. 369.41 390.44 3.9304 0.79079 0.97935 161.38 3.0038 3.0404 0.0030268
-160.62 9.0036e-05 3.0763e-08 -144.54 -144.54 -0.86663 705.37 0.0014177 -144.54 -144.54 -0.86663 1.3363 1.9465 1952.1 -0.0075748 2039.2 0.19796 2.9258e-05 34178. 370.20 391.42 3.8964 0.79443 0.98298 162.03 2.9337 3.0679 0.0030815
-159.62 0.00011245 3.8010e-08 -142.59 -142.59 -0.84940 704.35 0.0014197 -142.59 -142.59 -0.84940 1.3360 1.9478 1945.3 -0.0075661 1954.2 0.19751 3.6221e-05 27609. 371.00 392.40 3.8632 0.79805 0.98660 162.68 2.8658 3.0955 0.0031365
-158.62 0.00013985 4.6766e-08 -140.64 -140.64 -0.83231 703.34 0.0014218 -140.64 -140.64 -0.83231 1.3358 1.9492 1938.5 -0.0075573 1874.8 0.19705 4.4652e-05 22395. 371.80 393.39 3.8307 0.80164 0.99020 163.32 2.8002 3.1230 0.0031918
-157.62 0.00017320 5.7305e-08 -138.69 -138.69 -0.81536 702.32 0.0014238 -138.69 -138.69 -0.81536 1.3356 1.9506 1931.7 -0.0075484 1800.3 0.19658 5.4822e-05 18241. 372.60 394.38 3.7990 0.80522 0.99378 163.96 2.7367 3.1505 0.0032474
-156.62 0.00021364 6.9939e-08 -136.74 -136.74 -0.79854 701.31 0.0014259 -136.74 -136.74 -0.79854 1.3354 1.9520 1924.9 -0.0075393 1730.5 0.19611 6.7040e-05 14916. 373.41 395.38 3.7680 0.80878 0.99734 164.60 2.6752 3.1780 0.0033033
-155.62 0.00026248 8.5029e-08 -134.79 -134.79 -0.78185 700.30 0.0014280 -134.79 -134.79 -0.78185 1.3352 1.9534 1918.1 -0.0075302 1664.9 0.19564 8.1666e-05 12245. 374.22 396.38 3.7377 0.81232 1.0009 165.24 2.6157 3.2055 0.0033595
-154.62 0.00032125 1.0298e-07 -132.83 -132.83 -0.76530 699.29 0.0014300 -132.83 -132.83 -0.76530 1.3350 1.9548 1911.3 -0.0075209 1603.3 0.19516 9.9109e-05 10090. 375.03 397.38 3.7081 0.81585 1.0044 165.87 2.5580 3.2330 0.0034160
-153.62 0.00039171 1.2428e-07 -130.88 -130.88 -0.74887 698.27 0.0014321 -130.88 -130.88 -0.74887 1.3349 1.9563 1904.5 -0.0075114 1545.3 0.19468 0.00011984 8344.6 375.85 398.39 3.6792 0.81935 1.0079 166.50 2.5022 3.2606 0.0034727
-152.62 0.00047590 1.4943e-07 -128.92 -128.92 -0.73256 697.26 0.0014342 -128.92 -128.92 -0.73256 1.3348 1.9577 1897.8 -0.0075019 1490.6 0.19419 0.00014439 6925.9 376.67 399.40 3.6509 0.82284 1.0114 167.13 2.4481 3.2881 0.0035298
-151.62 0.00057613 1.7906e-07 -126.96 -126.96 -0.71638 696.25 0.0014363 -126.96 -126.96 -0.71638 1.3346 1.9592 1891.0 -0.0074922 1438.9 0.19370 0.00017336 5768.4 377.49 400.41 3.6232 0.82631 1.0149 167.76 2.3957 3.3156 0.0035872
-150.62 0.00069507 2.1382e-07 -125.00 -125.00 -0.70032 695.24 0.0014384 -125.00 -125.00 -0.70032 1.3345 1.9606 1884.2 -0.0074824 1390.2 0.19320 0.00020744 4820.7 378.32 401.42 3.5962 0.82976 1.0183 168.38 2.3448 3.3431 0.0036448
-149.62 0.00083574 2.5450e-07 -123.04 -123.04 -0.68437 694.23 0.0014404 -123.04 -123.04 -0.68438 1.3345 1.9621 1877.4 -0.0074724 1344.0 0.19270 0.00024740 4042.0 379.15 402.44 3.5697 0.83319 1.0218 169.00 2.2956 3.3706 0.0037027
-148.62 0.0010016 3.0194e-07 -121.08 -121.08 -0.66855 693.22 0.0014425 -121.08 -121.08 -0.66855 1.3344 1.9636 1870.7 -0.0074623 1300.3 0.19220 0.00029412 3400.0 379.99 403.47 3.5438 0.83661 1.0252 169.62 2.2478 3.3982 0.0037610
-147.62 0.0011965 3.5709e-07 -119.11 -119.11 -0.65284 692.21 0.0014447 -119.11 -119.11 -0.65284 1.3343 1.9651 1863.9 -0.0074521 1258.9 0.19169 0.00034856 2869.0 380.83 404.49 3.5185 0.84001 1.0286 170.24 2.2014 3.4257 0.0038195
-146.62 0.0014249 4.2102e-07 -117.15 -117.15 -0.63724 691.20 0.0014468 -117.15 -117.15 -0.63724 1.3343 1.9666 1857.2 -0.0074417 1219.6 0.19117 0.00041181 2428.3 381.67 405.52 3.4938 0.84340 1.0320 170.85 2.1565 3.4532 0.0038783
-145.62 0.0016917 4.9492e-07 -115.18 -115.18 -0.62175 690.19 0.0014489 -115.18 -115.18 -0.62175 1.3343 1.9682 1850.4 -0.0074312 1182.3 0.19066 0.00048510 2061.4 382.51 406.56 3.4695 0.84677 1.0353 171.46 2.1128 3.4807 0.0039374
-144.62 0.0020026 5.8009e-07 -113.21 -113.21 -0.60637 689.18 0.0014510 -113.21 -113.21 -0.60637 1.3343 1.9697 1843.7 -0.0074206 1146.8 0.19014 0.00056976 1755.1 383.36 407.59 3.4458 0.85012 1.0387 172.07 2.0705 3.5082 0.0039967
-143.62 0.0023637 6.7799e-07 -111.24 -111.24 -0.59110 688.17 0.0014531 -111.24 -111.24 -0.59110 1.3343 1.9713 1836.9 -0.0074098 1113.0 0.18962 0.00066731 1498.6 384.21 408.63 3.4226 0.85346 1.0420 172.68 2.0294 3.5358 0.0040564
-142.62 0.0027820 7.9020e-07 -109.27 -109.27 -0.57593 687.16 0.0014553 -109.27 -109.27 -0.57593 1.3343 1.9728 1830.2 -0.0073988 1080.8 0.18909 0.00077939 1283.1 385.07 409.68 3.3999 0.85679 1.0454 173.28 1.9896 3.5633 0.0041164
-141.62 0.0032653 9.1848e-07 -107.30 -107.30 -0.56087 686.15 0.0014574 -107.30 -107.30 -0.56087 1.3343 1.9744 1823.5 -0.0073878 1050.1 0.18856 0.00090784 1101.5 385.93 410.72 3.3777 0.86011 1.0487 173.88 1.9508 3.5908 0.0041766
-140.62 0.0038222 1.0648e-06 -105.32 -105.32 -0.54590 685.14 0.0014596 -105.32 -105.32 -0.54591 1.3344 1.9760 1816.7 -0.0073765 1020.7 0.18803 0.0010547 948.16 386.79 411.77 3.3560 0.86341 1.0520 174.48 1.9133 3.6183 0.0042372
-139.62 0.0044623 1.2312e-06 -103.34 -103.34 -0.53104 684.13 0.0014617 -103.34 -103.34 -0.53105 1.3344 1.9776 1810.0 -0.0073651 992.74 0.18749 0.0012221 818.26 387.65 412.83 3.3347 0.86670 1.0553 175.08 1.8768 3.6459 0.0042980
-138.62 0.0051963 1.4200e-06 -101.37 -101.37 -0.51628 683.12 0.0014639 -101.37 -101.37 -0.51629 1.3345 1.9792 1803.3 -0.0073536 965.97 0.18695 0.0014125 707.94 388.52 413.88 3.3139 0.86998 1.0586 175.67 1.8413 3.6734 0.0043592
-137.62 0.0060358 1.6337e-06 -99.385 -99.385 -0.50162 682.11 0.0014660 -99.386 -99.386 -0.50162 1.3346 1.9808 1796.6 -0.0073419 940.35 0.18641 0.0016287 614.00 389.39 414.94 3.2935 0.87325 1.0619 176.26 1.8069 3.7009 0.0044206
-136.62 0.0069938 1.8751e-06 -97.404 -97.403 -0.48705 681.10 0.0014682 -97.404 -97.404 -0.48705 1.3347 1.9825 1789.9 -0.0073301 915.81 0.18586 0.0018733 533.80 390.26 416.00 3.2735 0.87650 1.0651 176.85 1.7734 3.7284 0.0044823
-135.62 0.0080843 2.1470e-06 -95.420 -95.420 -0.47257 680.09 0.0014704 -95.421 -95.421 -0.47258 1.3348 1.9841 1783.2 -0.0073180 892.30 0.18531 0.0021497 465.17 391.14 417.07 3.2540 0.87975 1.0684 177.44 1.7409 3.7559 0.0045443
-134.62 0.0093230 2.4528e-06 -93.435 -93.435 -0.45819 679.08 0.0014726 -93.436 -93.436 -0.45820 1.3350 1.9858 1776.5 -0.0073059 869.75 0.18476 0.0024613 406.30 392.02 418.14 3.2348 0.88299 1.0716 178.02 1.7093 3.7834 0.0046066
-133.62 0.010727 2.7958e-06 -91.448 -91.448 -0.44390 678.07 0.0014748 -91.450 -91.449 -0.44391 1.3351 1.9875 1769.8 -0.0072935 848.11 0.18421 0.0028116 355.67 392.91 419.21 3.2161 0.88622 1.0749 178.61 1.6786 3.8109 0.0046691
-132.62 0.012315 3.1797e-06 -89.460 -89.459 -0.42970 677.06 0.0014770 -89.461 -89.461 -0.42971 1.3353 1.9892 1763.1 -0.0072810 827.32 0.18365 0.0032049 312.03 393.79 420.29 3.1977 0.88944 1.0781 179.19 1.6488 3.8385 0.0047320
-131.62 0.014106 3.6086e-06 -87.469 -87.469 -0.41558 676.04 0.0014792 -87.471 -87.471 -0.41560 1.3354 1.9909 1756.4 -0.0072684 807.34 0.18309 0.0036453 274.33 394.68 421.36 3.1798 0.89266 1.0813 179.76 1.6197 3.8660 0.0047951
-130.62 0.016124 4.0868e-06 -85.477 -85.477 -0.40156 675.03 0.0014814 -85.479 -85.479 -0.40157 1.3356 1.9926 1749.7 -0.0072555 788.12 0.18253 0.0041375 241.69 395.58 422.44 3.1622 0.89586 1.0846 180.34 1.5915 3.8935 0.0048586
-129.62 0.018392 4.6188e-06 -83.484 -83.483 -0.38762 674.02 0.0014836 -83.486 -83.486 -0.38763 1.3358 1.9944 1743.0 -0.0072425 769.63 0.18196 0.0046867 213.37 396.47 423.53 3.1450 0.89906 1.0878 180.91 1.5641 3.9210 0.0049223
-128.62 0.020935 5.2095e-06 -81.488 -81.488 -0.37376 673.01 0.0014859 -81.491 -81.490 -0.37378 1.3360 1.9961 1736.3 -0.0072294 751.83 0.18140 0.0052981 188.75 397.37 424.62 3.1281 0.90226 1.0910 181.48 1.5374 3.9485 0.0049863
-127.62 0.023783 5.8643e-06 -79.491 -79.490 -0.35999 672.00 0.0014881 -79.494 -79.493 -0.36001 1.3363 1.9979 1729.6 -0.0072160 734.67 0.18083 0.0059776 167.29 398.27 425.71 3.1116 0.90545 1.0942 182.05 1.5114 3.9760 0.0050506
-126.62 0.026966 6.5886e-06 -77.492 -77.491 -0.34630 670.98 0.0014904 -77.495 -77.495 -0.34632 1.3365 1.9997 1722.9 -0.0072025 718.14 0.18025 0.0067313 148.56 399.18 426.80 3.0954 0.90863 1.0974 182.62 1.4861 4.0035 0.0051152
-125.62 0.030515 7.3885e-06 -75.491 -75.490 -0.33269 669.97 0.0014926 -75.494 -75.494 -0.33272 1.3368 2.0015 1716.2 -0.0071888 702.18 0.17968 0.0075660 132.17 400.09 427.89 3.0795 0.91181 1.1006 183.18 1.4615 4.0310 0.0051800
-124.62 0.034467 8.2702e-06 -73.488 -73.487 -0.31916 668.95 0.0014949 -73.492 -73.492 -0.31919 1.3371 2.0033 1709.5 -0.0071749 686.79 0.17910 0.0084885 117.81 401.00 428.99 3.0640 0.91499 1.1038 183.74 1.4375 4.0584 0.0052452
-123.62 0.038859 9.2404e-06 -71.483 -71.483 -0.30571 667.94 0.0014971 -71.488 -71.487 -0.30574 1.3374 2.0051 1702.8 -0.0071609 671.93 0.17852 0.0095065 105.19 401.91 430.10 3.0488 0.91816 1.1070 184.30 1.4141 4.0859 0.0053106
-122.62 0.043731 1.0306e-05 -69.477 -69.476 -0.29233 666.92 0.0014994 -69.482 -69.481 -0.29237 1.3377 2.0070 1696.2 -0.0071466 657.57 0.17794 0.010628 94.092 402.83 431.20 3.0339 0.92134 1.1102 184.86 1.3913 4.1134 0.0053764
-121.62 0.049128 1.1475e-05 -67.468 -67.467 -0.27903 665.91 0.0015017 -67.474 -67.473 -0.27907 1.3380 2.0089 1689.5 -0.0071322 643.70 0.17736 0.011861 84.309 403.75 432.31 3.0193 0.92451 1.1134 185.41 1.3691 4.1409 0.0054424
-120.62 0.055096 1.2755e-05 -65.458 -65.457 -0.26581 664.89 0.0015040 -65.464 -65.463 -0.26585 1.3384 2.0107 1682.8 -0.0071176 630.28 0.17678 0.013215 75.669 404.67 433.42 3.0050 0.92767 1.1166 185.96 1.3475 4.1683 0.0055087
-119.62 0.061684 1.4154e-05 -63.446 -63.445 -0.25266 663.87 0.0015063 -63.452 -63.452 -0.25271 1.3387 2.0126 1676.1 -0.0071028 617.30 0.17619 0.014700 68.027 405.60 434.53 2.9909 0.93084 1.1198 186.51 1.3264 4.1958 0.0055752
-118.62 0.068946 1.5681e-05 -61.431 -61.430 -0.23958 662.86 0.0015086 -61.439 -61.438 -0.23963 1.3391 2.0146 1669.4 -0.0070878 604.74 0.17560 0.016325 61.255 406.53 435.64 2.9772 0.93401 1.1231 187.06 1.3058 4.2233 0.0056421
-117.62 0.076937 1.7345e-05 -59.415 -59.414 -0.22658 661.84 0.0015109 -59.423 -59.422 -0.22663 1.3395 2.0165 1662.8 -0.0070726 592.58 0.17501 0.018101 55.245 407.46 436.76 2.9638 0.93718 1.1263 187.60 1.2857 4.2507 0.0057092
-116.62 0.085718 1.9156e-05 -57.397 -57.395 -0.21364 660.82 0.0015133 -57.406 -57.405 -0.21370 1.3400 2.0184 1656.1 -0.0070573 580.80 0.17442 0.020040 49.901 408.39 437.88 2.9506 0.94035 1.1295 188.14 1.2660 4.2782 0.0057767
-115.62 0.095353 2.1123e-05 -55.376 -55.375 -0.20078 659.80 0.0015156 -55.386 -55.385 -0.20084 1.3404 2.0204 1649.4 -0.0070417 569.38 0.17383 0.022152 45.142 409.33 439.01 2.9377 0.94352 1.1327 188.68 1.2468 4.3056 0.0058444
-114.62 0.10591 2.3258e-05 -53.354 -53.352 -0.18798 658.78 0.0015180 -53.365 -53.364 -0.18805 1.3409 2.0224 1642.7 -0.0070260 558.32 0.17323 0.024451 40.898 410.27 440.13 2.9250 0.94669 1.1360 189.22 1.2281 4.3330 0.0059123
-113.62 0.11746 2.5571e-05 -51.330 -51.328 -0.17525 657.76 0.0015203 -51.342 -51.340 -0.17533 1.3413 2.0244 1636.0 -0.0070100 547.59 0.17264 0.026949 37.107 411.21 441.26 2.9126 0.94987 1.1392 189.75 1.2097 4.3604 0.0059806
-112.62 0.13008 2.8074e-05 -49.303 -49.301 -0.16258 656.73 0.0015227 -49.316 -49.315 -0.16267 1.3418 2.0264 1629.3 -0.0069938 537.18 0.17204 0.029661 33.715 412.16 442.39 2.9005 0.95305 1.1424 190.28 1.1918 4.3879 0.0060491
-111.62 0.14384 3.0778e-05 -47.275 -47.272 -0.14999 655.71 0.0015251 -47.289 -47.287 -0.15008 1.3424 2.0285 1622.7 -0.0069774 527.08 0.17144 0.032600 30.675 413.10 443.53 2.8885 0.95623 1.1457 190.81 1.1742 4.4153 0.0061180
-110.62 0.15884 3.3696e-05 -45.244 -45.241 -0.13745 654.69 0.0015274 -45.259 -45.258 -0.13755 1.3429 2.0305 1616.0 -0.0069609 517.28 0.17084 0.035781 27.948 414.06 444.66 2.8769 0.95942 1.1490 191.34 1.1570 4.4427 0.0061871
-109.62 0.17516 3.6841e-05 -43.211 -43.208 -0.12498 653.66 0.0015298 -43.228 -43.226 -0.12509 1.3435 2.0326 1609.3 -0.0069441 507.76 0.17024 0.039220 25.497 415.01 445.80 2.8654 0.96261 1.1522 191.86 1.1402 4.4701 0.0062564
-108.62 0.19290 4.0226e-05 -41.176 -41.172 -0.11257 652.64 0.0015322 -41.194 -41.192 -0.11269 1.3441 2.0347 1602.6 -0.0069271 498.51 0.16964 0.042933 23.292 415.96 446.94 2.8542 0.96581 1.1555 192.38 1.1236 4.4974 0.0063261
-107.62 0.21215 4.3865e-05 -39.138 -39.135 -0.10023 651.61 0.0015347 -39.158 -39.156 -0.10036 1.3447 2.0369 1595.9 -0.0069098 489.52 0.16903 0.046937 21.305 416.92 448.09 2.8433 0.96901 1.1588 192.90 1.1075 4.5248 0.0063960
-106.62 0.23301 4.7771e-05 -37.099 -37.095 -0.087943 650.58 0.0015371 -37.120 -37.118 -0.088082 1.3453 2.0390 1589.2 -0.0068924 480.79 0.16843 0.051250 19.512 417.88 449.23 2.8325 0.97222 1.1621 193.41 1.0916 4.5522 0.0064662
-105.62 0.25561 5.1961e-05 -35.057 -35.053 -0.075718 649.55 0.0015395 -35.080 -35.078 -0.075868 1.3460 2.0412 1582.6 -0.0068747 472.30 0.16782 0.055891 17.892 418.85 450.38 2.8220 0.97544 1.1655 193.93 1.0760 4.5795 0.0065367
-104.62 0.28004 5.6449e-05 -33.013 -33.008 -0.063552 648.52 0.0015420 -33.038 -33.035 -0.063714 1.3467 2.0434 1575.9 -0.0068569 464.04 0.16721 0.060878 16.426 419.81 451.53 2.8116 0.97867 1.1688 194.44 1.0608 4.6069 0.0066074
-103.62 0.30643 6.1251e-05 -30.966 -30.961 -0.051444 647.49 0.0015444 -30.994 -30.991 -0.051619 1.3474 2.0456 1569.2 -0.0068387 456.00 0.16660 0.066231 15.099 420.78 452.68 2.8015 0.98191 1.1722 194.94 1.0458 4.6342 0.0066785
-102.62 0.33490 6.6383e-05 -28.917 -28.912 -0.039394 646.46 0.0015469 -28.947 -28.944 -0.039582 1.3481 2.0478 1562.5 -0.0068204 448.18 0.16600 0.071971 13.894 421.75 453.84 2.7916 0.98516 1.1755 195.44 1.0310 4.6615 0.0067498
-101.62 0.36558 7.1861e-05 -26.866 -26.860 -0.027400 645.43 0.0015494 -26.898 -26.894 -0.027602 1.3489 2.0501 1555.8 -0.0068018 440.57 0.16539 0.078120 12.801 422.73 454.99 2.7818 0.98841 1.1789 195.95 1.0166 4.6888 0.0068213
-100.62 0.39862 7.7703e-05 -24.812 -24.806 -0.015461 644.39 0.0015519 -24.847 -24.843 -0.015678 1.3497 2.0524 1549.1 -0.0067830 433.16 0.16478 0.084699 11.807 423.70 456.15 2.7723 0.99168 1.1823 196.44 1.0024 4.7161 0.0068932
-99.625 0.43414 8.3926e-05 -22.756 -22.749 -0.0035780 643.36 0.0015544 -22.794 -22.789 -0.0038103 1.3505 2.0547 1542.4 -0.0067639 425.95 0.16416 0.091731 10.901 424.68 457.31 2.7630 0.99496 1.1858 196.94 0.98838 4.7434 0.0069653
-98.625 0.47230 9.0548e-05 -20.698 -20.690 0.0082514 642.32 0.0015569 -20.738 -20.733 0.0080027 1.3514 2.0570 1535.7 -0.0067447 418.92 0.16355 0.099240 10.077 425.66 458.48 2.7538 0.99825 1.1892 197.43 0.97464 4.7707 0.0070377
-97.625 0.51325 9.7588e-05 -18.637 -18.628 0.020028 641.28 0.0015594 -18.680 -18.674 0.019762 1.3522 2.0594 1529.0 -0.0067251 412.07 0.16294 0.10725 9.3239 426.65 459.64 2.7448 1.0016 1.1927 197.92 0.96112 4.7979 0.0071103
-96.625 0.55714 0.00010506 -16.573 -16.563 0.031751 640.24 0.0015619 -16.620 -16.614 0.031467 1.3531 2.0618 1522.3 -0.0067053 405.39 0.16233 0.11579 8.6365 427.63 460.81 2.7360 1.0049 1.1962 198.40 0.94783 4.8251 0.0071832
-95.625 0.60416 0.00011300 -14.507 -14.496 0.043423 639.20 0.0015645 -14.557 -14.550 0.043120 1.3540 2.0642 1515.7 -0.0066853 398.88 0.16171 0.12488 8.0078 428.62 461.98 2.7274 1.0082 1.1997 198.88 0.93475 4.8524 0.0072564
-94.625 0.65446 0.00012140 -12.438 -12.427 0.055045 638.16 0.0015670 -12.491 -12.484 0.054721 1.3550 2.0667 1509.0 -0.0066650 392.53 0.16110 0.13455 7.4323 429.61 463.15 2.7189 1.0116 1.2032 199.36 0.92188 4.8796 0.0073299
-93.625 0.70822 0.00013031 -10.366 -10.354 0.066616 637.12 0.0015696 -10.424 -10.416 0.066271 1.3560 2.0691 1502.3 -0.0066444 386.34 0.16048 0.14482 6.9050 430.60 464.32 2.7107 1.0149 1.2068 199.83 0.90921 4.9068 0.0074036
-92.625 0.76564 0.00013973 -8.2921 -8.2790 0.078137 636.07 0.0015722 -8.3535 -8.3452 0.077771 1.3570 2.0716 1495.6 -0.0066236 380.31 0.15987 0.15573 6.4212 431.60 465.49 2.7025 1.0183 1.2104 200.30 0.89673 4.9340 0.0074776
-91.625 0.82689 0.00014968 -6.2152 -6.2011 0.089610 635.02 0.0015747 -6.2808 -6.2719 0.089220 1.3580 2.0742 1488.9 -0.0066025 374.41 0.15925 0.16731 5.9769 432.59 466.67 2.6946 1.0217 1.2140 200.77 0.88445 4.9611 0.0075518
-90.625 0.89218 0.00016019 -4.1355 -4.1203 0.10104 633.98 0.0015773 -4.2056 -4.1959 0.10062 1.3591 2.0767 1482.2 -0.0065811 368.66 0.15864 0.17958 5.5685 433.59 467.84 2.6868 1.0251 1.2177 201.24 0.87236 4.9883 0.0076263
-89.625 0.96172 0.00017129 -2.0531 -2.0367 0.11241 632.93 0.0015800 -2.1279 -2.1174 0.11197 1.3602 2.0793 1475.5 -0.0065595 363.05 0.15802 0.19258 5.1928 434.59 469.02 2.6791 1.0285 1.2213 201.70 0.86045 5.0154 0.0077011
-88.625 1.0357 0.00018298 0.032198 0.049829 0.12374 631.88 0.0015826 -0.047516 -0.036215 0.12328 1.3613 2.0819 1468.8 -0.0065375 357.56 0.15740 0.20633 4.8466 435.59 470.20 2.6717 1.0320 1.2250 202.15 0.84873 5.0425 0.0077761
-87.625 1.1144 0.00019530 2.1203 2.1393 0.13503 630.83 0.0015852 2.0355 2.0476 0.13454 1.3625 2.0846 1462.1 -0.0065153 352.21 0.15679 0.22087 4.5276 436.60 471.39 2.6643 1.0354 1.2288 202.61 0.83718 5.0696 0.0078514
-86.625 1.1979 0.00020826 4.2113 4.2317 0.14627 629.77 0.0015879 4.1211 4.1342 0.14575 1.3637 2.0873 1455.4 -0.0064928 346.98 0.15617 0.23623 4.2331 437.61 472.57 2.6571 1.0389 1.2325 203.06 0.82580 5.0967 0.0079270
-85.625 1.2866 0.00022189 6.3053 6.3272 0.15747 628.72 0.0015905 6.2094 6.2235 0.15691 1.3649 2.0900 1448.8 -0.0064701 341.87 0.15555 0.25245 3.9612 438.61 473.75 2.6501 1.0424 1.2363 203.50 0.81460 5.1237 0.0080028
-84.625 1.3806 0.00023622 8.4022 8.4257 0.16862 627.66 0.0015932 8.3004 8.3155 0.16803 1.3661 2.0927 1442.1 -0.0064470 336.87 0.15494 0.26956 3.7097 439.63 474.94 2.6432 1.0460 1.2402 203.95 0.80356 5.1508 0.0080789
-83.625 1.4803 0.00025125 10.502 10.527 0.17973 626.60 0.0015959 10.394 10.410 0.17911 1.3674 2.0955 1435.4 -0.0064236 331.99 0.15432 0.28760 3.4771 440.64 476.13 2.6364 1.0495 1.2440 204.38 0.79269 5.1778 0.0081553
-82.625 1.5858 0.00026703 12.605 12.632 0.19080 625.54 0.0015986 12.491 12.508 0.19014 1.3687 2.0983 1428.7 -0.0063999 327.22 0.15370 0.30659 3.2616 441.65 477.31 2.6298 1.0531 1.2479 204.82 0.78199 5.2048 0.0082319
-81.625 1.6975 0.00028357 14.711 14.740 0.20182 624.48 0.0016013 14.590 14.609 0.20113 1.3700 2.1012 1422.0 -0.0063759 322.55 0.15309 0.32659 3.0619 442.67 478.50 2.6233 1.0567 1.2519 205.25 0.77144 5.2318 0.0083088
-80.625 1.8155 0.00030089 16.821 16.851 0.21281 623.42 0.0016041 16.692 16.712 0.21208 1.3714 2.1041 1415.4 -0.0063516 317.99 0.15247 0.34763 2.8766 443.69 479.70 2.6169 1.0603 1.2558 205.67 0.76106 5.2587 0.0083860
-79.625 1.9402 0.00031903 18.933 18.966 0.22375 622.36 0.0016068 18.797 18.819 0.22299 1.3728 2.1070 1408.7 -0.0063270 313.52 0.15186 0.36974 2.7046 444.71 480.89 2.6106 1.0639 1.2598 206.10 0.75083 5.2857 0.0084634
-78.625 2.0718 0.00033800 21.049 21.084 0.23465 621.29 0.0016096 20.905 20.928 0.23385 1.3742 2.1099 1402.0 -0.0063021 309.15 0.15124 0.39296 2.5448 445.73 482.08 2.6045 1.0676 1.2639 206.51 0.74076 5.3126 0.0085411
-77.625 2.2107 0.00035783 23.167 23.205 0.24552 620.22 0.0016123 23.016 23.040 0.24468 1.3757 2.1129 1395.3 -0.0062768 304.88 0.15062 0.41735 2.3961 446.75 483.27 2.5985 1.0712 1.2680 206.93 0.73084 5.3395 0.0086190
-76.625 2.3571 0.00037854 25.290 25.330 0.25634 619.15 0.0016151 25.130 25.156 0.25546 1.3772 2.1159 1388.7 -0.0062512 300.69 0.15001 0.44292 2.2577 447.78 484.47 2.5926 1.0749 1.2721 207.34 0.72107 5.3664 0.0086972
-75.625 2.5113 0.00040016 27.415 27.458 0.26713 618.08 0.0016179 27.247 27.275 0.26620 1.3787 2.1190 1382.0 -0.0062253 296.59 0.14939 0.46974 2.1288 448.81 485.67 2.5869 1.0787 1.2762 207.74 0.71146 5.3933 0.0087757
-74.625 2.6736 0.00042271 29.544 29.590 0.27788 617.01 0.0016207 29.366 29.396 0.27691 1.3802 2.1221 1375.4 -0.0061990 292.58 0.14878 0.49783 2.0087 449.83 486.86 2.5812 1.0824 1.2804 208.14 0.70200 5.4201 0.0088544
-73.625 2.8444 0.00044622 31.676 31.725 0.28860 615.93 0.0016236 31.489 31.521 0.28758 1.3818 2.1252 1368.7 -0.0061724 288.65 0.14816 0.52725 1.8966 450.86 488.06 2.5757 1.0862 1.2847 208.54 0.69268 5.4469 0.0089334
-72.625 3.0240 0.00047071 33.812 33.864 0.29927 614.85 0.0016264 33.615 33.649 0.29821 1.3834 2.1284 1362.0 -0.0061454 284.81 0.14755 0.55804 1.7920 451.90 489.26 2.5703 1.0900 1.2889 208.93 0.68351 5.4737 0.0090126
-71.625 3.2127 0.00049621 35.952 36.006 0.30992 613.78 0.0016293 35.745 35.781 0.30880 1.3851 2.1316 1355.4 -0.0061181 281.03 0.14694 0.59024 1.6942 452.93 490.46 2.5650 1.0938 1.2932 209.32 0.67448 5.5005 0.0090922
-70.625 3.4108 0.00052274 38.095 38.153 0.32052 612.69 0.0016321 37.877 37.915 0.31935 1.3867 2.1349 1348.7 -0.0060904 277.34 0.14632 0.62390 1.6028 453.96 491.66 2.5598 1.0976 1.2976 209.70 0.66560 5.5273 0.0091720
-69.625 3.6187 0.00055032 40.241 40.303 0.33110 611.61 0.0016350 40.013 40.053 0.32987 1.3884 2.1382 1342.1 -0.0060624 273.72 0.14571 0.65906 1.5173 455.00 492.86 2.5547 1.1015 1.3020 210.08 0.65687 5.5540 0.0092520
-68.625 3.8367 0.00057899 42.391 42.456 0.34164 610.53 0.0016379 42.152 42.195 0.34036 1.3902 2.1415 1335.5 -0.0060339 270.17 0.14510 0.69577 1.4372 456.04 494.06 2.5497 1.1054 1.3064 210.45 0.64827 5.5807 0.0093324
-67.625 4.0652 0.00060876 44.545 44.614 0.35214 609.44 0.0016409 44.294 44.340 0.35080 1.3919 2.1449 1328.8 -0.0060051 266.69 0.14449 0.73408 1.3622 457.08 495.26 2.5448 1.1093 1.3109 210.82 0.63981 5.6074 0.0094130
-66.625 4.3046 0.00063967 46.703 46.776 0.36261 608.35 0.0016438 46.439 46.488 0.36122 1.3937 2.1483 1322.2 -0.0059760 263.28 0.14388 0.77404 1.2919 458.12 496.46 2.5400 1.1133 1.3154 211.18 0.63150 5.6341 0.0094939
-65.625 4.5551 0.00067172 48.864 48.941 0.37305 607.26 0.0016467 48.588 48.640 0.37160 1.3955 2.1518 1315.6 -0.0059464 259.93 0.14327 0.81570 1.2259 459.16 497.67 2.5353 1.1172 1.3200 211.54 0.62332 5.6608 0.0095750
-64.625 4.8173 0.00070496 51.029 51.111 0.38346 606.16 0.0016497 50.740 50.795 0.38195 1.3974 2.1553 1308.9 -0.0059164 256.65 0.14266 0.85910 1.1640 460.21 498.87 2.5307 1.1212 1.3246 211.89 0.61527 5.6874 0.0096564
-63.625 5.0915 0.00073940 53.198 53.285 0.39384 605.07 0.0016527 52.896 52.954 0.39226 1.3993 2.1588 1302.3 -0.0058861 253.42 0.14205 0.90429 1.1058 461.25 500.07 2.5262 1.1252 1.3293 212.24 0.60736 5.7140 0.0097382
-62.625 5.3781 0.00077506 55.371 55.463 0.40418 603.97 0.0016557 55.055 55.117 0.40254 1.4012 2.1624 1295.7 -0.0058553 250.26 0.14144 0.95134 1.0511 462.30 501.28 2.5218 1.1293 1.3340 212.58 0.59958 5.7406 0.0098201
-61.625 5.6774 0.00081198 57.548 57.645 0.41450 602.87 0.0016587 57.218 57.283 0.41279 1.4031 2.1660 1289.1 -0.0058241 247.16 0.14084 1.0003 0.99972 463.35 502.48 2.5175 1.1333 1.3387 212.92 0.59194 5.7672 0.0099024
-60.625 5.9899 0.00085017 59.729 59.831 0.42479 601.77 0.0016618 59.385 59.453 0.42301 1.4051 2.1697 1282.5 -0.0057925 244.12 0.14023 1.0512 0.95131 464.40 503.68 2.5133 1.1374 1.3435 213.26 0.58442 5.7938 0.0099850
-59.625 6.3160 0.00088966 61.914 62.021 0.43504 600.66 0.0016648 61.554 61.627 0.43320 1.4071 2.1734 1275.9 -0.0057605 241.13 0.13962 1.1041 0.90573 465.45 504.89 2.5091 1.1415 1.3483 213.58 0.57704 5.8203 0.010068
-58.625 6.6561 0.00093047 64.103 64.216 0.44527 599.55 0.0016679 63.728 63.805 0.44335 1.4091 2.1772 1269.3 -0.0057280 238.19 0.13902 1.1591 0.86277 466.50 506.09 2.5051 1.1457 1.3532 213.90 0.56978 5.8468 0.010151
-57.625 7.0107 0.00097262 66.296 66.415 0.45547 598.44 0.0016710 65.905 65.986 0.45348 1.4111 2.1810 1262.7 -0.0056951 235.31 0.13842 1.2161 0.82228 467.55 507.30 2.5011 1.1498 1.3581 214.22 0.56265 5.8733 0.010234
-56.625 7.3801 0.0010161 68.493 68.619 0.46564 597.33 0.0016741 68.086 68.172 0.46358 1.4132 2.1848 1256.1 -0.0056617 232.48 0.13781 1.2754 0.78408 468.60 508.50 2.4972 1.1540 1.3631 214.53 0.55564 5.8998 0.010318
-55.625 7.7648 0.0010610 70.695 70.827 0.47579 596.22 0.0016772 70.271 70.361 0.47364 1.4153 2.1887 1249.5 -0.0056279 229.69 0.13721 1.3369 0.74802 469.66 509.71 2.4934 1.1582 1.3681 214.84 0.54875 5.9263 0.010402
-54.625 8.1652 0.0011073 72.901 73.040 0.48590 595.10 0.0016804 72.460 72.554 0.48368 1.4174 2.1927 1242.9 -0.0055937 226.96 0.13661 1.4006 0.71396 470.72 510.91 2.4897 1.1624 1.3731 215.14 0.54199 5.9527 0.010486
-53.625 8.5819 0.0011551 75.111 75.257 0.49600 593.98 0.0016836 74.652 74.752 0.49369 1.4196 2.1967 1236.3 -0.0055589 224.27 0.13601 1.4667 0.68178 471.77 512.11 2.4860 1.1667 1.3782 215.43 0.53535 5.9792 0.010571
-52.625 9.0151 0.0012043 77.326 77.479 0.50606 592.86 0.0016867 76.849 76.954 0.50368 1.4218 2.2007 1229.8 -0.0055237 221.63 0.13541 1.5353 0.65136 472.83 513.32 2.4824 1.1710 1.3834 215.72 0.52882 6.0056 0.010656
-51.625 9.4655 0.0012549 79.545 79.706 0.51610 591.73 0.0016900 79.049 79.159 0.51363 1.4240 2.2048 1223.2 -0.0054880 219.04 0.13482 1.6062 0.62258 473.89 514.52 2.4789 1.1752 1.3886 216.00 0.52241 6.0320 0.010741
-50.625 9.9335 0.0013071 81.768 81.937 0.52611 590.60 0.0016932 81.253 81.369 0.52356 1.4262 2.2089 1216.6 -0.0054519 216.48 0.13422 1.6797 0.59534 474.95 515.73 2.4755 1.1796 1.3938 216.28 0.51612 6.0584 0.010827
-49.625 10.419 0.0013608 83.996 84.173 0.53610 589.47 0.0016964 83.462 83.584 0.53347 1.4285 2.2131 1210.1 -0.0054152 213.98 0.13363 1.7558 0.56954 476.01 516.93 2.4722 1.1839 1.3991 216.55 0.50994 6.0848 0.010913
-48.625 10.924 0.0014160 86.228 86.414 0.54607 588.34 0.0016997 85.674 85.802 0.54334 1.4308 2.2173 1203.5 -0.0053780 211.51 0.13303 1.8345 0.54510 477.07 518.13 2.4689 1.1883 1.4044 216.82 0.50387 6.1112 0.010999
-47.625 11.448 0.0014727 88.465 88.660 0.55601 587.20 0.0017030 87.891 88.025 0.55319 1.4331 2.2216 1196.9 -0.0053403 209.08 0.13244 1.9159 0.52194 478.14 519.33 2.4657 1.1927 1.4098 217.08 0.49792 6.1375 0.011085
-46.625 11.991 0.0015310 90.707 90.911 0.56593 586.06 0.0017063 90.111 90.252 0.56302 1.4354 2.2259 1190.4 -0.0053020 206.69 0.13185 2.0001 0.49997 479.20 520.53 2.4625 1.1971 1.4153 217.33 0.49207 6.1639 0.011172
-45.625 12.554 0.0015909 92.953 93.167 0.57582 584.92 0.0017096 92.336 92.484 0.57282 1.4378 2.2303 1183.8 -0.0052633 204.34 0.13126 2.0872 0.47912 480.27 521.74 2.4594 1.2015 1.4207 217.58 0.48633 6.1902 0.011259
-44.625 13.137 0.0016524 95.204 95.428 0.58569 583.77 0.0017130 94.565 94.720 0.58260 1.4402 2.2347 1177.3 -0.0052240 202.03 0.13067 2.1771 0.45933 481.33 522.94 2.4564 1.2060 1.4263 217.82 0.48069 6.2165 0.011347
-43.625 13.741 0.0017154 97.460 97.694 0.59554 582.62 0.0017164 96.799 96.961 0.59235 1.4426 2.2392 1170.7 -0.0051841 199.75 0.13008 2.2700 0.44053 482.40 524.14 2.4535 1.2104 1.4319 218.05 0.47516 6.2429 0.011435
-42.625 14.367 0.0017802 99.721 99.965 0.60537 581.47 0.0017198 99.036 99.207 0.60208 1.4450 2.2437 1164.2 -0.0051437 197.51 0.12949 2.3659 0.42267 483.46 525.33 2.4506 1.2149 1.4375 218.28 0.46973 6.2692 0.011523
-41.625 15.015 0.0018465 101.99 102.24 0.61518 580.32 0.0017232 101.28 101.46 0.61179 1.4475 2.2483 1157.7 -0.0051027 195.30 0.12891 2.4649 0.40569 484.53 526.53 2.4478 1.2195 1.4432 218.50 0.46440 6.2955 0.011612
-40.625 15.686 0.0019146 104.26 104.52 0.62496 579.16 0.0017266 103.52 103.71 0.62147 1.4500 2.2529 1151.1 -0.0050611 193.13 0.12832 2.5671 0.38954 485.60 527.73 2.4450 1.2240 1.4489 218.72 0.45917 6.3218 0.011701
-39.625 16.380 0.0019842 106.53 106.81 0.63473 578.00 0.0017301 105.78 105.97 0.63113 1.4525 2.2576 1144.6 -0.0050189 190.99 0.12774 2.6725 0.37418 486.67 528.93 2.4423 1.2286 1.4547 218.93 0.45403 6.3481 0.011790
-38.625 17.097 0.0020556 108.81 109.10 0.64447 576.83 0.0017336 108.03 108.24 0.64077 1.4550 2.2623 1138.0 -0.0049761 188.88 0.12716 2.7813 0.35955 487.74 530.12 2.4397 1.2332 1.4606 219.13 0.44900 6.3744 0.011880
-37.625 17.838 0.0021287 111.10 111.40 0.65419 575.66 0.0017371 110.29 110.51 0.65039 1.4576 2.2671 1131.5 -0.0049327 186.81 0.12658 2.8934 0.34562 488.81 531.32 2.4371 1.2378 1.4665 219.33 0.44405 6.4007 0.011970
-36.625 18.604 0.0022034 113.39 113.70 0.66390 574.49 0.0017407 112.56 112.78 0.65999 1.4602 2.2719 1125.0 -0.0048887 184.76 0.12600 3.0089 0.33235 489.88 532.51 2.4346 1.2424 1.4724 219.52 0.43920 6.4270 0.012060
-35.625 19.395 0.0022799 115.68 116.01 0.67358 573.32 0.0017442 114.83 115.06 0.66956 1.4628 2.2768 1118.5 -0.0048440 182.75 0.12542 3.1280 0.31969 490.95 533.70 2.4321 1.2471 1.4784 219.70 0.43444 6.4533 0.012151
-34.625 20.212 0.0023581 117.98 118.33 0.68325 572.14 0.0017478 117.10 117.34 0.67912 1.4654 2.2818 1111.9 -0.0047987 180.76 0.12485 3.2506 0.30763 492.02 534.89 2.4297 1.2517 1.4845 219.88 0.42977 6.4797 0.012243
-33.625 21.056 0.0024380 120.29 120.65 0.69289 570.96 0.0017514 119.38 119.63 0.68865 1.4681 2.2868 1105.4 -0.0047527 178.80 0.12427 3.3770 0.29612 493.09 536.08 2.4273 1.2564 1.4906 220.05 0.42519 6.5060 0.012334
-32.625 21.926 0.0025197 122.60 122.97 0.70252 569.77 0.0017551 121.66 121.93 0.69817 1.4708 2.2918 1098.9 -0.0047061 176.87 0.12370 3.5071 0.28514 494.17 537.27 2.4250 1.2611 1.4968 220.21 0.42070 6.5323 0.012426
-31.625 22.823 0.0026031 124.92 125.30 0.71213 568.58 0.0017588 123.95 124.23 0.70767 1.4735 2.2970 1092.3 -0.0046587 174.97 0.12313 3.6410 0.27465 495.24 538.46 2.4227 1.2659 1.5031 220.36 0.41629 6.5587 0.012519
-30.625 23.749 0.0026882 127.24 127.64 0.72172 567.39 0.0017625 126.24 126.53 0.71714 1.4762 2.3021 1085.8 -0.0046107 173.09 0.12256 3.7787 0.26464 496.31 539.64 2.4205 1.2706 1.5094 220.51 0.41196 6.5850 0.012612
-29.625 24.703 0.0027751 129.56 129.99 0.73130 566.19 0.0017662 128.54 128.84 0.72660 1.4790 2.3074 1079.3 -0.0045619 171.24 0.12200 3.9205 0.25507 497.38 540.83 2.4184 1.2754 1.5157 220.65 0.40772 6.6114 0.012706
-28.625 25.687 0.0028637 131.90 132.33 0.74085 564.99 0.0017699 130.84 131.16 0.73604 1.4818 2.3126 1072.8 -0.0045124 169.42 0.12143 4.0663 0.24592 498.46 542.01 2.4162 1.2802 1.5222 220.79 0.40356 6.6378 0.012800
-27.625 26.700 0.0029541 134.23 134.69 0.75039 563.78 0.0017737 133.15 133.48 0.74547 1.4846 2.3180 1066.2 -0.0044621 167.62 0.12087 4.2163 0.23717 499.53 543.19 2.4142 1.2850 1.5286 220.91 0.39947 6.6642 0.012894
-26.625 27.743 0.0030462 136.58 137.05 0.75992 562.57 0.0017775 135.47 135.81 0.75487 1.4874 2.3234 1059.7 -0.0044111 165.84 0.12031 4.3705 0.22881 500.60 544.37 2.4122 1.2899 1.5352 221.03 0.39547 6.6906 0.012989
-25.625 28.817 0.0031401 138.93 139.42 0.76943 561.36 0.0017814 137.78 138.14 0.76426 1.4902 2.3289 1053.2 -0.0043593 164.09 0.11975 4.5290 0.22080 501.68 545.55 2.4102 1.2947 1.5418 221.14 0.39154 6.7171 0.013084
-24.625 29.923 0.0032357 141.28 141.79 0.77892 560.14 0.0017853 140.11 140.48 0.77363 1.4931 2.3344 1046.7 -0.0043067 162.36 0.11919 4.6918 0.21314 502.75 546.72 2.4083 1.2996 1.5485 221.25 0.38768 6.7436 0.013180
-23.625 31.061 0.0033330 143.64 144.17 0.78839 558.92 0.0017892 142.44 142.82 0.78298 1.4960 2.3400 1040.1 -0.0042533 160.65 0.11863 4.8592 0.20580 503.82 547.90 2.4064 1.3045 1.5552 221.35 0.38391 6.7701 0.013277
-22.625 32.232 0.0034321 146.01 146.55 0.79786 557.69 0.0017931 144.77 145.17 0.79232 1.4990 2.3457 1033.6 -0.0041990 158.97 0.11807 5.0311 0.19877 504.90 549.07 2.4045 1.3095 1.5621 221.44 0.38020 6.7967 0.013374
-21.625 33.435 0.0035329 148.38 148.95 0.80730 556.46 0.0017971 147.11 147.52 0.80164 1.5019 2.3514 1027.1 -0.0041439 157.30 0.11752 5.2076 0.19203 505.97 550.24 2.4027 1.3144 1.5690 221.52 0.37656 6.8232 0.013471
-20.625 34.673 0.0036354 150.75 151.34 0.81673 555.23 0.0018011 149.45 149.88 0.81095 1.5049 2.3572 1020.6 -0.0040879 155.66 0.11697 5.3889 0.18557 507.04 551.40 2.4010 1.3194 1.5759 221.59 0.37300 6.8499 0.013569
-19.625 35.946 0.0037396 153.14 153.75 0.82615 553.99 0.0018051 151.80 152.25 0.82024 1.5079 2.3630 1014.0 -0.0040311 154.04 0.11642 5.5750 0.17937 508.11 552.57 2.3992 1.3244 1.5829 221.66 0.36950 6.8765 0.013668
-18.625 37.253 0.0038455 155.52 156.16 0.83555 552.74 0.0018092 154.16 154.62 0.82952 1.5109 2.3689 1007.5 -0.0039733 152.44 0.11587 5.7660 0.17343 509.19 553.73 2.3976 1.3294 1.5901 221.72 0.36608 6.9032 0.013767
-17.625 38.596 0.0039531 157.92 158.58 0.84494 551.49 0.0018133 156.52 157.00 0.83878 1.5140 2.3749 1001.0 -0.0039145 150.86 0.11532 5.9621 0.16773 510.26 554.89 2.3959 1.3345 1.5972 221.77 0.36272 6.9300 0.013867
-16.625 39.976 0.0040623 160.32 161.00 0.85431 550.24 0.0018174 158.89 159.39 0.84803 1.5171 2.3810 994.44 -0.0038549 149.29 0.11478 6.1632 0.16225 511.33 556.05 2.3943 1.3395 1.6045 221.81 0.35942 6.9568 0.013968
-15.625 41.392 0.0041731 162.72 163.43 0.86367 548.98 0.0018216 161.26 161.78 0.85726 1.5202 2.3871 987.91 -0.0037942 147.75 0.11423 6.3696 0.15700 512.40 557.20 2.3927 1.3446 1.6119 221.85 0.35619 6.9836 0.014069
-14.625 42.846 0.0042856 165.14 165.87 0.87302 547.71 0.0018258 163.64 164.18 0.86649 1.5233 2.3933 981.37 -0.0037325 146.22 0.11369 6.5812 0.15195 513.47 558.36 2.3912 1.3497 1.6193 221.87 0.35302 7.0105 0.014170
-13.625 44.338 0.0043997 167.55 168.31 0.88235 546.44 0.0018300 166.02 166.58 0.87569 1.5264 2.3996 974.83 -0.0036698 144.72 0.11315 6.7983 0.14710 514.54 559.51 2.3897 1.3549 1.6268 221.89 0.34992 7.0375 0.014273
-12.625 45.870 0.0045153 169.98 170.76 0.89168 545.17 0.0018343 168.41 168.99 0.88489 1.5296 2.4059 968.29 -0.0036061 143.23 0.11261 7.0208 0.14243 515.61 560.65 2.3883 1.3600 1.6344 221.90 0.34688 7.0646 0.014376
-11.625 47.440 0.0046324 172.41 173.22 0.90099 543.89 0.0018386 170.81 171.41 0.89407 1.5328 2.4124 961.75 -0.0035413 141.76 0.11208 7.2490 0.13795 516.68 561.80 2.3868 1.3652 1.6421 221.91 0.34389 7.0917 0.014479
-10.625 49.051 0.0047511 174.84 175.68 0.91028 542.60 0.0018430 173.21 173.83 0.90324 1.5360 2.4189 955.20 -0.0034753 140.30 0.11154 7.4829 0.13364 517.75 562.94 2.3854 1.3704 1.6498 221.90 0.34097 7.1188 0.014584
-9.6250 50.703 0.0048713 177.29 178.15 0.91957 541.31 0.0018474 175.61 176.26 0.91240 1.5393 2.4255 948.65 -0.0034082 138.86 0.11101 7.7226 0.12949 518.81 564.08 2.3841 1.3757 1.6577 221.88 0.33810 7.1461 0.014689
-8.6250 52.396 0.0049929 179.73 180.63 0.92884 540.02 0.0018518 178.03 178.70 0.92154 1.5426 2.4321 942.10 -0.0033400 137.44 0.11048 7.9683 0.12550 519.88 565.21 2.3827 1.3809 1.6657 221.86 0.33529 7.1734 0.014795
-7.6250 54.131 0.0051159 182.19 183.11 0.93810 538.72 0.0018563 180.45 181.14 0.93068 1.5459 2.4389 935.55 -0.0032705 136.03 0.10995 8.2200 0.12165 520.94 566.35 2.3814 1.3862 1.6737 221.83 0.33254 7.2008 0.014902
-6.6250 55.909 0.0052402 184.65 185.60 0.94735 537.41 0.0018608 182.87 183.59 0.93980 1.5492 2.4457 928.99 -0.0031998 134.64 0.10942 8.4779 0.11795 522.01 567.48 2.3801 1.3915 1.6819 221.79 0.32984 7.2284 0.015009
-5.6250 57.730 0.0053659 187.12 188.10 0.95659 536.10 0.0018653 185.30 186.05 0.94892 1.5525 2.4526 922.43 -0.0031279 133.27 0.10889 8.7420 0.11439 523.07 568.60 2.3789 1.3969 1.6902 221.74 0.32720 7.2560 0.015117
-4.6250 59.595 0.0054928 189.59 190.61 0.96582 534.78 0.0018699 187.74 188.51 0.95802 1.5559 2.4596 915.87 -0.0030546 131.91 0.10837 9.0126 0.11096 524.13 569.72 2.3777 1.4022 1.6985 221.68 0.32461 7.2837 0.015226
-3.6250 61.505 0.0056210 192.07 193.12 0.97504 533.45 0.0018746 190.19 190.98 0.96711 1.5593 2.4667 909.30 -0.0029800 130.56 0.10785 9.2896 0.10765 525.19 570.84 2.3765 1.4076 1.7070 221.62 0.32207 7.3115 0.015336
-2.6250 63.461 0.0057503 194.56 195.64 0.98424 532.12 0.0018793 192.64 193.46 0.97620 1.5627 2.4739 902.73 -0.0029041 129.23 0.10733 9.5733 0.10446 526.25 571.96 2.3753 1.4131 1.7156 221.54 0.31958 7.3394 0.015447
-1.6250 65.462 0.0058808 197.05 198.16 0.99344 530.78 0.0018840 195.10 195.95 0.98527 1.5662 2.4811 896.16 -0.0028267 127.91 0.10681 9.8638 0.10138 527.31 573.07 2.3742 1.4185 1.7243 221.45 0.31715 7.3674 0.015559
-0.62500 67.510 0.0060123 199.55 200.70 1.0026 529.44 0.0018888 197.56 198.44 0.99434 1.5696 2.4885 889.58 -0.0027478 126.61 0.10629 10.161 0.098414 528.37 574.18 2.3731 1.4240 1.7331 221.36 0.31476 7.3956 0.015671
0.37500 69.606 0.0061447 202.05 203.24 1.0118 528.09 0.0018936 200.03 200.94 1.0034 1.5731 2.4960 883.00 -0.0026675 125.32 0.10578 10.466 0.095552 529.42 575.28 2.3720 1.4295 1.7421 221.26 0.31242 7.4239 0.015785
1.3750 71.749 0.0062781 204.57 205.79 1.0210 526.73 0.0018985 202.51 203.45 1.0124 1.5767 2.5035 876.42 -0.0025856 124.04 0.10527 10.777 0.092790 530.48 576.38 2.3709 1.4350 1.7512 221.14 0.31013 7.4523 0.015899
2.3750 73.941 0.0064124 207.08 208.34 1.0301 525.37 0.0019034 204.99 205.96 1.0215 1.5802 2.5112 869.83 -0.0025022 122.78 0.10476 11.096 0.090123 531.53 577.47 2.3699 1.4406 1.7604 221.02 0.30789 7.4808 0.016015
3.3750 76.183 0.0065473 209.61 210.91 1.0393 523.99 0.0019084 207.48 208.48 1.0305 1.5838 2.5190 863.24 -0.0024171 121.53 0.10425 11.422 0.087549 532.58 578.56 2.3688 1.4462 1.7697 220.89 0.30569 7.5095 0.016131
4.3750 78.475 0.0066830 212.14 213.48 1.0484 522.62 0.0019134 209.98 211.01 1.0395 1.5874 2.5268 856.64 -0.0023303 120.29 0.10374 11.756 0.085062 533.63 579.65 2.3678 1.4518 1.7792 220.75 0.30354 7.5384 0.016249
5.3750 80.817 0.0068193 214.68 216.06 1.0576 521.23 0.0019185 212.48 213.55 1.0486 1.5910 2.5348 850.04 -0.0022417 119.06 0.10324 12.098 0.082660 534.67 580.73 2.3669 1.4575 1.7888 220.60 0.30144 7.5674 0.016368
6.3750 83.211 0.0069560 217.23 218.64 1.0667 519.84 0.0019237 215.00 216.10 1.0576 1.5946 2.5429 843.43 -0.0021514 117.85 0.10273 12.447 0.080340 535.72 581.81 2.3659 1.4632 1.7986 220.44 0.29938 7.5966 0.016487
7.3750 85.657 0.0070932 219.78 221.24 1.0758 518.44 0.0019289 217.51 218.65 1.0666 1.5983 2.5511 836.82 -0.0020593 116.65 0.10223 12.805 0.078096 536.76 582.88 2.3650 1.4689 1.8085 220.27 0.29736 7.6259 0.016608
8.3750 88.156 0.0072306 222.34 223.84 1.0849 517.03 0.0019341 220.04 221.22 1.0756 1.6020 2.5595 830.20 -0.0019652 115.46 0.10173 13.170 0.075928 537.80 583.95 2.3640 1.4746 1.8186 220.08 0.29538 7.6555 0.016730
9.3750 90.708 0.0073682 224.90 226.45 1.0940 515.62 0.0019394 222.57 223.79 1.0846 1.6057 2.5679 823.58 -0.0018691 114.28 0.10124 13.545 0.073830 538.84 585.01 2.3631 1.4804 1.8288 219.89 0.29345 7.6852 0.016853
10.375 93.315 0.0075059 227.48 229.07 1.1031 514.19 0.0019448 225.11 226.37 1.0936 1.6095 2.5765 816.96 -0.0017710 113.11 0.10074 13.927 0.071802 539.87 586.07 2.3622 1.4863 1.8392 219.69 0.29156 7.7151 0.016978
11.375 95.977 0.0076435 230.06 231.69 1.1122 512.76 0.0019502 227.66 228.95 1.1025 1.6132 2.5852 810.32 -0.0016708 111.95 0.10025 14.319 0.069840 540.90 587.12 2.3614 1.4921 1.8498 219.48 0.28971 7.7452 0.017103
12.375 98.694 0.0077809 232.64 234.32 1.1212 511.32 0.0019557 230.22 231.55 1.1115 1.6170 2.5940 803.68 -0.0015685 110.80 0.099756 14.719 0.067941 541.93 588.17 2.3605 1.4980 1.8605 219.26 0.28790 7.7756 0.017230
13.375 101.47 0.0079180 235.24 236.96 1.1303 509.87 0.0019613 232.78 234.15 1.1205 1.6208 2.6030 797.04 -0.0014639 109.67 0.099267 15.128 0.066103 542.96 589.21 2.3597 1.5040 1.8715 219.03 0.28612 7.8061 0.017359
14.375 104.30 0.0080545 237.84 239.61 1.1394 508.42 0.0019669 235.35 236.77 1.1295 1.6247 2.6121 790.39 -0.0013569 108.54 0.098779 15.547 0.064323 543.99 590.24 2.3588 1.5099 1.8826 218.79 0.28439 7.8369 0.017488
15.375 107.19 0.0081905 240.45 242.27 1.1484 506.95 0.0019726 237.93 239.39 1.1384 1.6286 2.6214 783.73 -0.0012476 107.43 0.098294 15.974 0.062600 545.01 591.27 2.3580 1.5159 1.8940 218.53 0.28270 7.8680 0.017619
16.375 110.13 0.0083256 243.06 244.94 1.1575 505.48 0.0019783 240.52 242.02 1.1474 1.6324 2.6308 777.07 -0.0011357 106.32 0.097810 16.412 0.060931 546.03 592.29 2.3572 1.5220 1.9055 218.27 0.28104 7.8993 0.017752
17.375 113.14 0.0084597 245.68 247.61 1.1665 504.00 0.0019841 243.11 244.66 1.1564 1.6364 2.6403 770.40 -0.0010213 105.22 0.097328 16.859 0.059314 547.04 593.31 2.3564 1.5281 1.9172 217.99 0.27942 7.9308 0.017886
18.375 116.21 0.0085926 248.31 250.29 1.1756 502.50 0.0019900 245.72 247.31 1.1653 1.6403 2.6501 763.72 -0.00090422 104.14 0.096848 17.317 0.057747 548.05 594.32 2.3557 1.5342 1.9292 217.71 0.27783 7.9626 0.018021
19.375 119.33 0.0087242 250.95 252.98 1.1846 501.00 0.0019960 248.33 249.97 1.1743 1.6443 2.6599 757.04 -0.00078435 103.06 0.096371 17.785 0.056228 549.06 595.33 2.3549 1.5404 1.9414 217.41 0.27628 7.9947 0.018159
20.375 122.52 0.0088541 253.59 255.68 1.1936 499.49 0.0020020 250.95 252.64 1.1832 1.6483 2.6700 750.35 -0.00066161 101.99 0.095895 18.263 0.054756 550.07 596.32 2.3541 1.5466 1.9538 217.10 0.27477 8.0272 0.018297
21.375 125.77 0.0089823 256.25 258.39 1.2026 497.97 0.0020082 253.57 255.32 1.1922 1.6523 2.6802 743.64 -0.00053589 100.93 0.095420 18.752 0.053328 551.07 597.31 2.3534 1.5528 1.9665 216.78 0.27329 8.0599 0.018438
22.375 129.08 0.0091084 258.90 261.10 1.2116 496.43 0.0020144 256.21 258.00 1.2012 1.6563 2.6906 736.94 -0.00040708 99.877 0.094948 19.252 0.051943 552.07 598.30 2.3526 1.5591 1.9795 216.45 0.27184 8.0929 0.018580
23.375 132.46 0.0092322 261.57 263.83 1.2206 494.89 0.0020206 258.86 260.70 1.2101 1.6604 2.7012 730.22 -0.00027505 98.834 0.094478 19.763 0.050600 553.06 599.27 2.3519 1.5655 1.9927 216.11 0.27043 8.1263 0.018724
24.375 135.90 0.0093534 264.25 266.56 1.2296 493.34 0.0020270 261.51 263.41 1.2191 1.6645 2.7120 723.49 -0.00013968 97.800 0.094009 20.285 0.049297 554.05 600.24 2.3512 1.5718 2.0061 215.75 0.26906 8.1600 0.018870
25.375 139.41 0.0094718 266.93 269.30 1.2386 491.77 0.0020335 264.17 266.13 1.2280 1.6686 2.7230 716.76 -8.3775e-07 96.773 0.093543 20.820 0.048032 555.03 601.20 2.3504 1.5783 2.0199 215.39 0.26771 8.1941 0.019017
26.375 142.98 0.0095870 269.62 272.05 1.2476 490.20 0.0020400 266.84 268.85 1.2370 1.6728 2.7342 710.01 0.00014161 95.755 0.093078 21.366 0.046804 556.01 602.15 2.3497 1.5847 2.0340 215.01 0.26640 8.2286 0.019167
27.375 146.62 0.0096988 272.31 274.81 1.2566 488.61 0.0020466 269.52 271.59 1.2459 1.6770 2.7456 703.26 0.00028782 94.745 0.092615 21.924 0.045612 556.99 603.10 2.3490 1.5913 2.0484 214.62 0.26512 8.2634 0.019319
28.375 150.33 0.0098067 275.02 277.58 1.2656 487.01 0.0020533 272.21 274.34 1.2549 1.6812 2.7573 696.49 0.00043793 93.742 0.092154 22.495 0.044454 557.96 604.03 2.3483 1.5978 2.0631 214.21 0.26387 8.2987 0.019472
29.375 154.10 0.0099105 277.73 280.35 1.2746 485.40 0.0020601 274.91 277.10 1.2638 1.6854 2.7691 689.72 0.00059212 92.747 0.091695 23.079 0.043329 558.92 604.96 2.3476 1.6044 2.0781 213.80 0.26265 8.3344 0.019628
30.375 157.94 0.010010 280.45 283.14 1.2836 483.78 0.0020671 277.62 279.87 1.2728 1.6897 2.7813 682.93 0.00075055 91.760 0.091238 23.676 0.042237 559.88 605.88 2.3469 1.6111 2.0935 213.37 0.26147 8.3705 0.019786
31.375 161.86 0.010104 283.18 285.93 1.2925 482.15 0.0020741 280.34 282.66 1.2818 1.6939 2.7936 676.13 0.00091340 90.779 0.090782 24.287 0.041175 560.84 606.79 2.3462 1.6178 2.1092 212.93 0.26031 8.4071 0.019947
32.375 165.84 0.010193 285.91 288.73 1.3015 480.50 0.0020812 283.07 285.45 1.2908 1.6983 2.8063 669.32 0.0010809 89.806 0.090328 24.911 0.040143 561.79 607.69 2.3455 1.6246 2.1254 212.48 0.25919 8.4442 0.020110
33.375 169.90 0.010276 288.65 291.55 1.3105 478.83 0.0020884 285.81 288.26 1.2997 1.7026 2.8192 662.50 0.0012532 88.840 0.089876 25.549 0.039140 562.73 608.58 2.3448 1.6314 2.1419 212.01 0.25809 8.4818 0.020275
34.375 174.02 0.010352 291.41 294.37 1.3194 477.16 0.0020957 288.56 291.07 1.3087 1.7070 2.8324 655.67 0.0014305 87.880 0.089426 26.202 0.038164 563.67 609.46 2.3440 1.6383 2.1589 211.53 0.25702 8.5199 0.020443
35.375 178.22 0.010422 294.17 297.20 1.3284 475.47 0.0021032 291.32 293.90 1.3177 1.7114 2.8459 648.82 0.0016131 86.927 0.088977 26.870 0.037216 564.60 610.33 2.3433 1.6452 2.1763 211.04 0.25599 8.5586 0.020613
36.375 182.50 0.010485 296.93 300.04 1.3373 473.77 0.0021107 294.09 296.74 1.3267 1.7158 2.8597 641.96 0.0018012 85.980 0.088531 27.553 0.036293 565.52 611.19 2.3426 1.6522 2.1942 210.53 0.25498 8.5978 0.020786
37.375 186.84 0.010539 299.71 302.89 1.3463 472.05 0.0021184 296.87 299.60 1.3357 1.7203 2.8739 635.08 0.0019950 85.040 0.088085 28.252 0.035395 566.44 612.04 2.3419 1.6592 2.2125 210.01 0.25400 8.6376 0.020962
38.375 191.27 0.010585 302.49 305.75 1.3552 470.31 0.0021262 299.66 302.46 1.3447 1.7248 2.8884 628.19 0.0021949 84.105 0.087642 28.967 0.034522 567.35 612.88 2.3411 1.6663 2.2314 209.47 0.25305 8.6780 0.021141
39.375 195.77 0.010621 305.28 308.62 1.3642 468.56 0.0021342 302.46 305.34 1.3537 1.7293 2.9033 621.29 0.0024011 83.177 0.087200 29.699 0.033671 568.26 613.70 2.3404 1.6734 2.2508 208.92 0.25213 8.7190 0.021323
40.375 200.34 0.010647 308.08 311.50 1.3731 466.80 0.0021423 305.27 308.23 1.3627 1.7339 2.9185 614.37 0.0026140 82.254 0.086760 30.447 0.032844 569.15 614.52 2.3396 1.6806 2.2708 208.36 0.25123 8.7608 0.021508
41.375 205.00 0.010662 310.89 314.38 1.3821 465.01 0.0021505 308.10 311.14 1.3718 1.7385 2.9342 607.43 0.0028338 81.338 0.086322 31.214 0.032037 570.04 615.32 2.3389 1.6879 2.2913 207.78 0.25037 8.8032 0.021696
42.375 209.73 0.010666 313.71 317.28 1.3910 463.21 0.0021588 310.94 314.06 1.3808 1.7432 2.9502 600.47 0.0030609 80.426 0.085885 31.998 0.031252 570.92 616.11 2.3381 1.6952 2.3125 207.19 0.24953 8.8463 0.021888
43.375 214.54 0.010657 316.54 320.19 1.4000 461.40 0.0021673 313.79 316.99 1.3899 1.7478 2.9667 593.50 0.0032957 79.520 0.085449 32.800 0.030488 571.79 616.88 2.3373 1.7027 2.3344 206.58 0.24871 8.8902 0.022084
44.375 219.43 0.010634 319.37 323.11 1.4089 459.56 0.0021760 316.65 319.94 1.3989 1.7525 2.9837 586.51 0.0035386 78.619 0.085015 33.622 0.029742 572.65 617.65 2.3365 1.7101 2.3569 205.96 0.24793 8.9349 0.022283
45.375 224.41 0.010597 322.21 326.03 1.4178 457.71 0.0021848 319.52 322.90 1.4080 1.7573 3.0012 579.50 0.0037900 77.723 0.084583 34.463 0.029016 573.50 618.40 2.3357 1.7177 2.3802 205.32 0.24717 8.9805 0.022485
46.375 229.46 0.010544 325.06 328.97 1.4268 455.83 0.0021938 322.41 325.88 1.4171 1.7621 3.0192 572.46 0.0040504 76.832 0.084152 35.325 0.028308 574.34 619.13 2.3349 1.7253 2.4042 204.67 0.24644 9.0269 0.022692
47.375 234.60 0.010474 327.93 331.92 1.4357 453.94 0.0022029 325.31 328.87 1.4262 1.7669 3.0377 565.41 0.0043202 75.946 0.083723 36.208 0.027618 575.17 619.85 2.3340 1.7329 2.4291 204.00 0.24573 9.0742 0.022903
48.375 239.83 0.010386 330.79 334.88 1.4447 452.03 0.0022123 328.22 331.88 1.4353 1.7718 3.0569 558.34 0.0046000 75.064 0.083295 37.112 0.026945 576.00 620.55 2.3332 1.7407 2.4548 203.31 0.24505 9.1224 0.023119
49.375 245.13 0.010278 333.67 337.85 1.4536 450.09 0.0022218 331.15 334.90 1.4445 1.7767 3.0766 551.24 0.0048904 74.186 0.082868 38.039 0.026289 576.81 621.24 2.3323 1.7485 2.4815 202.61 0.24440 9.1716 0.023339
50.375 250.53 0.010149 336.56 340.82 1.4625 448.13 0.0022315 334.09 337.94 1.4536 1.7817 3.0970 544.13 0.0051920 73.313 0.082442 38.989 0.025648 577.61 621.91 2.3314 1.7564 2.5092 201.89 0.24377 9.2219 0.023564
51.375 256.01 0.0099964 339.46 343.81 1.4715 446.15 0.0022414 337.04 341.00 1.4628 1.7867 3.1181 536.98 0.0055054 72.443 0.082018 39.962 0.025024 578.39 622.56 2.3304 1.7644 2.5379 201.16 0.24317 9.2733 0.023794
52.375 261.57 0.0098196 342.36 346.81 1.4804 444.15 0.0022515 340.01 344.07 1.4720 1.7918 3.1400 529.82 0.0058313 71.577 0.081595 40.961 0.024414 579.17 623.20 2.3295 1.7724 2.5677 200.41 0.24260 9.3258 0.024029
53.375 267.23 0.0096161 345.28 349.83 1.4894 442.12 0.0022618 343.00 347.17 1.4812 1.7969 3.1627 522.62 0.0061705 70.715 0.081174 41.985 0.023818 579.93 623.81 2.3285 1.7805 2.5987 199.63 0.24205 9.3795 0.024270
54.375 272.97 0.0093839 348.20 352.85 1.4983 440.06 0.0022724 346.00 350.28 1.4904 1.8021 3.1862 515.40 0.0065239 69.856 0.080753 43.036 0.023237 580.68 624.41 2.3274 1.7887 2.6310 198.85 0.24154 9.4344 0.024516
55.375 278.81 0.0091205 351.14 355.88 1.5072 437.98 0.0022832 349.02 353.40 1.4997 1.8073 3.2106 508.15 0.0068923 69.001 0.080334 44.114 0.022669 581.41 624.99 2.3264 1.7969 2.6646 198.04 0.24105 9.4907 0.024769
56.375 284.74 0.0088234 354.08 358.93 1.5162 435.87 0.0022943 352.05 356.55 1.5090 1.8126 3.2360 500.87 0.0072767 68.148 0.079915 45.221 0.022114 582.13 625.54 2.3253 1.8052 2.6998 197.22 0.24059 9.5484 0.025028
57.375 290.76 0.0084899 357.03 361.98 1.5251 433.73 0.0023056 355.10 359.72 1.5183 1.8179 3.2624 493.56 0.0076782 67.299 0.079498 46.358 0.021571 582.83 626.07 2.3241 1.8136 2.7365 196.37 0.24016 9.6075 0.025294
58.375 296.87 0.0081169 360.00 365.05 1.5341 431.56 0.0023172 358.17 362.91 1.5276 1.8233 3.2900 486.22 0.0080980 66.451 0.079082 47.525 0.021041 583.52 626.58 2.3230 1.8220 2.7749 195.51 0.23976 9.6682 0.025568
59.375 303.08 0.0077010 362.97 368.13 1.5430 429.36 0.0023290 361.25 366.12 1.5370 1.8288 3.3188 478.84 0.0085373 65.606 0.078666 48.726 0.020523 584.18 627.07 2.3218 1.8305 2.8152 194.63 0.23939 9.7305 0.025849
60.375 309.38 0.0072386 365.95 371.22 1.5520 427.13 0.0023412 364.36 369.35 1.5464 1.8343 3.3489 471.43 0.0089976 64.763 0.078251 49.960 0.020016 584.83 627.53 2.3205 1.8391 2.8576 193.73 0.23905 9.7945 0.026138
61.375 315.78 0.0067254 368.95 374.32 1.5610 424.87 0.0023537 367.48 372.60 1.5558 1.8400 3.3805 463.99 0.0094803 63.922 0.077838 51.229 0.019520 585.46 627.96 2.3192 1.8479 2.9022 192.82 0.23873 9.8603 0.026436
62.375 322.28 0.0061571 371.95 377.44 1.5699 422.56 0.0023665 370.62 375.88 1.5653 1.8457 3.4136 456.50 0.0099871 63.083 0.077425 52.535 0.019035 586.07 628.37 2.3178 1.8567 2.9492 191.88 0.23845 9.9281 0.026744
63.375 328.88 0.0055286 374.96 380.56 1.5789 420.22 0.0023797 373.79 379.18 1.5748 1.8514 3.4483 448.97 0.010520 62.244 0.077012 53.879 0.018560 586.66 628.74 2.3164 1.8656 2.9989 190.92 0.23819 9.9979 0.027061
64.375 335.58 0.0048342 377.99 383.70 1.5879 417.85 0.0023932 376.97 382.51 1.5844 1.8573 3.4850 441.40 0.011081 61.407 0.076600 55.265 0.018095 587.22 629.09 2.3149 1.8747 3.0517 189.95 0.23796 10.070 0.027389
65.375 342.38 0.0040678 381.03 386.85 1.5969 415.42 0.0024072 380.18 385.86 1.5939 1.8633 3.5236 433.79 0.011672 60.570 0.076189 56.692 0.017639 587.76 629.40 2.3133 1.8839 3.1077 188.95 0.23775 10.144 0.027729
66.375 349.28 0.0032223 384.07 390.02 1.6059 412.96 0.0024215 383.41 389.25 1.6036 1.8693 3.5645 426.12 0.012296 59.733 0.075779 58.165 0.017193 588.28 629.68 2.3117 1.8933 3.1674 187.93 0.23757 10.221 0.028080
67.375 356.28 0.0022899 387.13 393.20 1.6149 410.45 0.0024363 386.67 392.65 1.6133 1.8755 3.6078 418.41 0.012956 58.897 0.075368 59.684 0.016755 588.76 629.92 2.3100 1.9030 3.2311 186.89 0.23740 10.300 0.028446
68.375 363.40 0.0012616 390.20 396.39 1.6239 407.89 0.0024516 389.95 396.09 1.6230 1.8818 3.6537 410.64 0.013655 58.059 0.074959 61.253 0.016326 589.22 630.13 2.3082 1.9129 3.2994 185.83 0.23724 10.382 0.028825
69.375 370.61 0.00012759 393.29 399.60 1.6329 405.28 0.0024674 393.26 399.57 1.6328 1.8882 3.7027 402.81 0.014396 57.221 0.074549 62.875 0.015905 589.65 630.29 2.3064 1.9231 3.3727 184.74 0.23710 10.467 0.029221
70.375 406.13 undefined 395.30 402.22 1.6387 405.00 0.0024691 395.30 402.22 1.6387 1.8906 3.6783 405.33 0.014136 57.152 0.074572 405.00 0.0024691 395.30 402.22 1.6387 1.8906 3.6783 405.33 0.014136 57.152 0.074572
71.375 445.13 undefined 397.19 404.77 1.6442 405.00 0.0024691 397.19 404.77 1.6442 1.8925 3.6468 409.00 0.013769 57.175 0.074648 405.00 0.0024691 397.19 404.77 1.6442 1.8925 3.6468 409.00 0.013769 57.175 0.074648
72.375 484.24 undefined 399.09 407.33 1.6497 405.00 0.0024691 399.09 407.33 1.6497 1.8946 3.6172 412.60 0.013416 57.198 0.074725 405.00 0.0024691 399.09 407.33 1.6497 1.8946 3.6172 412.60 0.013416 57.198 0.074725
73.375 523.45 undefined 400.98 409.90 1.6552 405.00 0.0024691 400.98 409.90 1.6552 1.8968 3.5893 416.12 0.013077 57.221 0.074804 405.00 0.0024691 400.98 409.90 1.6552 1.8968 3.5893 416.12 0.013077 57.221 0.074804
74.375 562.77 undefined 402.88 412.46 1.6607 405.00 0.0024691 402.88 412.46 1.6607 1.8990 3.5629 419.57 0.012751 57.244 0.074884 405.00 0.0024691 402.88 412.46 1.6607 1.8990 3.5629 419.57 0.012751 57.244 0.074884
75.375 602.19 undefined 404.78 415.03 1.6661 405.00 0.0024691 404.78 415.03 1.6661 1.9014 3.5380 422.95 0.012436 57.267 0.074964 405.00 0.0024691 404.78 415.03 1.6661 1.9014 3.5380 422.95 0.012436 57.267 0.074964
76.375 641.71 undefined 406.68 417.61 1.6716 405.00 0.0024691 406.68 417.61 1.6716 1.9038 3.5144 426.26 0.012133 57.291 0.075046 405.00 0.0024691 406.68 417.61 1.6716 1.9038 3.5144 426.26 0.012133 57.291 0.075046
77.375 681.31 undefined 408.59 420.19 1.6770 405.00 0.0024691 408.59 420.19 1.6770 1.9063 3.4920 429.51 0.011841 57.314 0.075130 405.00 0.0024691 408.59 420.19 1.6770 1.9063 3.4920 429.51 0.011841 57.314 0.075130
78.375 721.00 undefined 410.50 422.77 1.6825 405.00 0.0024691 410.50 422.77 1.6825 1.9089 3.4707 432.70 0.011558 57.337 0.075214 405.00 0.0024691 410.50 422.77 1.6825 1.9089 3.4707 432.70 0.011558 57.337 0.075214
79.375 760.77 undefined 412.41 425.36 1.6879 405.00 0.0024691 412.41 425.36 1.6879 1.9115 3.4505 435.83 0.011284 57.360 0.075299 405.00 0.0024691 412.41 425.36 1.6879 1.9115 3.4505 435.83 0.011284 57.360 0.075299
80.375 800.62 undefined 414.32 427.95 1.6933 405.00 0.0024691 414.32 427.95 1.6933 1.9142 3.4312 438.91 0.011019 57.383 0.075384 405.00 0.0024691 414.32 427.95 1.6933 1.9142 3.4312 438.91 0.011019 57.383 0.075384
81.375 840.55 undefined 416.24 430.55 1.6987 405.00 0.0024691 416.24 430.55 1.6987 1.9170 3.4129 441.93 0.010763 57.406 0.075471 405.00 0.0024691 416.24 430.55 1.6987 1.9170 3.4129 441.93 0.010763 57.406 0.075471
82.375 880.55 undefined 418.15 433.14 1.7041 405.00 0.0024691 418.15 433.14 1.7041 1.9198 3.3954 444.91 0.010514 57.429 0.075559 405.00 0.0024691 418.15 433.14 1.7041 1.9198 3.3954 444.91 0.010514 57.429 0.075559
83.375 920.62 undefined 420.08 435.75 1.7095 405.00 0.0024691 420.08 435.75 1.7095 1.9227 3.3787 447.84 0.010273 57.452 0.075647 405.00 0.0024691 420.08 435.75 1.7095 1.9227 3.3787 447.84 0.010273 57.452 0.075647
84.375 960.76 undefined 422.00 438.36 1.7149 405.00 0.0024691 422.00 438.36 1.7149 1.9257 3.3628 450.72 0.010038 57.475 0.075736 405.00 0.0024691 422.00 438.36 1.7149 1.9257 3.3628 450.72 0.010038 57.475 0.075736
85.375 1001.0 undefined 423.93 440.97 1.7203 405.00 0.0024691 423.93 440.97 1.7203 1.9287 3.3476 453.56 0.0098105 57.498 0.075826 405.00 0.0024691 423.93 440.97 1.7203 1.9287 3.3476 453.56 0.0098105 57.498 0.075826
86.375 1041.2 undefined 425.86 443.58 1.7257 405.00 0.0024691 425.86 443.58 1.7257 1.9318 3.3330 456.35 0.0095891 57.521 0.075916 405.00 0.0024691 425.86 443.58 1.7257 1.9318 3.3330 456.35 0.0095891 57.521 0.075916
87.375 1081.5 undefined 427.79 446.20 1.7310 405.00 0.0024691 427.79 446.20 1.7310 1.9349 3.3191 459.11 0.0093737 57.544 0.076008 405.00 0.0024691 427.79 446.20 1.7310 1.9349 3.3191 459.11 0.0093737 57.544 0.076008
88.375 1121.9 undefined 429.73 448.83 1.7364 405.00 0.0024691 429.73 448.83 1.7364 1.9380 3.3058 461.82 0.0091641 57.567 0.076100 405.00 0.0024691 429.73 448.83 1.7364 1.9380 3.3058 461.82 0.0091641 57.567 0.076100
89.375 1162.3 undefined 431.67 451.45 1.7418 405.00 0.0024691 431.67 451.45 1.7418 1.9412 3.2930 464.50 0.0089600 57.591 0.076192 405.00 0.0024691 431.67 451.45 1.7418 1.9412 3.2930 464.50 0.0089600 57.591 0.076192
90.375 1202.8 undefined 433.61 454.09 1.7471 405.00 0.0024691 433.61 454.09 1.7471 1.9445 3.2807 467.15 0.0087611 57.614 0.076285 405.00 0.0024691 433.61 454.09 1.7471 1.9445 3.2807 467.15 0.0087611 57.614 0.076285
91.375 1243.3 undefined 435.56 456.72 1.7525 405.00 0.0024691 435.56 456.72 1.7525 1.9477 3.2690 469.76 0.0085672 57.637 0.076379 405.00 0.0024691 435.56 456.72 1.7525 1.9477 3.2690 469.76 0.0085672 57.637 0.076379
92.375 1283.9 undefined 437.50 459.36 1.7578 405.00 0.0024691 437.50 459.36 1.7578 1.9511 3.2578 472.34 0.0083781 57.660 0.076473 405.00 0.0024691 437.50 459.36 1.7578 1.9511 3.2578 472.34 0.0083781 57.660 0.076473
93.375 1324.5 undefined 439.46 462.01 1.7631 405.00 0.0024691 439.46 462.01 1.7631 1.9544 3.2470 474.88 0.0081936 57.683 0.076568 405.00 0.0024691 439.46 462.01 1.7631 1.9544 3.2470 474.88 0.0081936 57.683 0.076568
94.375 1365.2 undefined 441.41 464.66 1.7685 405.00 0.0024691 441.41 464.66 1.7685 1.9578 3.2366 477.40 0.0080136 57.706 0.076664 405.00 0.0024691 441.41 464.66 1.7685 1.9578 3.2366 477.40 0.0080136 57.706 0.076664
95.375 1405.9 undefined 443.37 467.31 1.7738 405.00 0.0024691 443.37 467.31 1.7738 1.9612 3.2267 479.88 0.0078378 57.729 0.076760 405.00 0.0024691 443.37 467.31 1.7738 1.9612 3.2267 479.88 0.0078378 57.729 0.076760
96.375 1446.6 undefined 445.34 469.96 1.7791 405.00 0.0024691 445.34 469.96 1.7791 1.9647 3.2172 482.34 0.0076661 57.752 0.076856 405.00 0.0024691 445.34 469.96 1.7791 1.9647 3.2172 482.34 0.0076661 57.752 0.076856
97.375 1487.4 undefined 447.30 472.62 1.7844 405.00 0.0024691 447.30 472.62 1.7844 1.9682 3.2080 484.77 0.0074984 57.775 0.076953 405.00 0.0024691 447.30 472.62 1.7844 1.9682 3.2080 484.77 0.0074984 57.775 0.076953
98.375 1528.2 undefined 449.27 475.29 1.7897 405.00 0.0024691 449.27 475.29 1.7897 1.9717 3.1992 487.18 0.0073344 57.799 0.077051 405.00 0.0024691 449.27 475.29 1.7897 1.9717 3.1992 487.18 0.0073344 57.799 0.077051
99.375 1569.1 undefined 451.25 477.96 1.7950 405.00 0.0024691 451.25 477.96 1.7950 1.9752 3.1908 489.56 0.0071741 57.822 0.077149 405.00 0.0024691 451.25 477.96 1.7950 1.9752 3.1908 489.56 0.0071741 57.822 0.077149
100.38 1610.0 undefined 453.22 480.63 1.8003 405.00 0.0024691 453.22 480.63 1.8003 1.9788 3.1826 491.92 0.0070173 57.845 0.077247 405.00 0.0024691 453.22 480.63 1.8003 1.9788 3.1826 491.92 0.0070173 57.845 0.077247
101.38 1650.9 undefined 455.20 483.31 1.8056 405.00 0.0024691 455.20 483.31 1.8056 1.9824 3.1748 494.25 0.0068640 57.868 0.077346 405.00 0.0024691 455.20 483.31 1.8056 1.9824 3.1748 494.25 0.0068640 57.868 0.077346
102.38 1691.9 undefined 457.19 485.99 1.8109 405.00 0.0024691 457.19 485.99 1.8109 1.9860 3.1673 496.56 0.0067139 57.891 0.077446 405.00 0.0024691 457.19 485.99 1.8109 1.9860 3.1673 496.56 0.0067139 57.891 0.077446
103.38 1732.8 undefined 459.18 488.68 1.8162 405.00 0.0024691 459.18 488.68 1.8162 1.9896 3.1601 498.85 0.0065671 57.914 0.077546 405.00 0.0024691 459.18 488.68 1.8162 1.9896 3.1601 498.85 0.0065671 57.914 0.077546
104.38 1773.8 undefined 461.17 491.37 1.8215 405.00 0.0024691 461.17 491.37 1.8215 1.9932 3.1532 501.11 0.0064233 57.937 0.077646 405.00 0.0024691 461.17 491.37 1.8215 1.9932 3.1532 501.11 0.0064233 57.937 0.077646
105.38 1814.9 undefined 463.16 494.06 1.8268 405.00 0.0024691 463.16 494.06 1.8268 1.9969 3.1466 503.36 0.0062825 57.960 0.077747 405.00 0.0024691 463.16 494.06 1.8268 1.9969 3.1466 503.36 0.0062825 57.960 0.077747
106.38 1855.9 undefined 465.16 496.76 1.8320 405.00 0.0024691 465.16 496.76 1.8320 2.0006 3.1402 505.59 0.0061445 57.984 0.077848 405.00 0.0024691 465.16 496.76 1.8320 2.0006 3.1402 505.59 0.0061445 57.984 0.077848
107.38 1897.0 undefined 467.16 499.46 1.8373 405.00 0.0024691 467.16 499.46 1.8373 2.0043 3.1340 507.79 0.0060094 58.007 0.077950 405.00 0.0024691 467.16 499.46 1.8373 2.0043 3.1340 507.79 0.0060094 58.007 0.077950
108.38 1938.1 undefined 469.17 502.16 1.8426 405.00 0.0024691 469.17 502.16 1.8426 2.0080 3.1281 509.98 0.0058770 58.030 0.078052 405.00 0.0024691 469.17 502.16 1.8426 2.0080 3.1281 509.98 0.0058770 58.030 0.078052
109.38 1979.3 undefined 471.18 504.87 1.8478 405.00 0.0024691 471.18 504.87 1.8478 2.0117 3.1225 512.15 0.0057472 58.053 0.078155 405.00 0.0024691 471.18 504.87 1.8478 2.0117 3.1225 512.15 0.0057472 58.053 0.078155
110.38 2020.4 undefined 473.19 507.59 1.8531 405.00 0.0024691 473.19 507.59 1.8531 2.0155 3.1170 514.30 0.0056200 58.076 0.078258 405.00 0.0024691 473.19 507.59 1.8531 2.0155 3.1170 514.30 0.0056200 58.076 0.078258
111.38 2061.6 undefined 475.21 510.31 1.8584 405.00 0.0024691 475.21 510.31 1.8584 2.0192 3.1118 516.44 0.0054953 58.099 0.078362 405.00 0.0024691 475.21 510.31 1.8584 2.0192 3.1118 516.44 0.0054953 58.099 0.078362
112.38 2102.8 undefined 477.23 513.03 1.8636 405.00 0.0024691 477.23 513.03 1.8636 2.0230 3.1068 518.56 0.0053729 58.122 0.078465 405.00 0.0024691 477.23 513.03 1.8636 2.0230 3.1068 518.56 0.0053729 58.122 0.078465
113.38 2144.0 undefined 479.26 515.76 1.8688 405.00 0.0024691 479.26 515.76 1.8688 2.0268 3.1019 520.66 0.0052529 58.145 0.078570 405.00 0.0024691 479.26 515.76 1.8688 2.0268 3.1019 520.66 0.0052529 58.145 0.078570
114.38 2185.3 undefined 481.28 518.49 1.8741 405.00 0.0024691 481.28 518.49 1.8741 2.0306 3.0973 522.74 0.0051352 58.168 0.078674 405.00 0.0024691 481.28 518.49 1.8741 2.0306 3.0973 522.74 0.0051352 58.168 0.078674
115.38 2226.5 undefined 483.32 521.22 1.8793 405.00 0.0024691 483.32 521.22 1.8793 2.0344 3.0928 524.81 0.0050197 58.192 0.078780 405.00 0.0024691 483.32 521.22 1.8793 2.0344 3.0928 524.81 0.0050197 58.192 0.078780
116.38 2267.8 undefined 485.35 523.96 1.8846 405.00 0.0024691 485.35 523.96 1.8846 2.0382 3.0886 526.87 0.0049064 58.215 0.078885 405.00 0.0024691 485.35 523.96 1.8846 2.0382 3.0886 526.87 0.0049064 58.215 0.078885
117.38 2309.1 undefined 487.39 526.70 1.8898 405.00 0.0024691 487.39 526.70 1.8898 2.0420 3.0845 528.91 0.0047951 58.238 0.078991 405.00 0.0024691 487.39 526.70 1.8898 2.0420 3.0845 528.91 0.0047951 58.238 0.078991
118.38 2350.4 undefined 489.44 529.45 1.8950 405.00 0.0024691 489.44 529.45 1.8950 2.0458 3.0805 530.93 0.0046859 58.261 0.079097 405.00 0.0024691 489.44 529.45 1.8950 2.0458 3.0805 530.93 0.0046859 58.261 0.079097
119.38 2391.7 undefined 491.49 532.20 1.9002 405.00 0.0024691 491.49 532.20 1.9002 2.0497 3.0768 532.95 0.0045786 58.284 0.079204 405.00 0.0024691 491.49 532.20 1.9002 2.0497 3.0768 532.95 0.0045786 58.284 0.079204
120.38 2433.1 undefined 493.54 534.96 1.9055 405.00 0.0024691 493.54 534.96 1.9055 2.0535 3.0732 534.94 0.0044733 58.307 0.079311 405.00 0.0024691 493.54 534.96 1.9055 2.0535 3.0732 534.94 0.0044733 58.307 0.079311
121.38 2474.4 undefined 495.59 537.72 1.9107 405.00 0.0024691 495.59 537.72 1.9107 2.0573 3.0697 536.93 0.0043699 58.330 0.079418 405.00 0.0024691 495.59 537.72 1.9107 2.0573 3.0697 536.93 0.0043699 58.330 0.079418
122.38 2515.8 undefined 497.65 540.48 1.9159 405.00 0.0024691 497.65 540.48 1.9159 2.0612 3.0664 538.90 0.0042683 58.353 0.079526 405.00 0.0024691 497.65 540.48 1.9159 2.0612 3.0664 538.90 0.0042683 58.353 0.079526
123.38 2557.2 undefined 499.71 543.25 1.9211 405.00 0.0024691 499.71 543.25 1.9211 2.0651 3.0632 540.86 0.0041685 58.376 0.079634 405.00 0.0024691 499.71 543.25 1.9211 2.0651 3.0632 540.86 0.0041685 58.376 0.079634
124.38 2598.6 undefined 501.78 546.02 1.9263 405.00 0.0024691 501.78 546.02 1.9263 2.0689 3.0602 542.80 0.0040704 58.400 0.079743 405.00 0.0024691 501.78 546.02 1.9263 2.0689 3.0602 542.80 0.0040704 58.400 0.079743
125.38 2640.0 undefined 503.85 548.80 1.9315 405.00 0.0024691 503.85 548.80 1.9315 2.0728 3.0573 544.74 0.0039740 58.423 0.079852 405.00 0.0024691 503.85 548.80 1.9315 2.0728 3.0573 544.74 0.0039740 58.423 0.079852
126.38 2681.4 undefined 505.93 551.58 1.9367 405.00 0.0024691 505.93 551.58 1.9367 2.0767 3.0545 546.66 0.0038793 58.446 0.079961 405.00 0.0024691 505.93 551.58 1.9367 2.0767 3.0545 546.66 0.0038793 58.446 0.079961
127.38 2722.8 undefined 508.01 554.36 1.9419 405.00 0.0024691 508.01 554.36 1.9419 2.0805 3.0519 548.57 0.0037862 58.469 0.080071 405.00 0.0024691 508.01 554.36 1.9419 2.0805 3.0519 548.57 0.0037862 58.469 0.080071
128.38 2764.3 undefined 510.09 557.15 1.9471 405.00 0.0024691 510.09 557.15 1.9471 2.0844 3.0493 550.46 0.0036947 58.492 0.080181 405.00 0.0024691 510.09 557.15 1.9471 2.0844 3.0493 550.46 0.0036947 58.492 0.080181
129.38 2805.7 undefined 512.17 559.94 1.9523 405.00 0.0024691 512.17 559.94 1.9523 2.0883 3.0469 552.35 0.0036047 58.515 0.080291 405.00 0.0024691 512.17 559.94 1.9523 2.0883 3.0469 552.35 0.0036047 58.515 0.080291
130.38 2847.2 undefined 514.27 562.74 1.9575 405.00 0.0024691 514.27 562.74 1.9575 2.0922 3.0446 554.23 0.0035162 58.538 0.080402 405.00 0.0024691 514.27 562.74 1.9575 2.0922 3.0446 554.23 0.0035162 58.538 0.080402
131.38 2888.6 undefined 516.36 565.54 1.9627 405.00 0.0024691 516.36 565.54 1.9627 2.0961 3.0424 556.09 0.0034292 58.561 0.080513 405.00 0.0024691 516.36 565.54 1.9627 2.0961 3.0424 556.09 0.0034292 58.561 0.080513
132.38 2930.1 undefined 518.46 568.34 1.9678 405.00 0.0024691 518.46 568.34 1.9678 2.1000 3.0404 557.94 0.0033436 58.584 0.080624 405.00 0.0024691 518.46 568.34 1.9678 2.1000 3.0404 557.94 0.0033436 58.584 0.080624
133.38 2971.6 undefined 520.56 571.15 1.9730 405.00 0.0024691 520.56 571.15 1.9730 2.1039 3.0384 559.79 0.0032594 58.607 0.080736 405.00 0.0024691 520.56 571.15 1.9730 2.1039 3.0384 559.79 0.0032594 58.607 0.080736
134.38 3013.1 undefined 522.67 573.96 1.9782 405.00 0.0024691 522.67 573.96 1.9782 2.1078 3.0365 561.62 0.0031766 58.630 0.080848 405.00 0.0024691 522.67 573.96 1.9782 2.1078 3.0365 561.62 0.0031766 58.630 0.080848
135.38 3054.6 undefined 524.77 576.78 1.9834 405.00 0.0024691 524.77 576.78 1.9834 2.1117 3.0348 563.44 0.0030951 58.653 0.080960 405.00 0.0024691 524.77 576.78 1.9834 2.1117 3.0348 563.44 0.0030951 58.653 0.080960
136.38 3096.1 undefined 526.89 579.60 1.9885 405.00 0.0024691 526.89 579.60 1.9885 2.1156 3.0331 565.25 0.0030150 58.677 0.081073 405.00 0.0024691 526.89 579.60 1.9885 2.1156 3.0331 565.25 0.0030150 58.677 0.081073
137.38 3137.6 undefined 529.01 582.42 1.9937 405.00 0.0024691 529.01 582.42 1.9937 2.1195 3.0315 567.06 0.0029361 58.700 0.081186 405.00 0.0024691 529.01 582.42 1.9937 2.1195 3.0315 567.06 0.0029361 58.700 0.081186
138.38 3179.1 undefined 531.13 585.25 1.9989 405.00 0.0024691 531.13 585.25 1.9989 2.1234 3.0300 568.85 0.0028584 58.723 0.081300 405.00 0.0024691 531.13 585.25 1.9989 2.1234 3.0300 568.85 0.0028584 58.723 0.081300
139.38 3220.6 undefined 533.25 588.08 2.0040 405.00 0.0024691 533.25 588.08 2.0040 2.1273 3.0286 570.63 0.0027820 58.746 0.081413 405.00 0.0024691 533.25 588.08 2.0040 2.1273 3.0286 570.63 0.0027820 58.746 0.081413
140.38 3262.1 undefined 535.38 590.92 2.0092 405.00 0.0024691 535.38 590.92 2.0092 2.1313 3.0273 572.40 0.0027068 58.769 0.081528 405.00 0.0024691 535.38 590.92 2.0092 2.1313 3.0273 572.40 0.0027068 58.769 0.081528
141.38 3303.7 undefined 537.52 593.76 2.0143 405.00 0.0024691 537.52 593.76 2.0143 2.1352 3.0260 574.17 0.0026327 58.792 0.081642 405.00 0.0024691 537.52 593.76 2.0143 2.1352 3.0260 574.17 0.0026327 58.792 0.081642
142.38 3345.2 undefined 539.65 596.60 2.0195 405.00 0.0024691 539.65 596.60 2.0195 2.1391 3.0249 575.92 0.0025598 58.815 0.081757 405.00 0.0024691 539.65 596.60 2.0195 2.1391 3.0249 575.92 0.0025598 58.815 0.081757
143.38 3386.7 undefined 541.79 599.45 2.0246 405.00 0.0024691 541.79 599.45 2.0246 2.1430 3.0238 577.67 0.0024880 58.838 0.081872 405.00 0.0024691 541.79 599.45 2.0246 2.1430 3.0238 577.67 0.0024880 58.838 0.081872
144.38 3428.3 undefined 543.94 602.30 2.0298 405.00 0.0024691 543.94 602.30 2.0298 2.1469 3.0228 579.41 0.0024174 58.861 0.081988 405.00 0.0024691 543.94 602.30 2.0298 2.1469 3.0228 579.41 0.0024174 58.861 0.081988
145.38 3469.8 undefined 546.09 605.16 2.0349 405.00 0.0024691 546.09 605.16 2.0349 2.1508 3.0219 581.14 0.0023477 58.884 0.082103 405.00 0.0024691 546.09 605.16 2.0349 2.1508 3.0219 581.14 0.0023477 58.884 0.082103
146.38 3511.4 undefined 548.24 608.02 2.0400 405.00 0.0024691 548.24 608.02 2.0400 2.1547 3.0210 582.86 0.0022792 58.907 0.082220 405.00 0.0024691 548.24 608.02 2.0400 2.1547 3.0210 582.86 0.0022792 58.907 0.082220
147.38 3552.9 undefined 550.40 610.88 2.0452 405.00 0.0024691 550.40 610.88 2.0452 2.1586 3.0202 584.57 0.0022116 58.930 0.082336 405.00 0.0024691 550.40 610.88 2.0452 2.1586 3.0202 584.57 0.0022116 58.930 0.082336
148.38 3594.5 undefined 552.56 613.75 2.0503 405.00 0.0024691 552.56 613.75 2.0503 2.1626 3.0195 586.27 0.0021451 58.953 0.082453 405.00 0.0024691 552.56 613.75 2.0503 2.1626 3.0195 586.27 0.0021451 58.953 0.082453
149.38 3636.0 undefined 554.72 616.62 2.0554 405.00 0.0024691 554.72 616.62 2.0554 2.1665 3.0189 587.97 0.0020796 58.976 0.082570 405.00 0.0024691 554.72 616.62 2.0554 2.1665 3.0189 587.97 0.0020796 58.976 0.082570
150.38 3677.6 undefined 556.89 619.50 2.0606 405.00 0.0024691 556.89 619.50 2.0606 2.1704 3.0183 589.66 0.0020150 58.999 0.082687 405.00 0.0024691 556.89 619.50 2.0606 2.1704 3.0183 589.66 0.0020150 58.999 0.082687
151.38 3719.2 undefined 559.06 622.38 2.0657 405.00 0.0024691 559.06 622.38 2.0657 2.1743 3.0178 591.34 0.0019514 59.022 0.082805 405.00 0.0024691 559.06 622.38 2.0657 2.1743 3.0178 591.34 0.0019514 59.022 0.082805
152.38 3760.7 undefined 561.24 625.26 2.0708 405.00 0.0024691 561.24 625.26 2.0708 2.1782 3.0173 593.01 0.0018887 59.045 0.082923 405.00 0.0024691 561.24 625.26 2.0708 2.1782 3.0173 593.01 0.0018887 59.045 0.082923
153.38 3802.3 undefined 563.42 628.15 2.0759 405.00 0.0024691 563.42 628.15 2.0759 2.1821 3.0169 594.67 0.0018269 59.068 0.083042 405.00 0.0024691 563.42 628.15 2.0759 2.1821 3.0169 594.67 0.0018269 59.068 0.083042
154.38 3843.8 undefined 565.60 631.04 2.0810 405.00 0.0024691 565.60 631.04 2.0810 2.1860 3.0166 596.33 0.0017660 59.091 0.083160 405.00 0.0024691 565.60 631.04 2.0810 2.1860 3.0166 596.33 0.0017660 59.091 0.083160
155.38 3885.4 undefined 567.79 633.94 2.0861 405.00 0.0024691 567.79 633.94 2.0861 2.1899 3.0163 597.98 0.0017060 59.114 0.083279 405.00 0.0024691 567.79 633.94 2.0861 2.1899 3.0163 597.98 0.0017060 59.114 0.083279
156.38 3927.0 undefined 569.98 636.84 2.0913 405.00 0.0024691 569.98 636.84 2.0913 2.1939 3.0161 599.62 0.0016468 59.137 0.083399 405.00 0.0024691 569.98 636.84 2.0913 2.1939 3.0161 599.62 0.0016468 59.137 0.083399
157.38 3968.5 undefined 572.18 639.74 2.0964 405.00 0.0024691 572.18 639.74 2.0964 2.1978 3.0159 601.25 0.0015885 59.160 0.083518 405.00 0.0024691 572.18 639.74 2.0964 2.1978 3.0159 601.25 0.0015885 59.160 0.083518
158.38 4010.1 undefined 574.38 642.65 2.1015 405.00 0.0024691 574.38 642.65 2.1015 2.2017 3.0158 602.88 0.0015310 59.183 0.083638 405.00 0.0024691 574.38 642.65 2.1015 2.2017 3.0158 602.88 0.0015310 59.183 0.083638
159.38 4051.7 undefined 576.58 645.56 2.1066 405.00 0.0024691 576.58 645.56 2.1066 2.2056 3.0158 604.50 0.0014743 59.206 0.083759 405.00 0.0024691 576.58 645.56 2.1066 2.2056 3.0158 604.50 0.0014743 59.206 0.083759
160.38 4093.2 undefined 578.79 648.47 2.1117 405.00 0.0024691 578.79 648.47 2.1117 2.2095 3.0158 606.11 0.0014185 59.229 0.083879 405.00 0.0024691 578.79 648.47 2.1117 2.2095 3.0158 606.11 0.0014185 59.229 0.083879
161.38 4134.8 undefined 581.00 651.39 2.1168 405.00 0.0024691 581.00 651.39 2.1168 2.2134 3.0158 607.72 0.0013634 59.252 0.084000 405.00 0.0024691 581.00 651.39 2.1168 2.2134 3.0158 607.72 0.0013634 59.252 0.084000
162.38 4176.3 undefined 583.22 654.31 2.1219 405.00 0.0024691 583.22 654.31 2.1219 2.2173 3.0159 609.32 0.0013090 59.275 0.084122 405.00 0.0024691 583.22 654.31 2.1219 2.2173 3.0159 609.32 0.0013090 59.275 0.084122
163.38 4217.9 undefined 585.44 657.24 2.1269 405.00 0.0024691 585.44 657.24 2.1269 2.2212 3.0160 610.91 0.0012554 59.298 0.084243 405.00 0.0024691 585.44 657.24 2.1269 2.2212 3.0160 610.91 0.0012554 59.298 0.084243
164.38 4259.4 undefined 587.66 660.17 2.1320 405.00 0.0024691 587.66 660.17 2.1320 2.2251 3.0162 612.50 0.0012026 59.321 0.084365 405.00 0.0024691 587.66 660.17 2.1320 2.2251 3.0162 612.50 0.0012026 59.321 0.084365
165.38 4301.0 undefined 589.89 663.11 2.1371 405.00 0.0024691 589.89 663.11 2.1371 2.2290 3.0164 614.07 0.0011504 59.343 0.084487 405.00 0.0024691 589.89 663.11 2.1371 2.2290 3.0164 614.07 0.0011504 59.343 0.084487
166.38 4342.5 undefined 592.12 666.04 2.1422 405.00 0.0024691 592.12 666.04 2.1422 2.2329 3.0167 615.65 0.0010990 59.366 0.084610 405.00 0.0024691 592.12 666.04 2.1422 2.2329 3.0167 615.65 0.0010990 59.366 0.084610
167.38 4384.1 undefined 594.35 668.99 2.1473 405.00 0.0024691 594.35 668.99 2.1473 2.2367 3.0170 617.21 0.0010483 59.389 0.084733 405.00 0.0024691 594.35 668.99 2.1473 2.2367 3.0170 617.21 0.0010483 59.389 0.084733
168.38 4425.6 undefined 596.59 671.93 2.1523 405.00 0.0024691 596.59 671.93 2.1523 2.2406 3.0174 618.77 0.00099821 59.412 0.084856 405.00 0.0024691 596.59 671.93 2.1523 2.2406 3.0174 618.77 0.00099821 59.412 0.084856
169.38 4467.2 undefined 598.83 674.88 2.1574 405.00 0.0024691 598.83 674.88 2.1574 2.2445 3.0178 620.32 0.00094884 59.435 0.084979 405.00 0.0024691 598.83 674.88 2.1574 2.2445 3.0178 620.32 0.00094884 59.435 0.084979
170.38 4508.7 undefined 601.08 677.84 2.1625 405.00 0.0024691 601.08 677.84 2.1625 2.2484 3.0182 621.87 0.00090012 59.458 0.085103 405.00 0.0024691 601.08 677.84 2.1625 2.2484 3.0182 621.87 0.00090012 59.458 0.085103
171.38 4550.2 undefined 603.33 680.79 2.1676 405.00 0.0024691 603.33 680.79 2.1676 2.2523 3.0187 623.41 0.00085205 59.481 0.085227 405.00 0.0024691 603.33 680.79 2.1676 2.2523 3.0187 623.41 0.00085205 59.481 0.085227
172.38 4591.8 undefined 605.58 683.75 2.1726 405.00 0.0024691 605.58 683.75 2.1726 2.2562 3.0192 624.95 0.00080462 59.504 0.085351 405.00 0.0024691 605.58 683.75 2.1726 2.2562 3.0192 624.95 0.00080462 59.504 0.085351
173.38 4633.3 undefined 607.84 686.72 2.1777 405.00 0.0024691 607.84 686.72 2.1777 2.2601 3.0198 626.48 0.00075781 59.527 0.085476 405.00 0.0024691 607.84 686.72 2.1777 2.2601 3.0198 626.48 0.00075781 59.527 0.085476
174.38 4674.8 undefined 610.10 689.69 2.1827 405.00 0.0024691 610.10 689.69 2.1827 2.2639 3.0204 628.00 0.00071162 59.549 0.085601 405.00 0.0024691 610.10 689.69 2.1827 2.2639 3.0204 628.00 0.00071162 59.549 0.085601
175.38 4716.4 undefined 612.37 692.66 2.1878 405.00 0.0024691 612.37 692.66 2.1878 2.2678 3.0210 629.51 0.00066603 59.572 0.085726 405.00 0.0024691 612.37 692.66 2.1878 2.2678 3.0210 629.51 0.00066603 59.572 0.085726
176.38 4757.9 undefined 614.64 695.64 2.1929 405.00 0.0024691 614.64 695.64 2.1929 2.2717 3.0217 631.03 0.00062104 59.595 0.085852 405.00 0.0024691 614.64 695.64 2.1929 2.2717 3.0217 631.03 0.00062104 59.595 0.085852
177.38 4799.4 undefined 616.91 698.62 2.1979 405.00 0.0024691 616.91 698.62 2.1979 2.2755 3.0224 632.53 0.00057662 59.618 0.085978 405.00 0.0024691 616.91 698.62 2.1979 2.2755 3.0224 632.53 0.00057662 59.618 0.085978
178.38 4840.9 undefined 619.19 701.60 2.2030 405.00 0.0024691 619.19 701.60 2.2030 2.2794 3.0231 634.03 0.00053278 59.641 0.086104 405.00 0.0024691 619.19 701.60 2.2030 2.2794 3.0231 634.03 0.00053278 59.641 0.086104
179.38 4882.4 undefined 621.47 704.59 2.2080 405.00 0.0024691 621.47 704.59 2.2080 2.2833 3.0239 635.52 0.00048950 59.664 0.086230 405.00 0.0024691 621.47 704.59 2.2080 2.2833 3.0239 635.52 0.00048950 59.664 0.086230
180.38 4923.9 undefined 623.76 707.58 2.2131 405.00 0.0024691 623.76 707.58 2.2131 2.2871 3.0247 637.01 0.00044678 59.686 0.086357 405.00 0.0024691 623.76 707.58 2.2131 2.2871 3.0247 637.01 0.00044678 59.686 0.086357
181.38 4965.4 undefined 626.05 710.58 2.2181 405.00 0.0024691 626.05 710.58 2.2181 2.2910 3.0255 638.50 0.00040460 59.709 0.086484 405.00 0.0024691 626.05 710.58 2.2181 2.2910 3.0255 638.50 0.00040460 59.709 0.086484
182.38 5006.9 undefined 628.34 713.58 2.2231 405.00 0.0024691 628.34 713.58 2.2231 2.2949 3.0264 639.97 0.00036296 59.732 0.086612 405.00 0.0024691 628.34 713.58 2.2231 2.2949 3.0264 639.97 0.00036296 59.732 0.086612
183.38 5048.3 undefined 630.64 716.58 2.2282 405.00 0.0024691 630.64 716.58 2.2282 2.2987 3.0273 641.44 0.00032184 59.755 0.086739 405.00 0.0024691 630.64 716.58 2.2282 2.2987 3.0273 641.44 0.00032184 59.755 0.086739
184.38 5089.8 undefined 632.94 719.59 2.2332 405.00 0.0024691 632.94 719.59 2.2332 2.3026 3.0282 642.91 0.00028124 59.778 0.086867 405.00 0.0024691 632.94 719.59 2.2332 2.3026 3.0282 642.91 0.00028124 59.778 0.086867
185.38 5131.3 undefined 635.24 722.60 2.2382 405.00 0.0024691 635.24 722.60 2.2382 2.3064 3.0292 644.37 0.00024114 59.800 0.086996 405.00 0.0024691 635.24 722.60 2.2382 2.3064 3.0292 644.37 0.00024114 59.800 0.086996
186.38 5172.7 undefined 637.55 725.61 2.2433 405.00 0.0024691 637.55 725.61 2.2433 2.3103 3.0301 645.83 0.00020155 59.823 0.087124 405.00 0.0024691 637.55 725.61 2.2433 2.3103 3.0301 645.83 0.00020155 59.823 0.087124
187.38 5214.2 undefined 639.86 728.63 2.2483 405.00 0.0024691 639.86 728.63 2.2483 2.3141 3.0312 647.28 0.00016245 59.846 0.087253 405.00 0.0024691 639.86 728.63 2.2483 2.3141 3.0312 647.28 0.00016245 59.846 0.087253
188.38 5255.7 undefined 642.18 731.65 2.2533 405.00 0.0024691 642.18 731.65 2.2533 2.3179 3.0322 648.73 0.00012384 59.869 0.087382 405.00 0.0024691 642.18 731.65 2.2533 2.3179 3.0322 648.73 0.00012384 59.869 0.087382
189.38 5297.1 undefined 644.50 734.68 2.2583 405.00 0.0024691 644.50 734.68 2.2583 2.3218 3.0333 650.17 8.5700e-05 59.891 0.087512 405.00 0.0024691 644.50 734.68 2.2583 2.3218 3.0333 650.17 8.5700e-05 59.891 0.087512
190.38 5338.5 undefined 646.82 737.71 2.2634 405.00 0.0024691 646.82 737.71 2.2634 2.3256 3.0344 651.60 4.8031e-05 59.914 0.087641 405.00 0.0024691 646.82 737.71 2.2634 2.3256 3.0344 651.60 4.8031e-05 59.914 0.087641
191.38 5380.0 undefined 649.15 740.74 2.2684 405.00 0.0024691 649.15 740.74 2.2684 2.3295 3.0355 653.03 1.0824e-05 59.937 0.087771 405.00 0.0024691 649.15 740.74 2.2684 2.3295 3.0355 653.03 1.0824e-05 59.937 0.087771
192.38 5421.4 undefined 651.48 743.77 2.2734 405.00 0.0024691 651.48 743.77 2.2734 2.3333 3.0366 654.46 -2.5930e-05 59.960 0.087902 405.00 0.0024691 651.48 743.77 2.2734 2.3333 3.0366 654.46 -2.5930e-05 59.960 0.087902
193.38 5462.8 undefined 653.82 746.81 2.2784 405.00 0.0024691 653.82 746.81 2.2784 2.3371 3.0378 655.88 -6.2236e-05 59.982 0.088032 405.00 0.0024691 653.82 746.81 2.2784 2.3371 3.0378 655.88 -6.2236e-05 59.982 0.088032
194.38 5504.2 undefined 656.15 749.86 2.2834 405.00 0.0024691 656.15 749.86 2.2834 2.3409 3.0390 657.30 -9.8103e-05 60.005 0.088163 405.00 0.0024691 656.15 749.86 2.2834 2.3409 3.0390 657.30 -9.8103e-05 60.005 0.088163
195.38 5545.6 undefined 658.50 752.91 2.2884 405.00 0.0024691 658.50 752.91 2.2884 2.3447 3.0402 658.71 -0.00013354 60.028 0.088295 405.00 0.0024691 658.50 752.91 2.2884 2.3447 3.0402 658.71 -0.00013354 60.028 0.088295
196.38 5587.0 undefined 660.84 755.96 2.2934 405.00 0.0024691 660.84 755.96 2.2934 2.3486 3.0414 660.11 -0.00016854 60.050 0.088426 405.00 0.0024691 660.84 755.96 2.2934 2.3486 3.0414 660.11 -0.00016854 60.050 0.088426
197.38 5628.4 undefined 663.19 759.01 2.2984 405.00 0.0024691 663.19 759.01 2.2984 2.3524 3.0427 661.52 -0.00020313 60.073 0.088558 405.00 0.0024691 663.19 759.01 2.2984 2.3524 3.0427 661.52 -0.00020313 60.073 0.088558
198.38 5669.8 undefined 665.55 762.07 2.3034 405.00 0.0024691 665.55 762.07 2.3034 2.3562 3.0440 662.91 -0.00023730 60.096 0.088690 405.00 0.0024691 665.55 762.07 2.3034 2.3562 3.0440 662.91 -0.00023730 60.096 0.088690
199.38 5711.2 undefined 667.91 765.13 2.3084 405.00 0.0024691 667.91 765.13 2.3084 2.3600 3.0453 664.31 -0.00027107 60.118 0.088822 405.00 0.0024691 667.91 765.13 2.3084 2.3600 3.0453 664.31 -0.00027107 60.118 0.088822
200.38 5752.5 undefined 670.27 768.20 2.3134 405.00 0.0024691 670.27 768.20 2.3134 2.3638 3.0466 665.69 -0.00030444 60.141 0.088955 405.00 0.0024691 670.27 768.20 2.3134 2.3638 3.0466 665.69 -0.00030444 60.141 0.088955
201.38 5793.9 undefined 672.63 771.27 2.3184 405.00 0.0024691 672.63 771.27 2.3184 2.3676 3.0480 667.08 -0.00033741 60.164 0.089088 405.00 0.0024691 672.63 771.27 2.3184 2.3676 3.0480 667.08 -0.00033741 60.164 0.089088
202.38 5835.2 undefined 675.00 774.34 2.3234 405.00 0.0024691 675.00 774.34 2.3234 2.3714 3.0493 668.46 -0.00036999 60.186 0.089221 405.00 0.0024691 675.00 774.34 2.3234 2.3714 3.0493 668.46 -0.00036999 60.186 0.089221
203.38 5876.6 undefined 677.38 777.42 2.3284 405.00 0.0024691 677.38 777.42 2.3284 2.3752 3.0507 669.83 -0.00040219 60.209 0.089355 405.00 0.0024691 677.38 777.42 2.3284 2.3752 3.0507 669.83 -0.00040219 60.209 0.089355
204.38 5917.9 undefined 679.75 780.50 2.3333 405.00 0.0024691 679.75 780.50 2.3333 2.3790 3.0521 671.20 -0.00043402 60.231 0.089489 405.00 0.0024691 679.75 780.50 2.3333 2.3790 3.0521 671.20 -0.00043402 60.231 0.089489
205.38 5959.2 undefined 682.14 783.59 2.3383 405.00 0.0024691 682.14 783.59 2.3383 2.3828 3.0536 672.57 -0.00046547 60.254 0.089623 405.00 0.0024691 682.14 783.59 2.3383 2.3828 3.0536 672.57 -0.00046547 60.254 0.089623
206.38 6000.5 undefined 684.52 786.67 2.3433 405.00 0.0024691 684.52 786.67 2.3433 2.3866 3.0550 673.93 -0.00049656 60.277 0.089757 405.00 0.0024691 684.52 786.67 2.3433 2.3866 3.0550 673.93 -0.00049656 60.277 0.089757
207.38 6041.8 undefined 686.91 789.77 2.3483 405.00 0.0024691 686.91 789.77 2.3483 2.3903 3.0565 675.29 -0.00052728 60.299 0.089892 405.00 0.0024691 686.91 789.77 2.3483 2.3903 3.0565 675.29 -0.00052728 60.299 0.089892
208.38 6083.1 undefined 689.30 792.86 2.3533 405.00 0.0024691 689.30 792.86 2.3533 2.3941 3.0580 676.64 -0.00055765 60.322 0.090027 405.00 0.0024691 689.30 792.86 2.3533 2.3941 3.0580 676.64 -0.00055765 60.322 0.090027
209.38 6124.4 undefined 691.70 795.96 2.3582 405.00 0.0024691 691.70 795.96 2.3582 2.3979 3.0595 677.99 -0.00058767 60.344 0.090162 405.00 0.0024691 691.70 795.96 2.3582 2.3979 3.0595 677.99 -0.00058767 60.344 0.090162
210.38 6165.7 undefined 694.10 799.06 2.3632 405.00 0.0024691 694.10 799.06 2.3632 2.4017 3.0610 679.34 -0.00061735 60.367 0.090298 405.00 0.0024691 694.10 799.06 2.3632 2.4017 3.0610 679.34 -0.00061735 60.367 0.090298
211.38 6207.0 undefined 696.50 802.17 2.3682 405.00 0.0024691 696.50 802.17 2.3682 2.4054 3.0625 680.68 -0.00064669 60.389 0.090433 405.00 0.0024691 696.50 802.17 2.3682 2.4054 3.0625 680.68 -0.00064669 60.389 0.090433
212.38 6248.2 undefined 698.91 805.28 2.3731 405.00 0.0024691 698.91 805.28 2.3731 2.4092 3.0641 682.01 -0.00067569 60.412 0.090569 405.00 0.0024691 698.91 805.28 2.3731 2.4092 3.0641 682.01 -0.00067569 60.412 0.090569
213.38 6289.5 undefined 701.32 808.39 2.3781 405.00 0.0024691 701.32 808.39 2.3781 2.4130 3.0657 683.35 -0.00070436 60.435 0.090706 405.00 0.0024691 701.32 808.39 2.3781 2.4130 3.0657 683.35 -0.00070436 60.435 0.090706
214.38 6330.7 undefined 703.73 811.51 2.3830 405.00 0.0024691 703.73 811.51 2.3830 2.4167 3.0673 684.68 -0.00073270 60.457 0.090843 405.00 0.0024691 703.73 811.51 2.3830 2.4167 3.0673 684.68 -0.00073270 60.457 0.090843
215.38 6372.0 undefined 706.15 814.63 2.3880 405.00 0.0024691 706.15 814.63 2.3880 2.4205 3.0689 686.00 -0.00076073 60.480 0.090979 405.00 0.0024691 706.15 814.63 2.3880 2.4205 3.0689 686.00 -0.00076073 60.480 0.090979
216.38 6413.2 undefined 708.57 817.75 2.3930 405.00 0.0024691 708.57 817.75 2.3930 2.4242 3.0705 687.32 -0.00078844 60.502 0.091117 405.00 0.0024691 708.57 817.75 2.3930 2.4242 3.0705 687.32 -0.00078844 60.502 0.091117
217.38 6454.4 undefined 711.00 820.88 2.3979 405.00 0.0024691 711.00 820.88 2.3979 2.4280 3.0721 688.64 -0.00081584 60.524 0.091254 405.00 0.0024691 711.00 820.88 2.3979 2.4280 3.0721 688.64 -0.00081584 60.524 0.091254
218.38 6495.6 undefined 713.43 824.01 2.4029 405.00 0.0024691 713.43 824.01 2.4029 2.4317 3.0738 689.95 -0.00084293 60.547 0.091392 405.00 0.0024691 713.43 824.01 2.4029 2.4317 3.0738 689.95 -0.00084293 60.547 0.091392
219.38 6536.8 undefined 715.86 827.15 2.4078 405.00 0.0024691 715.86 827.15 2.4078 2.4354 3.0755 691.26 -0.00086971 60.569 0.091530 405.00 0.0024691 715.86 827.15 2.4078 2.4354 3.0755 691.26 -0.00086971 60.569 0.091530
220.38 6578.0 undefined 718.30 830.29 2.4127 405.00 0.0024691 718.30 830.29 2.4127 2.4392 3.0771 692.57 -0.00089620 60.592 0.091668 405.00 0.0024691 718.30 830.29 2.4127 2.4392 3.0771 692.57 -0.00089620 60.592 0.091668
221.38 6619.2 undefined 720.74 833.43 2.4177 405.00 0.0024691 720.74 833.43 2.4177 2.4429 3.0788 693.87 -0.00092239 60.614 0.091807 405.00 0.0024691 720.74 833.43 2.4177 2.4429 3.0788 693.87 -0.00092239 60.614 0.091807
222.38 6660.3 undefined 723.19 836.57 2.4226 405.00 0.0024691 723.19 836.57 2.4226 2.4466 3.0805 695.17 -0.00094830 60.637 0.091946 405.00 0.0024691 723.19 836.57 2.4226 2.4466 3.0805 695.17 -0.00094830 60.637 0.091946
223.38 6701.5 undefined 725.64 839.72 2.4276 405.00 0.0024691 725.64 839.72 2.4276 2.4504 3.0823 696.46 -0.00097391 60.659 0.092085 405.00 0.0024691 725.64 839.72 2.4276 2.4504 3.0823 696.46 -0.00097391 60.659 0.092085
224.38 6742.6 undefined 728.09 842.87 2.4325 405.00 0.0024691 728.09 842.87 2.4325 2.4541 3.0840 697.75 -0.00099925 60.682 0.092224 405.00 0.0024691 728.09 842.87 2.4325 2.4541 3.0840 697.75 -0.00099925 60.682 0.092224
225.38 6783.8 undefined 730.54 846.03 2.4374 405.00 0.0024691 730.54 846.03 2.4374 2.4578 3.0858 699.04 -0.0010243 60.704 0.092364 405.00 0.0024691 730.54 846.03 2.4374 2.4578 3.0858 699.04 -0.0010243 60.704 0.092364
226.38 6824.9 undefined 733.00 849.19 2.4424 405.00 0.0024691 733.00 849.19 2.4424 2.4615 3.0875 700.32 -0.0010491 60.726 0.092504 405.00 0.0024691 733.00 849.19 2.4424 2.4615 3.0875 700.32 -0.0010491 60.726 0.092504
227.38 6866.0 undefined 735.47 852.35 2.4473 405.00 0.0024691 735.47 852.35 2.4473 2.4652 3.0893 701.60 -0.0010736 60.749 0.092649 405.00 0.0024691 735.47 852.35 2.4473 2.4652 3.0893 701.60 -0.0010736 60.749 0.092649
228.38 6907.1 undefined 737.93 855.52 2.4522 405.00 0.0024691 737.93 855.52 2.4522 2.4689 3.0911 702.88 -0.0010978 60.771 0.092794 405.00 0.0024691 737.93 855.52 2.4522 2.4689 3.0911 702.88 -0.0010978 60.771 0.092794
229.38 6948.2 undefined 740.40 858.69 2.4571 405.00 0.0024691 740.40 858.69 2.4571 2.4726 3.0929 704.15 -0.0011218 60.793 0.092940 405.00 0.0024691 740.40 858.69 2.4571 2.4726 3.0929 704.15 -0.0011218 60.793 0.092940
230.38 6989.3 undefined 742.88 861.86 2.4620 405.00 0.0024691 742.88 861.86 2.4620 2.4763 3.0947 705.42 -0.0011455 60.816 0.093086 405.00 0.0024691 742.88 861.86 2.4620 2.4763 3.0947 705.42 -0.0011455 60.816 0.093086
231.38 7030.4 undefined 745.36 865.04 2.4670 405.00 0.0024691 745.36 865.04 2.4670 2.4800 3.0966 706.68 -0.0011690 60.838 0.093232 405.00 0.0024691 745.36 865.04 2.4670 2.4800 3.0966 706.68 -0.0011690 60.838 0.093232
232.38 7071.4 undefined 747.84 868.22 2.4719 405.00 0.0024691 747.84 868.22 2.4719 2.4837 3.0984 707.95 -0.0011922 60.860 0.093378 405.00 0.0024691 747.84 868.22 2.4719 2.4837 3.0984 707.95 -0.0011922 60.860 0.093378
233.38 7112.5 undefined 750.32 871.41 2.4768 405.00 0.0024691 750.32 871.41 2.4768 2.4874 3.1002 709.21 -0.0012152 60.883 0.093525 405.00 0.0024691 750.32 871.41 2.4768 2.4874 3.1002 709.21 -0.0012152 60.883 0.093525
234.38 7153.5 undefined 752.81 874.60 2.4817 405.00 0.0024691 752.81 874.60 2.4817 2.4911 3.1021 710.46 -0.0012379 60.905 0.093672 405.00 0.0024691 752.81 874.60 2.4817 2.4911 3.1021 710.46 -0.0012379 60.905 0.093672
235.38 7194.5 undefined 755.31 877.79 2.4866 405.00 0.0024691 755.31 877.79 2.4866 2.4948 3.1040 711.71 -0.0012603 60.927 0.093820 405.00 0.0024691 755.31 877.79 2.4866 2.4948 3.1040 711.71 -0.0012603 60.927 0.093820
236.38 7235.6 undefined 757.80 880.98 2.4915 405.00 0.0024691 757.80 880.98 2.4915 2.4984 3.1059 712.96 -0.0012826 60.950 0.093967 405.00 0.0024691 757.80 880.98 2.4915 2.4984 3.1059 712.96 -0.0012826 60.950 0.093967
237.38 7276.6 undefined 760.30 884.18 2.4964 405.00 0.0024691 760.30 884.18 2.4964 2.5021 3.1078 714.21 -0.0013046 60.972 0.094115 405.00 0.0024691 760.30 884.18 2.4964 2.5021 3.1078 714.21 -0.0013046 60.972 0.094115
238.38 7317.6 undefined 762.81 887.38 2.5013 405.00 0.0024691 762.81 887.38 2.5013 2.5058 3.1097 715.45 -0.0013263 60.994 0.094264 405.00 0.0024691 762.81 887.38 2.5013 2.5058 3.1097 715.45 -0.0013263 60.994 0.094264
239.38 7358.5 undefined 765.31 890.59 2.5062 405.00 0.0024691 765.31 890.59 2.5062 2.5094 3.1116 716.69 -0.0013478 61.016 0.094412 405.00 0.0024691 765.31 890.59 2.5062 2.5094 3.1116 716.69 -0.0013478 61.016 0.094412
240.38 7399.5 undefined 767.83 893.80 2.5111 405.00 0.0024691 767.83 893.80 2.5111 2.5131 3.1135 717.92 -0.0013691 61.039 0.094561 405.00 0.0024691 767.83 893.80 2.5111 2.5131 3.1135 717.92 -0.0013691 61.039 0.094561
241.38 7440.5 undefined 770.34 897.01 2.5160 405.00 0.0024691 770.34 897.01 2.5160 2.5167 3.1154 719.16 -0.0013902 61.061 0.094710 405.00 0.0024691 770.34 897.01 2.5160 2.5167 3.1154 719.16 -0.0013902 61.061 0.094710
242.38 7481.4 undefined 772.86 900.22 2.5209 405.00 0.0024691 772.86 900.22 2.5209 2.5204 3.1174 720.39 -0.0014111 61.083 0.094860 405.00 0.0024691 772.86 900.22 2.5209 2.5204 3.1174 720.39 -0.0014111 61.083 0.094860
243.38 7522.4 undefined 775.38 903.44 2.5258 405.00 0.0024691 775.38 903.44 2.5258 2.5240 3.1193 721.61 -0.0014317 61.105 0.095009 405.00 0.0024691 775.38 903.44 2.5258 2.5240 3.1193 721.61 -0.0014317 61.105 0.095009
244.38 7563.3 undefined 777.91 906.67 2.5307 405.00 0.0024691 777.91 906.67 2.5307 2.5277 3.1213 722.84 -0.0014521 61.127 0.095159 405.00 0.0024691 777.91 906.67 2.5307 2.5277 3.1213 722.84 -0.0014521 61.127 0.095159
245.38 7604.2 undefined 780.44 909.89 2.5355 405.00 0.0024691 780.44 909.89 2.5355 2.5313 3.1233 724.06 -0.0014723 61.149 0.095310 405.00 0.0024691 780.44 909.89 2.5355 2.5313 3.1233 724.06 -0.0014723 61.149 0.095310
246.38 7645.1 undefined 782.97 913.12 2.5404 405.00 0.0024691 782.97 913.12 2.5404 2.5350 3.1253 725.27 -0.0014923 61.172 0.095460 405.00 0.0024691 782.97 913.12 2.5404 2.5350 3.1253 725.27 -0.0014923 61.172 0.095460
247.38 7686.0 undefined 785.51 916.35 2.5453 405.00 0.0024691 785.51 916.35 2.5453 2.5386 3.1273 726.49 -0.0015121 61.194 0.095611 405.00 0.0024691 785.51 916.35 2.5453 2.5386 3.1273 726.49 -0.0015121 61.194 0.095611
248.38 7726.9 undefined 788.05 919.59 2.5502 405.00 0.0024691 788.05 919.59 2.5502 2.5422 3.1293 727.70 -0.0015316 61.216 0.095762 405.00 0.0024691 788.05 919.59 2.5502 2.5422 3.1293 727.70 -0.0015316 61.216 0.095762
249.38 7767.8 undefined 790.59 922.83 2.5550 405.00 0.0024691 790.59 922.83 2.5550 2.5458 3.1313 728.91 -0.0015510 61.238 0.095914 405.00 0.0024691 790.59 922.83 2.5550 2.5458 3.1313 728.91 -0.0015510 61.238 0.095914
250.38 7808.6 undefined 793.14 926.07 2.5599 405.00 0.0024691 793.14 926.07 2.5599 2.5495 3.1333 730.11 -0.0015702 61.260 0.096066 405.00 0.0024691 793.14 926.07 2.5599 2.5495 3.1333 730.11 -0.0015702 61.260 0.096066
251.38 7849.5 undefined 795.69 929.32 2.5648 405.00 0.0024691 795.69 929.32 2.5648 2.5531 3.1353 731.31 -0.0015892 61.282 0.096218 405.00 0.0024691 795.69 929.32 2.5648 2.5531 3.1353 731.31 -0.0015892 61.282 0.096218
252.38 7890.3 undefined 798.25 932.57 2.5697 405.00 0.0024691 798.25 932.57 2.5697 2.5567 3.1373 732.51 -0.0016079 61.304 0.096370 405.00 0.0024691 798.25 932.57 2.5697 2.5567 3.1373 732.51 -0.0016079 61.304 0.096370
253.38 7931.1 undefined 800.80 935.82 2.5745 405.00 0.0024691 800.80 935.82 2.5745 2.5603 3.1394 733.71 -0.0016265 61.326 0.096523 405.00 0.0024691 800.80 935.82 2.5745 2.5603 3.1394 733.71 -0.0016265 61.326 0.096523
254.38 7971.9 undefined 803.37 939.08 2.5794 405.00 0.0024691 803.37 939.08 2.5794 2.5639 3.1414 734.90 -0.0016449 61.348 0.096676 405.00 0.0024691 803.37 939.08 2.5794 2.5639 3.1414 734.90 -0.0016449 61.348 0.096676
255.38 8012.7 undefined 805.93 942.34 2.5842 405.00 0.0024691 805.93 942.34 2.5842 2.5675 3.1435 736.09 -0.0016631 61.370 0.096829 405.00 0.0024691 805.93 942.34 2.5842 2.5675 3.1435 736.09 -0.0016631 61.370 0.096829
256.38 8053.5 undefined 808.50 945.60 2.5891 405.00 0.0024691 808.50 945.60 2.5891 2.5711 3.1456 737.28 -0.0016811 61.392 0.096982 405.00 0.0024691 808.50 945.60 2.5891 2.5711 3.1456 737.28 -0.0016811 61.392 0.096982
257.38 8094.3 undefined 811.07 948.87 2.5939 405.00 0.0024691 811.07 948.87 2.5939 2.5747 3.1476 738.46 -0.0016990 61.414 0.097136 405.00 0.0024691 811.07 948.87 2.5939 2.5747 3.1476 738.46 -0.0016990 61.414 0.097136
258.38 8135.1 undefined 813.65 952.14 2.5988 405.00 0.0024691 813.65 952.14 2.5988 2.5783 3.1497 739.64 -0.0017166 61.436 0.097290 405.00 0.0024691 813.65 952.14 2.5988 2.5783 3.1497 739.64 -0.0017166 61.436 0.097290
259.38 8175.8 undefined 816.23 955.42 2.6037 405.00 0.0024691 816.23 955.42 2.6037 2.5819 3.1518 740.82 -0.0017341 61.458 0.097445 405.00 0.0024691 816.23 955.42 2.6037 2.5819 3.1518 740.82 -0.0017341 61.458 0.097445
260.38 8216.6 undefined 818.81 958.69 2.6085 405.00 0.0024691 818.81 958.69 2.6085 2.5854 3.1539 742.00 -0.0017514 61.480 0.097600 405.00 0.0024691 818.81 958.69 2.6085 2.5854 3.1539 742.00 -0.0017514 61.480 0.097600
261.38 8257.3 undefined 821.40 961.97 2.6133 405.00 0.0024691 821.40 961.97 2.6133 2.5890 3.1560 743.17 -0.0017685 61.502 0.097755 405.00 0.0024691 821.40 961.97 2.6133 2.5890 3.1560 743.17 -0.0017685 61.502 0.097755
262.38 8298.0 undefined 823.99 965.26 2.6182 405.00 0.0024691 823.99 965.26 2.6182 2.5926 3.1581 744.34 -0.0017854 61.524 0.097910 405.00 0.0024691 823.99 965.26 2.6182 2.5926 3.1581 744.34 -0.0017854 61.524 0.097910
263.38 8338.7 undefined 826.59 968.55 2.6230 405.00 0.0024691 826.59 968.55 2.6230 2.5962 3.1602 745.51 -0.0018022 61.546 0.098065 405.00 0.0024691 826.59 968.55 2.6230 2.5962 3.1602 745.51 -0.0018022 61.546 0.098065
264.38 8379.4 undefined 829.18 971.84 2.6279 405.00 0.0024691 829.18 971.84 2.6279 2.5997 3.1623 746.67 -0.0018188 61.568 0.098221 405.00 0.0024691 829.18 971.84 2.6279 2.5997 3.1623 746.67 -0.0018188 61.568 0.098221
265.38 8420.1 undefined 831.79 975.13 2.6327 405.00 0.0024691 831.79 975.13 2.6327 2.6033 3.1645 747.83 -0.0018353 61.590 0.098378 405.00 0.0024691 831.79 975.13 2.6327 2.6033 3.1645 747.83 -0.0018353 61.590 0.098378
266.38 8460.7 undefined 834.39 978.43 2.6375 405.00 0.0024691 834.39 978.43 2.6375 2.6068 3.1666 748.99 -0.0018515 61.612 0.098534 405.00 0.0024691 834.39 978.43 2.6375 2.6068 3.1666 748.99 -0.0018515 61.612 0.098534
267.38 8501.4 undefined 837.00 981.73 2.6424 405.00 0.0024691 837.00 981.73 2.6424 2.6104 3.1687 750.15 -0.0018677 61.634 0.098691 405.00 0.0024691 837.00 981.73 2.6424 2.6104 3.1687 750.15 -0.0018677 61.634 0.098691
268.38 8542.0 undefined 839.61 985.03 2.6472 405.00 0.0024691 839.61 985.03 2.6472 2.6139 3.1709 751.30 -0.0018836 61.656 0.098848 405.00 0.0024691 839.61 985.03 2.6472 2.6139 3.1709 751.30 -0.0018836 61.656 0.098848
269.38 8582.7 undefined 842.23 988.34 2.6520 405.00 0.0024691 842.23 988.34 2.6520 2.6175 3.1730 752.46 -0.0018994 61.678 0.099005 405.00 0.0024691 842.23 988.34 2.6520 2.6175 3.1730 752.46 -0.0018994 61.678 0.099005
270.38 8623.3 undefined 844.85 991.65 2.6568 405.00 0.0024691 844.85 991.65 2.6568 2.6210 3.1752 753.61 -0.0019150 61.699 0.099163 405.00 0.0024691 844.85 991.65 2.6568 2.6210 3.1752 753.61 -0.0019150 61.699 0.099163
271.38 8663.9 undefined 847.47 994.96 2.6617 405.00 0.0024691 847.47 994.96 2.6617 2.6245 3.1773 754.75 -0.0019305 61.721 0.099321 405.00 0.0024691 847.47 994.96 2.6617 2.6245 3.1773 754.75 -0.0019305 61.721 0.099321
272.38 8704.5 undefined 850.10 998.28 2.6665 405.00 0.0024691 850.10 998.28 2.6665 2.6281 3.1795 755.90 -0.0019458 61.743 0.099479 405.00 0.0024691 850.10 998.28 2.6665 2.6281 3.1795 755.90 -0.0019458 61.743 0.099479
273.38 8745.1 undefined 852.73 1001.6 2.6713 405.00 0.0024691 852.73 1001.6 2.6713 2.6316 3.1817 757.04 -0.0019610 61.765 0.099638 405.00 0.0024691 852.73 1001.6 2.6713 2.6316 3.1817 757.04 -0.0019610 61.765 0.099638
274.38 8785.6 undefined 855.36 1004.9 2.6761 405.00 0.0024691 855.36 1004.9 2.6761 2.6351 3.1839 758.17 -0.0019760 61.787 0.099796 405.00 0.0024691 855.36 1004.9 2.6761 2.6351 3.1839 758.17 -0.0019760 61.787 0.099796
275.38 8826.2 undefined 858.00 1008.3 2.6809 405.00 0.0024691 858.00 1008.3 2.6809 2.6386 3.1860 759.31 -0.0019909 61.808 0.099955 405.00 0.0024691 858.00 1008.3 2.6809 2.6386 3.1860 759.31 -0.0019909 61.808 0.099955
276.38 8866.7 undefined 860.64 1011.6 2.6857 405.00 0.0024691 860.64 1011.6 2.6857 2.6421 3.1882 760.44 -0.0020056 61.830 0.10011 405.00 0.0024691 860.64 1011.6 2.6857 2.6421 3.1882 760.44 -0.0020056 61.830 0.10011
277.38 8907.3 undefined 863.28 1014.9 2.6905 405.00 0.0024691 863.28 1014.9 2.6905 2.6456 3.1904 761.58 -0.0020202 61.852 0.10027 405.00 0.0024691 863.28 1014.9 2.6905 2.6456 3.1904 761.58 -0.0020202 61.852 0.10027
278.38 8947.8 undefined 865.93 1018.3 2.6953 405.00 0.0024691 865.93 1018.3 2.6953 2.6491 3.1926 762.70 -0.0020347 61.874 0.10043 405.00 0.0024691 865.93 1018.3 2.6953 2.6491 3.1926 762.70 -0.0020347 61.874 0.10043
279.38 8988.3 undefined 868.58 1021.6 2.7001 405.00 0.0024691 868.58 1021.6 2.7001 2.6526 3.1948 763.83 -0.0020490 61.895 0.10059 405.00 0.0024691 868.58 1021.6 2.7001 2.6526 3.1948 763.83 -0.0020490 61.895 0.10059
280.38 9028.8 undefined 871.23 1024.9 2.7049 405.00 0.0024691 871.23 1024.9 2.7049 2.6561 3.1970 764.95 -0.0020631 61.917 0.10076 405.00 0.0024691 871.23 1024.9 2.7049 2.6561 3.1970 764.95 -0.0020631 61.917 0.10076
281.38 9069.2 undefined 873.89 1028.3 2.7097 405.00 0.0024691 873.89 1028.3 2.7097 2.6596 3.1992 766.07 -0.0020771 61.939 0.10092 405.00 0.0024691 873.89 1028.3 2.7097 2.6596 3.1992 766.07 -0.0020771 61.939 0.10092
282.38 9109.7 undefined 876.55 1031.6 2.7145 405.00 0.0024691 876.55 1031.6 2.7145 2.6631 3.2015 767.19 -0.0020910 61.961 0.10063 405.00 0.0024691 876.55 1031.6 2.7145 2.6631 3.2015 767.19 -0.0020910 61.961 0.10063
283.38 9150.2 undefined 879.22 1035.0 2.7193 405.00 0.0024691 879.22 1035.0 2.7193 2.6666 3.2037 768.31 -0.0021048 61.982 0.10080 405.00 0.0024691 879.22 1035.0 2.7193 2.6666 3.2037 768.31 -0.0021048 61.982 0.10080
284.38 9190.6 undefined 881.89 1038.3 2.7241 405.00 0.0024691 881.89 1038.3 2.7241 2.6701 3.2059 769.42 -0.0021184 62.004 0.10096 405.00 0.0024691 881.89 1038.3 2.7241 2.6701 3.2059 769.42 -0.0021184 62.004 0.10096
285.38 9231.0 undefined 884.56 1041.7 2.7289 405.00 0.0024691 884.56 1041.7 2.7289 2.6736 3.2081 770.54 -0.0021319 62.026 0.10112 405.00 0.0024691 884.56 1041.7 2.7289 2.6736 3.2081 770.54 -0.0021319 62.026 0.10112
286.38 9271.5 undefined 887.23 1045.1 2.7337 405.00 0.0024691 887.23 1045.1 2.7337 2.6770 3.2104 771.64 -0.0021452 62.047 0.10128 405.00 0.0024691 887.23 1045.1 2.7337 2.6770 3.2104 771.64 -0.0021452 62.047 0.10128
287.38 9311.9 undefined 889.91 1048.4 2.7385 405.00 0.0024691 889.91 1048.4 2.7385 2.6805 3.2126 772.75 -0.0021584 62.069 0.10144 405.00 0.0024691 889.91 1048.4 2.7385 2.6805 3.2126 772.75 -0.0021584 62.069 0.10144
288.38 9352.3 undefined 892.59 1051.8 2.7433 405.00 0.0024691 892.59 1051.8 2.7433 2.6840 3.2148 773.86 -0.0021715 62.090 0.10160 405.00 0.0024691 892.59 1051.8 2.7433 2.6840 3.2148 773.86 -0.0021715 62.090 0.10160
289.38 9392.6 undefined 895.28 1055.2 2.7480 405.00 0.0024691 895.28 1055.2 2.7480 2.6874 3.2171 774.96 -0.0021845 62.112 0.10176 405.00 0.0024691 895.28 1055.2 2.7480 2.6874 3.2171 774.96 -0.0021845 62.112 0.10176
290.38 9433.0 undefined 897.97 1058.6 2.7528 405.00 0.0024691 897.97 1058.6 2.7528 2.6909 3.2193 776.06 -0.0021973 62.134 0.10193 405.00 0.0024691 897.97 1058.6 2.7528 2.6909 3.2193 776.06 -0.0021973 62.134 0.10193
291.38 9473.4 undefined 900.66 1061.9 2.7576 405.00 0.0024691 900.66 1061.9 2.7576 2.6943 3.2216 777.16 -0.0022100 62.155 0.10209 405.00 0.0024691 900.66 1061.9 2.7576 2.6943 3.2216 777.16 -0.0022100 62.155 0.10209
292.38 9513.7 undefined 903.36 1065.3 2.7624 405.00 0.0024691 903.36 1065.3 2.7624 2.6978 3.2238 778.25 -0.0022226 62.177 0.10225 405.00 0.0024691 903.36 1065.3 2.7624 2.6978 3.2238 778.25 -0.0022226 62.177 0.10225
293.38 9554.0 undefined 906.06 1068.7 2.7671 405.00 0.0024691 906.06 1068.7 2.7671 2.7012 3.2261 779.34 -0.0022351 62.198 0.10242 405.00 0.0024691 906.06 1068.7 2.7671 2.7012 3.2261 779.34 -0.0022351 62.198 0.10242
294.38 9594.3 undefined 908.76 1072.1 2.7719 405.00 0.0024691 908.76 1072.1 2.7719 2.7046 3.2284 780.43 -0.0022475 62.220 0.10258 405.00 0.0024691 908.76 1072.1 2.7719 2.7046 3.2284 780.43 -0.0022475 62.220 0.10258
295.38 9634.6 undefined 911.47 1075.5 2.7767 405.00 0.0024691 911.47 1075.5 2.7767 2.7081 3.2306 781.52 -0.0022597 62.241 0.10274 405.00 0.0024691 911.47 1075.5 2.7767 2.7081 3.2306 781.52 -0.0022597 62.241 0.10274
296.38 9674.9 undefined 914.18 1078.9 2.7814 405.00 0.0024691 914.18 1078.9 2.7814 2.7115 3.2329 782.61 -0.0022718 62.263 0.10291 405.00 0.0024691 914.18 1078.9 2.7814 2.7115 3.2329 782.61 -0.0022718 62.263 0.10291
297.38 9715.2 undefined 916.89 1082.3 2.7862 405.00 0.0024691 916.89 1082.3 2.7862 2.7149 3.2352 783.69 -0.0022838 62.284 0.10307 405.00 0.0024691 916.89 1082.3 2.7862 2.7149 3.2352 783.69 -0.0022838 62.284 0.10307
298.38 9755.5 undefined 919.61 1085.7 2.7909 405.00 0.0024691 919.61 1085.7 2.7909 2.7183 3.2375 784.77 -0.0022957 62.306 0.10324 405.00 0.0024691 919.61 1085.7 2.7909 2.7183 3.2375 784.77 -0.0022957 62.306 0.10324
299.38 9795.7 undefined 922.33 1089.1 2.7957 405.00 0.0024691 922.33 1089.1 2.7957 2.7218 3.2397 785.85 -0.0023075 62.327 0.10340 405.00 0.0024691 922.33 1089.1 2.7957 2.7218 3.2397 785.85 -0.0023075 62.327 0.10340
300.38 9836.0 undefined 925.05 1092.5 2.8004 405.00 0.0024691 925.05 1092.5 2.8004 2.7252 3.2420 786.93 -0.0023192 62.348 0.10357 405.00 0.0024691 925.05 1092.5 2.8004 2.7252 3.2420 786.93 -0.0023192 62.348 0.10357