Temperature (C) Pressure (psia) Quality (l+v) Internal Energy (l+v, kJ/kg) Enthalpy (l+v, kJ/kg) Entropy (l+v, J/g*K) Density (l, kg/m3) Volume (l, m3/kg) Internal Energy (l, kJ/kg) Enthalpy (l, kJ/kg) Entropy (l, J/g*K) Cv (l, J/g*K) Cp (l, J/g*K) Sound Spd. (l, m/s) Joule-Thomson (l, F/psia) Viscosity (l, uPa*s) Therm. Cond. (l, W/m*K) Density (v, kg/m3) Volume (v, m3/kg) Internal Energy (v, kJ/kg) Enthalpy (v, kJ/kg) Entropy (v, J/g*K) Cv (v, J/g*K) Cp (v, J/g*K) Sound Spd. (v, m/s) Joule-Thomson (v, F/psia) Viscosity (v, uPa*s) Therm. Cond. (v, W/m*K)
-187.62 2.4953e-08 1.0259e-11 -196.64 -196.64 -1.3959 733.13 0.0013640 -196.64 -196.64 -1.3959 1.3553 1.9158 2136.4 -0.0077592 10960. 0.20792 1.0669e-08 9.3732e+07 350.13 366.26 5.1858 0.69067 0.87923 143.28 6.1051 2.3259 0.0017061
-186.62 3.7339e-08 1.5143e-11 -194.73 -194.73 -1.3736 732.08 0.0013660 -194.73 -194.73 -1.3736 1.3539 1.9166 2129.6 -0.0077546 10073. 0.20765 1.5780e-08 6.3371e+07 350.82 367.14 5.1200 0.69462 0.88317 144.03 5.9178 2.3534 0.0017533
-185.62 5.5322e-08 2.2134e-11 -192.81 -192.81 -1.3516 731.04 0.0013679 -192.81 -192.81 -1.3516 1.3525 1.9174 2122.9 -0.0077498 9276.1 0.20737 2.3112e-08 4.3267e+07 351.52 368.02 5.0561 0.69857 0.88713 144.77 5.7383 2.3808 0.0018007
-184.62 8.1182e-08 3.2048e-11 -190.89 -190.89 -1.3298 730.00 0.0013699 -190.89 -190.89 -1.3298 1.3513 1.9182 2116.1 -0.0077448 8557.8 0.20708 3.3533e-08 2.9821e+07 352.22 368.91 4.9939 0.70253 0.89108 145.51 5.5662 2.4083 0.0018485
-183.62 1.1803e-07 4.5982e-11 -188.97 -188.97 -1.3083 728.96 0.0013718 -188.97 -188.97 -1.3083 1.3501 1.9191 2109.3 -0.0077395 7909.8 0.20678 4.8211e-08 2.0742e+07 352.92 369.81 4.9333 0.70648 0.89504 146.24 5.4011 2.4357 0.0018965
-182.62 1.7009e-07 6.5393e-11 -187.05 -187.05 -1.2869 727.92 0.0013738 -187.05 -187.05 -1.2869 1.3490 1.9201 2102.5 -0.0077340 7324.3 0.20647 6.8704e-08 1.4555e+07 353.63 370.70 4.8744 0.71043 0.89899 146.97 5.2426 2.4632 0.0019448
-181.62 2.4299e-07 9.2210e-11 -185.13 -185.13 -1.2658 726.88 0.0013757 -185.13 -185.13 -1.2658 1.3480 1.9210 2095.7 -0.0077283 6794.5 0.20616 9.7079e-08 1.0301e+07 354.35 371.60 4.8170 0.71438 0.90294 147.69 5.0904 2.4906 0.0019934
-180.62 3.4425e-07 1.2896e-10 -183.21 -183.21 -1.2450 725.85 0.0013777 -183.21 -183.21 -1.2450 1.3470 1.9220 2088.9 -0.0077225 6314.4 0.20584 1.3605e-07 7.3504e+06 355.06 372.51 4.7612 0.71833 0.90688 148.41 4.9442 2.5181 0.0020423
-179.62 4.8378e-07 1.7892e-10 -181.29 -181.29 -1.2243 724.81 0.0013797 -181.29 -181.29 -1.2243 1.3461 1.9231 2082.0 -0.0077164 5878.8 0.20551 1.8915e-07 5.2868e+06 355.78 373.42 4.7068 0.72227 0.91082 149.13 4.8038 2.5456 0.0020915
-178.62 6.7459e-07 2.4633e-10 -179.37 -179.37 -1.2038 723.78 0.0013816 -179.37 -179.37 -1.2038 1.3453 1.9241 2075.2 -0.0077102 5482.9 0.20517 2.6096e-07 3.8320e+06 356.51 374.33 4.6538 0.72620 0.91475 149.84 4.6688 2.5731 0.0021410
-177.62 9.3358e-07 3.3663e-10 -177.44 -177.44 -1.1836 722.75 0.0013836 -177.44 -177.44 -1.1836 1.3445 1.9252 2068.4 -0.0077039 5122.6 0.20483 3.5737e-07 2.7982e+06 357.23 375.25 4.6022 0.73012 0.91867 150.54 4.5390 2.6005 0.0021907
-176.62 1.2826e-06 4.5673e-10 -175.52 -175.52 -1.1635 721.72 0.0013856 -175.52 -175.52 -1.1635 1.3437 1.9263 2061.5 -0.0076973 4794.1 0.20447 4.8588e-07 2.0581e+06 357.97 376.17 4.5519 0.73403 0.92258 151.25 4.4142 2.6280 0.0022408
-175.62 1.7496e-06 6.1536e-10 -173.59 -173.59 -1.1437 720.69 0.0013876 -173.59 -173.59 -1.1437 1.3430 1.9274 2054.7 -0.0076907 4494.3 0.20411 6.5601e-07 1.5244e+06 358.70 377.09 4.5029 0.73792 0.92648 151.95 4.2941 2.6555 0.0022912
-174.62 2.3705e-06 8.2349e-10 -171.66 -171.66 -1.1240 719.66 0.0013895 -171.66 -171.66 -1.1240 1.3423 1.9286 2047.9 -0.0076838 4220.2 0.20375 8.7976e-07 1.1367e+06 359.44 378.02 4.4551 0.74181 0.93036 152.64 4.1784 2.6830 0.0023418
-173.62 3.1903e-06 1.0948e-09 -169.73 -169.73 -1.1045 718.64 0.0013915 -169.73 -169.73 -1.1045 1.3417 1.9298 2041.0 -0.0076769 3969.3 0.20338 1.1721e-06 8.5314e+05 360.19 378.95 4.4085 0.74568 0.93423 153.33 4.0671 2.7105 0.0023928
-172.62 4.2661e-06 1.4464e-09 -167.80 -167.80 -1.0852 717.61 0.0013935 -167.80 -167.80 -1.0852 1.3411 1.9310 2034.2 -0.0076698 3739.3 0.20300 1.5518e-06 6.4441e+05 360.93 379.89 4.3631 0.74953 0.93809 154.02 3.9599 2.7379 0.0024440
-171.62 5.6692e-06 1.8991e-09 -165.87 -165.87 -1.0661 716.58 0.0013955 -165.87 -165.87 -1.0661 1.3405 1.9322 2027.3 -0.0076625 3528.0 0.20261 2.0419e-06 4.8974e+05 361.69 380.83 4.3188 0.75337 0.94193 154.71 3.8566 2.7654 0.0024955
-170.62 7.4884e-06 2.4787e-09 -163.94 -163.94 -1.0472 715.56 0.0013975 -163.94 -163.94 -1.0472 1.3400 1.9334 2020.5 -0.0076552 3333.8 0.20222 2.6708e-06 3.7442e+05 362.44 381.77 4.2755 0.75720 0.94575 155.39 3.7570 2.7929 0.0025473
-169.62 9.8334e-06 3.2165e-09 -162.00 -162.00 -1.0284 714.54 0.0013995 -162.00 -162.00 -1.0284 1.3395 1.9347 2013.6 -0.0076477 3154.9 0.20182 3.4733e-06 2.8791e+05 363.20 382.72 4.2334 0.76100 0.94956 156.07 3.6609 2.8204 0.0025994
-168.62 1.2839e-05 4.1506e-09 -160.07 -160.07 -1.0098 713.52 0.0014015 -160.07 -160.07 -1.0098 1.3390 1.9359 2006.8 -0.0076401 2989.9 0.20141 4.4917e-06 2.2263e+05 363.96 383.67 4.1922 0.76479 0.95335 156.74 3.5683 2.8479 0.0026518
-167.62 1.6672e-05 5.3269e-09 -158.13 -158.13 -0.99134 712.49 0.0014035 -158.13 -158.13 -0.99134 1.3386 1.9372 2000.0 -0.0076323 2837.5 0.20100 5.7771e-06 1.7310e+05 364.73 384.63 4.1521 0.76856 0.95712 157.41 3.4790 2.8754 0.0027045
-166.62 2.1533e-05 6.8005e-09 -156.19 -156.19 -0.97306 711.47 0.0014055 -156.19 -156.19 -0.97306 1.3382 1.9385 1993.1 -0.0076245 2696.5 0.20058 7.3914e-06 1.3529e+05 365.50 385.59 4.1129 0.77232 0.96087 158.08 3.3927 2.9029 0.0027575
-165.62 2.7666e-05 8.6372e-09 -154.25 -154.25 -0.95494 710.45 0.0014075 -154.25 -154.25 -0.95494 1.3378 1.9398 1986.3 -0.0076165 2566.0 0.20016 9.4084e-06 1.0629e+05 366.27 386.55 4.0746 0.77605 0.96460 158.75 3.3095 2.9304 0.0028108
-164.62 3.5367e-05 1.0916e-08 -152.31 -152.31 -0.93698 709.44 0.0014096 -152.31 -152.31 -0.93698 1.3375 1.9411 1979.4 -0.0076084 2444.9 0.19973 1.1916e-05 83918. 367.05 387.52 4.0372 0.77976 0.96832 159.41 3.2291 2.9579 0.0028643
-163.62 4.4989e-05 1.3728e-08 -150.37 -150.37 -0.91917 708.42 0.0014116 -150.37 -150.37 -0.91917 1.3371 1.9424 1972.6 -0.0076002 2332.3 0.19930 1.5020e-05 66577. 367.83 388.49 4.0008 0.78346 0.97201 160.07 3.1514 2.9854 0.0029182
-162.62 5.6956e-05 1.7185e-08 -148.43 -148.43 -0.90151 707.40 0.0014136 -148.43 -148.43 -0.90151 1.3368 1.9437 1965.8 -0.0075919 2227.7 0.19886 1.8844e-05 53068. 368.62 389.46 3.9651 0.78713 0.97569 160.72 3.0764 3.0129 0.0029723
-161.62 7.1773e-05 2.1413e-08 -146.48 -146.48 -0.88400 706.38 0.0014157 -146.48 -146.48 -0.88400 1.3365 1.9451 1959.0 -0.0075834 2130.2 0.19841 2.3533e-05 42494. 369.41 390.44 3.9304 0.79079 0.97935 161.38 3.0038 3.0404 0.0030268
-160.62 9.0036e-05 2.6563e-08 -144.54 -144.54 -0.86663 705.37 0.0014177 -144.54 -144.54 -0.86663 1.3363 1.9465 1952.1 -0.0075748 2039.2 0.19796 2.9258e-05 34178. 370.20 391.42 3.8964 0.79443 0.98298 162.03 2.9337 3.0679 0.0030815
-159.62 0.00011245 3.2810e-08 -142.59 -142.59 -0.84940 704.35 0.0014197 -142.59 -142.59 -0.84940 1.3360 1.9478 1945.3 -0.0075661 1954.2 0.19751 3.6221e-05 27609. 371.00 392.40 3.8632 0.79805 0.98660 162.68 2.8658 3.0955 0.0031365
-158.62 0.00013985 4.0356e-08 -140.64 -140.64 -0.83231 703.34 0.0014218 -140.64 -140.64 -0.83231 1.3358 1.9492 1938.5 -0.0075573 1874.8 0.19705 4.4652e-05 22395. 371.80 393.39 3.8307 0.80164 0.99020 163.32 2.8002 3.1230 0.0031918
-157.62 0.00017320 4.9435e-08 -138.69 -138.69 -0.81536 702.32 0.0014238 -138.69 -138.69 -0.81536 1.3356 1.9506 1931.7 -0.0075484 1800.3 0.19658 5.4822e-05 18241. 372.60 394.38 3.7990 0.80522 0.99378 163.96 2.7367 3.1505 0.0032474
-156.62 0.00021364 6.0315e-08 -136.74 -136.74 -0.79854 701.31 0.0014259 -136.74 -136.74 -0.79854 1.3354 1.9520 1924.9 -0.0075393 1730.5 0.19611 6.7040e-05 14916. 373.41 395.38 3.7680 0.80878 0.99734 164.60 2.6752 3.1780 0.0033033
-155.62 0.00026248 7.3305e-08 -134.79 -134.79 -0.78185 700.30 0.0014280 -134.79 -134.79 -0.78185 1.3352 1.9534 1918.1 -0.0075302 1664.9 0.19564 8.1666e-05 12245. 374.22 396.38 3.7377 0.81232 1.0009 165.24 2.6157 3.2055 0.0033595
-154.62 0.00032125 8.8757e-08 -132.83 -132.83 -0.76530 699.29 0.0014300 -132.83 -132.83 -0.76530 1.3350 1.9548 1911.3 -0.0075209 1603.3 0.19516 9.9109e-05 10090. 375.03 397.38 3.7081 0.81585 1.0044 165.87 2.5580 3.2330 0.0034160
-153.62 0.00039171 1.0707e-07 -130.88 -130.88 -0.74887 698.27 0.0014321 -130.88 -130.88 -0.74887 1.3349 1.9563 1904.5 -0.0075114 1545.3 0.19468 0.00011984 8344.6 375.85 398.39 3.6792 0.81935 1.0079 166.50 2.5022 3.2606 0.0034727
-152.62 0.00047590 1.2871e-07 -128.92 -128.92 -0.73256 697.26 0.0014342 -128.92 -128.92 -0.73256 1.3348 1.9577 1897.8 -0.0075019 1490.6 0.19419 0.00014439 6925.9 376.67 399.40 3.6509 0.82284 1.0114 167.13 2.4481 3.2881 0.0035298
-151.62 0.00057613 1.5417e-07 -126.96 -126.96 -0.71638 696.25 0.0014363 -126.96 -126.96 -0.71638 1.3346 1.9592 1891.0 -0.0074922 1438.9 0.19370 0.00017336 5768.4 377.49 400.41 3.6232 0.82631 1.0149 167.76 2.3957 3.3156 0.0035872
-150.62 0.00069507 1.8405e-07 -125.00 -125.00 -0.70032 695.24 0.0014384 -125.00 -125.00 -0.70032 1.3345 1.9606 1884.2 -0.0074824 1390.2 0.19320 0.00020744 4820.7 378.32 401.42 3.5962 0.82976 1.0183 168.38 2.3448 3.3431 0.0036448
-149.62 0.00083574 2.1898e-07 -123.04 -123.04 -0.68437 694.23 0.0014404 -123.04 -123.04 -0.68438 1.3345 1.9621 1877.4 -0.0074724 1344.0 0.19270 0.00024740 4042.0 379.15 402.44 3.5697 0.83319 1.0218 169.00 2.2956 3.3706 0.0037027
-148.62 0.0010016 2.5972e-07 -121.08 -121.08 -0.66855 693.22 0.0014425 -121.08 -121.08 -0.66855 1.3344 1.9636 1870.7 -0.0074623 1300.3 0.19220 0.00029412 3400.0 379.99 403.47 3.5438 0.83661 1.0252 169.62 2.2478 3.3982 0.0037610
-147.62 0.0011965 3.0705e-07 -119.11 -119.11 -0.65284 692.21 0.0014447 -119.11 -119.11 -0.65284 1.3343 1.9651 1863.9 -0.0074521 1258.9 0.19169 0.00034856 2869.0 380.83 404.49 3.5185 0.84001 1.0286 170.24 2.2014 3.4257 0.0038195
-146.62 0.0014249 3.6191e-07 -117.15 -117.15 -0.63724 691.20 0.0014468 -117.15 -117.15 -0.63724 1.3343 1.9666 1857.2 -0.0074417 1219.6 0.19117 0.00041181 2428.3 381.67 405.52 3.4938 0.84340 1.0320 170.85 2.1565 3.4532 0.0038783
-145.62 0.0016917 4.2528e-07 -115.18 -115.18 -0.62175 690.19 0.0014489 -115.18 -115.18 -0.62175 1.3343 1.9682 1850.4 -0.0074312 1182.3 0.19066 0.00048510 2061.4 382.51 406.56 3.4695 0.84677 1.0353 171.46 2.1128 3.4807 0.0039374
-144.62 0.0020026 4.9830e-07 -113.21 -113.21 -0.60637 689.18 0.0014510 -113.21 -113.21 -0.60637 1.3343 1.9697 1843.7 -0.0074206 1146.8 0.19014 0.00056976 1755.1 383.36 407.59 3.4458 0.85012 1.0387 172.07 2.0705 3.5082 0.0039967
-143.62 0.0023637 5.8219e-07 -111.24 -111.24 -0.59110 688.17 0.0014531 -111.24 -111.24 -0.59110 1.3343 1.9713 1836.9 -0.0074098 1113.0 0.18962 0.00066731 1498.6 384.21 408.63 3.4226 0.85346 1.0420 172.68 2.0294 3.5358 0.0040564
-142.62 0.0027820 6.7831e-07 -109.27 -109.27 -0.57593 687.16 0.0014553 -109.27 -109.27 -0.57593 1.3343 1.9728 1830.2 -0.0073988 1080.8 0.18909 0.00077939 1283.1 385.07 409.68 3.3999 0.85679 1.0454 173.28 1.9896 3.5633 0.0041164
-141.62 0.0032653 7.8816e-07 -107.30 -107.30 -0.56087 686.15 0.0014574 -107.30 -107.30 -0.56087 1.3343 1.9744 1823.5 -0.0073878 1050.1 0.18856 0.00090784 1101.5 385.93 410.72 3.3777 0.86011 1.0487 173.88 1.9508 3.5908 0.0041766
-140.62 0.0038222 9.1337e-07 -105.32 -105.32 -0.54590 685.14 0.0014596 -105.32 -105.32 -0.54591 1.3344 1.9760 1816.7 -0.0073765 1020.7 0.18803 0.0010547 948.16 386.79 411.77 3.3560 0.86341 1.0520 174.48 1.9133 3.6183 0.0042372
-139.62 0.0044623 1.0557e-06 -103.34 -103.34 -0.53104 684.13 0.0014617 -103.34 -103.34 -0.53105 1.3344 1.9776 1810.0 -0.0073651 992.74 0.18749 0.0012221 818.26 387.65 412.83 3.3347 0.86670 1.0553 175.08 1.8768 3.6459 0.0042980
-138.62 0.0051963 1.2172e-06 -101.37 -101.37 -0.51628 683.12 0.0014639 -101.37 -101.37 -0.51629 1.3345 1.9792 1803.3 -0.0073536 965.97 0.18695 0.0014125 707.94 388.52 413.88 3.3139 0.86998 1.0586 175.67 1.8413 3.6734 0.0043592
-137.62 0.0060358 1.3999e-06 -99.385 -99.385 -0.50162 682.11 0.0014660 -99.386 -99.386 -0.50162 1.3346 1.9808 1796.6 -0.0073419 940.35 0.18641 0.0016287 614.00 389.39 414.94 3.2935 0.87325 1.0619 176.26 1.8069 3.7009 0.0044206
-136.62 0.0069938 1.6061e-06 -97.404 -97.404 -0.48705 681.10 0.0014682 -97.404 -97.404 -0.48705 1.3347 1.9825 1789.9 -0.0073301 915.81 0.18586 0.0018733 533.80 390.26 416.00 3.2735 0.87650 1.0651 176.85 1.7734 3.7284 0.0044823
-135.62 0.0080843 1.8384e-06 -95.420 -95.420 -0.47257 680.09 0.0014704 -95.421 -95.421 -0.47258 1.3348 1.9841 1783.2 -0.0073180 892.30 0.18531 0.0021497 465.17 391.14 417.07 3.2540 0.87975 1.0684 177.44 1.7409 3.7559 0.0045443
-134.62 0.0093230 2.0995e-06 -93.435 -93.435 -0.45819 679.08 0.0014726 -93.436 -93.436 -0.45820 1.3350 1.9858 1776.5 -0.0073059 869.75 0.18476 0.0024613 406.30 392.02 418.14 3.2348 0.88299 1.0716 178.02 1.7093 3.7834 0.0046066
-133.62 0.010727 2.3921e-06 -91.448 -91.448 -0.44390 678.07 0.0014748 -91.450 -91.449 -0.44391 1.3351 1.9875 1769.8 -0.0072935 848.11 0.18421 0.0028116 355.67 392.91 419.21 3.2161 0.88622 1.0749 178.61 1.6786 3.8109 0.0046691
-132.62 0.012315 2.7196e-06 -89.460 -89.460 -0.42970 677.06 0.0014770 -89.461 -89.461 -0.42971 1.3353 1.9892 1763.1 -0.0072810 827.32 0.18365 0.0032049 312.03 393.79 420.29 3.1977 0.88944 1.0781 179.19 1.6488 3.8385 0.0047320
-131.62 0.014106 3.0853e-06 -87.470 -87.469 -0.41559 676.04 0.0014792 -87.471 -87.471 -0.41560 1.3354 1.9909 1756.4 -0.0072684 807.34 0.18309 0.0036453 274.33 394.68 421.36 3.1798 0.89266 1.0813 179.76 1.6197 3.8660 0.0047951
-130.62 0.016124 3.4928e-06 -85.478 -85.477 -0.40156 675.03 0.0014814 -85.479 -85.479 -0.40157 1.3356 1.9926 1749.7 -0.0072555 788.12 0.18253 0.0041375 241.69 395.58 422.44 3.1622 0.89586 1.0846 180.34 1.5915 3.8935 0.0048586
-129.62 0.018392 3.9460e-06 -83.484 -83.484 -0.38762 674.02 0.0014836 -83.486 -83.486 -0.38763 1.3358 1.9944 1743.0 -0.0072425 769.63 0.18196 0.0046867 213.37 396.47 423.53 3.1450 0.89906 1.0878 180.91 1.5641 3.9210 0.0049223
-128.62 0.020935 4.4489e-06 -81.489 -81.488 -0.37377 673.01 0.0014859 -81.491 -81.490 -0.37378 1.3360 1.9961 1736.3 -0.0072294 751.83 0.18140 0.0052981 188.75 397.37 424.62 3.1281 0.90226 1.0910 181.48 1.5374 3.9485 0.0049863
-127.62 0.023783 5.0061e-06 -79.491 -79.491 -0.35999 672.00 0.0014881 -79.494 -79.493 -0.36001 1.3363 1.9979 1729.6 -0.0072160 734.67 0.18083 0.0059776 167.29 398.27 425.71 3.1116 0.90545 1.0942 182.05 1.5114 3.9760 0.0050506
-126.62 0.026966 5.6223e-06 -77.492 -77.492 -0.34630 670.98 0.0014904 -77.495 -77.495 -0.34632 1.3365 1.9997 1722.9 -0.0072025 718.14 0.18025 0.0067313 148.56 399.18 426.80 3.0954 0.90863 1.0974 182.62 1.4861 4.0035 0.0051152
-125.62 0.030515 6.3023e-06 -75.491 -75.491 -0.33269 669.97 0.0014926 -75.494 -75.494 -0.33272 1.3368 2.0015 1716.2 -0.0071888 702.18 0.17968 0.0075660 132.17 400.09 427.89 3.0795 0.91181 1.1006 183.18 1.4615 4.0310 0.0051800
-124.62 0.034467 7.0516e-06 -73.489 -73.488 -0.31916 668.95 0.0014949 -73.492 -73.492 -0.31919 1.3371 2.0033 1709.5 -0.0071749 686.79 0.17910 0.0084885 117.81 401.00 428.99 3.0640 0.91499 1.1038 183.74 1.4375 4.0584 0.0052452
-123.62 0.038859 7.8757e-06 -71.484 -71.483 -0.30571 667.94 0.0014971 -71.488 -71.487 -0.30574 1.3374 2.0051 1702.8 -0.0071609 671.93 0.17852 0.0095065 105.19 401.91 430.10 3.0488 0.91816 1.1070 184.30 1.4141 4.0859 0.0053106
-122.62 0.043731 8.7805e-06 -69.477 -69.477 -0.29234 666.92 0.0014994 -69.482 -69.481 -0.29237 1.3377 2.0070 1696.2 -0.0071466 657.57 0.17794 0.010628 94.092 402.83 431.20 3.0339 0.92134 1.1102 184.86 1.3913 4.1134 0.0053764
-121.62 0.049128 9.7723e-06 -67.469 -67.468 -0.27904 665.91 0.0015017 -67.474 -67.473 -0.27907 1.3380 2.0089 1689.5 -0.0071322 643.70 0.17736 0.011861 84.309 403.75 432.31 3.0193 0.92451 1.1134 185.41 1.3691 4.1409 0.0054424
-120.62 0.055096 1.0858e-05 -65.459 -65.458 -0.26582 664.89 0.0015040 -65.464 -65.463 -0.26585 1.3384 2.0107 1682.8 -0.0071176 630.28 0.17678 0.013215 75.669 404.67 433.42 3.0050 0.92767 1.1166 185.96 1.3475 4.1683 0.0055087
-119.62 0.061684 1.2044e-05 -63.447 -63.446 -0.25267 663.87 0.0015063 -63.452 -63.452 -0.25271 1.3387 2.0126 1676.1 -0.0071028 617.30 0.17619 0.014700 68.027 405.60 434.53 2.9909 0.93084 1.1198 186.51 1.3264 4.1958 0.0055752
-118.62 0.068946 1.3337e-05 -61.432 -61.431 -0.23959 662.86 0.0015086 -61.439 -61.438 -0.23963 1.3391 2.0146 1669.4 -0.0070878 604.74 0.17560 0.016325 61.255 406.53 435.64 2.9772 0.93401 1.1231 187.06 1.3058 4.2233 0.0056421
-117.62 0.076937 1.4746e-05 -59.416 -59.415 -0.22659 661.84 0.0015109 -59.423 -59.422 -0.22663 1.3395 2.0165 1662.8 -0.0070726 592.58 0.17501 0.018101 55.245 407.46 436.76 2.9638 0.93718 1.1263 187.60 1.2857 4.2507 0.0057092
-116.62 0.085718 1.6279e-05 -57.398 -57.397 -0.21365 660.82 0.0015133 -57.406 -57.405 -0.21370 1.3400 2.0184 1656.1 -0.0070573 580.80 0.17442 0.020040 49.901 408.39 437.88 2.9506 0.94035 1.1295 188.14 1.2660 4.2782 0.0057767
-115.62 0.095353 1.7943e-05 -55.378 -55.376 -0.20079 659.80 0.0015156 -55.386 -55.385 -0.20084 1.3404 2.0204 1649.4 -0.0070417 569.38 0.17383 0.022152 45.142 409.33 439.01 2.9377 0.94352 1.1327 188.68 1.2468 4.3056 0.0058444
-114.62 0.10591 1.9748e-05 -53.356 -53.354 -0.18799 658.78 0.0015180 -53.365 -53.364 -0.18805 1.3409 2.0224 1642.7 -0.0070260 558.32 0.17323 0.024451 40.898 410.27 440.13 2.9250 0.94669 1.1360 189.22 1.2281 4.3330 0.0059123
-113.62 0.11746 2.1702e-05 -51.332 -51.330 -0.17526 657.76 0.0015203 -51.342 -51.340 -0.17533 1.3413 2.0244 1636.0 -0.0070100 547.59 0.17264 0.026949 37.107 411.21 441.26 2.9126 0.94987 1.1392 189.75 1.2097 4.3604 0.0059806
-112.62 0.13008 2.3816e-05 -49.305 -49.303 -0.16260 656.73 0.0015227 -49.316 -49.315 -0.16267 1.3418 2.0264 1629.3 -0.0069938 537.18 0.17204 0.029661 33.715 412.16 442.39 2.9005 0.95305 1.1424 190.28 1.1918 4.3879 0.0060491
-111.62 0.14384 2.6098e-05 -47.277 -47.274 -0.15000 655.71 0.0015251 -47.289 -47.287 -0.15008 1.3424 2.0285 1622.7 -0.0069774 527.08 0.17144 0.032600 30.675 413.10 443.53 2.8885 0.95623 1.1457 190.81 1.1742 4.4153 0.0061180
-110.62 0.15884 2.8559e-05 -45.246 -45.244 -0.13747 654.69 0.0015274 -45.259 -45.258 -0.13755 1.3429 2.0305 1616.0 -0.0069609 517.28 0.17084 0.035781 27.948 414.06 444.66 2.8769 0.95942 1.1490 191.34 1.1570 4.4427 0.0061871
-109.62 0.17516 3.1210e-05 -43.213 -43.211 -0.12500 653.66 0.0015298 -43.228 -43.226 -0.12509 1.3435 2.0326 1609.3 -0.0069441 507.76 0.17024 0.039220 25.497 415.01 445.80 2.8654 0.96261 1.1522 191.86 1.1402 4.4701 0.0062564
-108.62 0.19290 3.4062e-05 -41.179 -41.175 -0.11259 652.64 0.0015322 -41.194 -41.192 -0.11269 1.3441 2.0347 1602.6 -0.0069271 498.51 0.16964 0.042933 23.292 415.96 446.94 2.8542 0.96581 1.1555 192.38 1.1236 4.4974 0.0063261
-107.62 0.21215 3.7126e-05 -39.141 -39.138 -0.10025 651.61 0.0015347 -39.158 -39.156 -0.10036 1.3447 2.0369 1595.9 -0.0069098 489.52 0.16903 0.046937 21.305 416.92 448.09 2.8433 0.96901 1.1588 192.90 1.1075 4.5248 0.0063960
-106.62 0.23301 4.0414e-05 -37.102 -37.098 -0.087964 650.58 0.0015371 -37.120 -37.118 -0.088082 1.3453 2.0390 1589.2 -0.0068924 480.79 0.16843 0.051250 19.512 417.88 449.23 2.8325 0.97222 1.1621 193.41 1.0916 4.5522 0.0064662
-105.62 0.25561 4.3937e-05 -35.061 -35.056 -0.075741 649.55 0.0015395 -35.080 -35.078 -0.075868 1.3460 2.0412 1582.6 -0.0068747 472.30 0.16782 0.055891 17.892 418.85 450.38 2.8220 0.97544 1.1655 193.93 1.0760 4.5795 0.0065367
-104.62 0.28004 4.7709e-05 -33.017 -33.012 -0.063577 648.52 0.0015420 -33.038 -33.035 -0.063714 1.3467 2.0434 1575.9 -0.0068569 464.04 0.16721 0.060878 16.426 419.81 451.53 2.8116 0.97867 1.1688 194.44 1.0608 4.6069 0.0066074
-103.62 0.30643 5.1742e-05 -30.970 -30.966 -0.051471 647.49 0.0015444 -30.994 -30.991 -0.051619 1.3474 2.0456 1569.2 -0.0068387 456.00 0.16660 0.066231 15.099 420.78 452.68 2.8015 0.98191 1.1722 194.94 1.0458 4.6342 0.0066785
-102.62 0.33490 5.6050e-05 -28.922 -28.917 -0.039423 646.46 0.0015469 -28.947 -28.944 -0.039582 1.3481 2.0478 1562.5 -0.0068204 448.18 0.16600 0.071971 13.894 421.75 453.84 2.7916 0.98516 1.1755 195.44 1.0310 4.6615 0.0067498
-101.62 0.36558 6.0645e-05 -26.871 -26.865 -0.027431 645.43 0.0015494 -26.898 -26.894 -0.027602 1.3489 2.0501 1555.8 -0.0068018 440.57 0.16539 0.078120 12.801 422.73 454.99 2.7818 0.98841 1.1789 195.95 1.0166 4.6888 0.0068213
-100.62 0.39862 6.5542e-05 -24.818 -24.811 -0.015495 644.39 0.0015519 -24.847 -24.843 -0.015678 1.3497 2.0524 1549.1 -0.0067830 433.16 0.16478 0.084699 11.807 423.70 456.15 2.7723 0.99168 1.1823 196.44 1.0024 4.7161 0.0068932
-99.625 0.43414 7.0756e-05 -22.762 -22.755 -0.0036145 643.36 0.0015544 -22.794 -22.789 -0.0038103 1.3505 2.0547 1542.4 -0.0067639 425.95 0.16416 0.091731 10.901 424.68 457.31 2.7630 0.99496 1.1858 196.94 0.98838 4.7434 0.0069653
-98.625 0.47230 7.6300e-05 -20.704 -20.696 0.0082122 642.32 0.0015569 -20.738 -20.733 0.0080027 1.3514 2.0570 1535.7 -0.0067447 418.92 0.16355 0.099240 10.077 425.66 458.48 2.7538 0.99825 1.1892 197.43 0.97464 4.7707 0.0070377
-97.625 0.51325 8.2189e-05 -18.643 -18.635 0.019986 641.28 0.0015594 -18.680 -18.674 0.019762 1.3522 2.0594 1529.0 -0.0067251 412.07 0.16294 0.10725 9.3239 426.65 459.64 2.7448 1.0016 1.1927 197.92 0.96112 4.7979 0.0071103
-96.625 0.55714 8.8440e-05 -16.580 -16.571 0.031706 640.24 0.0015619 -16.620 -16.614 0.031467 1.3531 2.0618 1522.3 -0.0067053 405.39 0.16233 0.11579 8.6365 427.63 460.81 2.7360 1.0049 1.1962 198.40 0.94783 4.8251 0.0071832
-95.625 0.60416 9.5066e-05 -14.515 -14.505 0.043375 639.20 0.0015645 -14.557 -14.550 0.043120 1.3540 2.0642 1515.7 -0.0066853 398.88 0.16171 0.12488 8.0078 428.62 461.98 2.7274 1.0082 1.1997 198.88 0.93475 4.8524 0.0072564
-94.625 0.65446 0.00010209 -12.446 -12.436 0.054993 638.16 0.0015670 -12.491 -12.484 0.054721 1.3550 2.0667 1509.0 -0.0066650 392.53 0.16110 0.13455 7.4323 429.61 463.15 2.7189 1.0116 1.2032 199.36 0.92188 4.8796 0.0073299
-93.625 0.70822 0.00010951 -10.375 -10.364 0.066561 637.12 0.0015696 -10.424 -10.416 0.066271 1.3560 2.0691 1502.3 -0.0066444 386.34 0.16048 0.14482 6.9050 430.60 464.32 2.7107 1.0149 1.2068 199.83 0.90921 4.9068 0.0074036
-92.625 0.76564 0.00011736 -8.3019 -8.2896 0.078079 636.07 0.0015722 -8.3535 -8.3452 0.077771 1.3570 2.0716 1495.6 -0.0066236 380.31 0.15987 0.15573 6.4212 431.60 465.49 2.7025 1.0183 1.2104 200.30 0.89673 4.9340 0.0074776
-91.625 0.82689 0.00012566 -6.2257 -6.2124 0.089548 635.02 0.0015747 -6.2808 -6.2719 0.089220 1.3580 2.0742 1488.9 -0.0066025 374.41 0.15925 0.16731 5.9769 432.59 466.67 2.6946 1.0217 1.2140 200.77 0.88445 4.9611 0.0075518
-90.625 0.89218 0.00013441 -4.1468 -4.1325 0.10097 633.98 0.0015773 -4.2056 -4.1959 0.10062 1.3591 2.0767 1482.2 -0.0065811 368.66 0.15864 0.17958 5.5685 433.59 467.84 2.6868 1.0251 1.2177 201.24 0.87236 4.9883 0.0076263
-89.625 0.96172 0.00014363 -2.0651 -2.0497 0.11234 632.93 0.0015800 -2.1279 -2.1174 0.11197 1.3602 2.0793 1475.5 -0.0065595 363.05 0.15802 0.19258 5.1928 434.59 469.02 2.6791 1.0285 1.2213 201.70 0.86045 5.0154 0.0077011
-88.625 1.0357 0.00015335 0.019290 0.035897 0.12367 631.88 0.0015826 -0.047516 -0.036215 0.12328 1.3613 2.0819 1468.8 -0.0065375 357.56 0.15740 0.20633 4.8466 435.59 470.20 2.6717 1.0320 1.2250 202.15 0.84873 5.0425 0.0077761
-87.625 1.1144 0.00016358 2.1065 2.1244 0.13495 630.83 0.0015852 2.0355 2.0476 0.13454 1.3625 2.0846 1462.1 -0.0065153 352.21 0.15679 0.22087 4.5276 436.60 471.39 2.6643 1.0354 1.2288 202.61 0.83718 5.0696 0.0078514
-86.625 1.1979 0.00017434 4.1966 4.2158 0.14619 629.77 0.0015879 4.1211 4.1342 0.14575 1.3637 2.0873 1455.4 -0.0064928 346.98 0.15617 0.23623 4.2331 437.61 472.57 2.6571 1.0389 1.2325 203.06 0.82580 5.0967 0.0079270
-85.625 1.2866 0.00018564 6.2896 6.3103 0.15738 628.72 0.0015905 6.2094 6.2235 0.15691 1.3649 2.0900 1448.8 -0.0064701 341.87 0.15555 0.25245 3.9612 438.61 473.75 2.6501 1.0424 1.2363 203.50 0.81460 5.1237 0.0080028
-84.625 1.3806 0.00019750 8.3855 8.4077 0.16852 627.66 0.0015932 8.3004 8.3155 0.16803 1.3661 2.0927 1442.1 -0.0064470 336.87 0.15494 0.26956 3.7097 439.63 474.94 2.6432 1.0460 1.2402 203.95 0.80356 5.1508 0.0080789
-83.625 1.4803 0.00020995 10.484 10.508 0.17963 626.60 0.0015959 10.394 10.410 0.17911 1.3674 2.0955 1435.4 -0.0064236 331.99 0.15432 0.28760 3.4771 440.64 476.13 2.6364 1.0495 1.2440 204.38 0.79269 5.1778 0.0081553
-82.625 1.5858 0.00022300 12.586 12.612 0.19069 625.54 0.0015986 12.491 12.508 0.19014 1.3687 2.0983 1428.7 -0.0063999 327.22 0.15370 0.30659 3.2616 441.65 477.31 2.6298 1.0531 1.2479 204.82 0.78199 5.2048 0.0082319
-81.625 1.6975 0.00023666 14.691 14.718 0.20171 624.48 0.0016013 14.590 14.609 0.20113 1.3700 2.1012 1422.0 -0.0063759 322.55 0.15309 0.32659 3.0619 442.67 478.50 2.6233 1.0567 1.2519 205.25 0.77144 5.2318 0.0083088
-80.625 1.8155 0.00025096 16.799 16.828 0.21269 623.42 0.0016041 16.692 16.712 0.21208 1.3714 2.1041 1415.4 -0.0063516 317.99 0.15247 0.34763 2.8766 443.69 479.70 2.6169 1.0603 1.2558 205.67 0.76106 5.2587 0.0083860
-79.625 1.9402 0.00026592 18.910 18.941 0.22362 622.36 0.0016068 18.797 18.819 0.22299 1.3728 2.1070 1408.7 -0.0063270 313.52 0.15186 0.36974 2.7046 444.71 480.89 2.6106 1.0639 1.2598 206.10 0.75083 5.2857 0.0084634
-78.625 2.0718 0.00028155 21.025 21.058 0.23452 621.29 0.0016096 20.905 20.928 0.23385 1.3742 2.1099 1402.0 -0.0063021 309.15 0.15124 0.39296 2.5448 445.73 482.08 2.6045 1.0676 1.2639 206.51 0.74076 5.3126 0.0085411
-77.625 2.2107 0.00029787 23.142 23.178 0.24538 620.22 0.0016123 23.016 23.040 0.24468 1.3757 2.1129 1395.3 -0.0062768 304.88 0.15062 0.41735 2.3961 446.75 483.27 2.5985 1.0712 1.2680 206.93 0.73084 5.3395 0.0086190
-76.625 2.3571 0.00031491 25.263 25.301 0.25620 619.15 0.0016151 25.130 25.156 0.25546 1.3772 2.1159 1388.7 -0.0062512 300.69 0.15001 0.44292 2.2577 447.78 484.47 2.5926 1.0749 1.2721 207.34 0.72107 5.3664 0.0086972
-75.625 2.5113 0.00033267 27.387 27.427 0.26698 618.08 0.0016179 27.247 27.275 0.26620 1.3787 2.1190 1382.0 -0.0062253 296.59 0.14939 0.46974 2.1288 448.81 485.67 2.5869 1.0787 1.2762 207.74 0.71146 5.3933 0.0087757
-74.625 2.6736 0.00035118 29.514 29.557 0.27772 617.01 0.0016207 29.366 29.396 0.27691 1.3802 2.1221 1375.4 -0.0061990 292.58 0.14878 0.49783 2.0087 449.83 486.86 2.5812 1.0824 1.2804 208.14 0.70200 5.4201 0.0088544
-73.625 2.8444 0.00037046 31.645 31.690 0.28842 615.93 0.0016236 31.489 31.521 0.28758 1.3818 2.1252 1368.7 -0.0061724 288.65 0.14816 0.52725 1.8966 450.86 488.06 2.5757 1.0862 1.2847 208.54 0.69268 5.4469 0.0089334
-72.625 3.0240 0.00039053 33.779 33.827 0.29909 614.85 0.0016264 33.615 33.649 0.29821 1.3834 2.1284 1362.0 -0.0061454 284.81 0.14755 0.55804 1.7920 451.90 489.26 2.5703 1.0900 1.2889 208.93 0.68351 5.4737 0.0090126
-71.625 3.2127 0.00041139 35.916 35.968 0.30973 613.78 0.0016293 35.745 35.781 0.30880 1.3851 2.1316 1355.4 -0.0061181 281.03 0.14694 0.59024 1.6942 452.93 490.46 2.5650 1.0938 1.2932 209.32 0.67448 5.5005 0.0090922
-70.625 3.4108 0.00043308 38.057 38.112 0.32032 612.69 0.0016321 37.877 37.915 0.31935 1.3867 2.1349 1348.7 -0.0060904 277.34 0.14632 0.62390 1.6028 453.96 491.66 2.5598 1.0976 1.2976 209.70 0.66560 5.5273 0.0091720
-69.625 3.6187 0.00045561 40.202 40.260 0.33089 611.61 0.0016350 40.013 40.053 0.32987 1.3884 2.1382 1342.1 -0.0060624 273.72 0.14571 0.65906 1.5173 455.00 492.86 2.5547 1.1015 1.3020 210.08 0.65687 5.5540 0.0092520
-68.625 3.8367 0.00047899 42.350 42.411 0.34141 610.53 0.0016379 42.152 42.195 0.34036 1.3902 2.1415 1335.5 -0.0060339 270.17 0.14510 0.69577 1.4372 456.04 494.06 2.5497 1.1054 1.3064 210.45 0.64827 5.5807 0.0093324
-67.625 4.0652 0.00050325 44.501 44.567 0.35191 609.44 0.0016409 44.294 44.340 0.35080 1.3919 2.1449 1328.8 -0.0060051 266.69 0.14449 0.73408 1.3622 457.08 495.26 2.5448 1.1093 1.3109 210.82 0.63981 5.6074 0.0094130
-66.625 4.3046 0.00052841 46.657 46.726 0.36237 608.35 0.0016438 46.439 46.488 0.36122 1.3937 2.1483 1322.2 -0.0059760 263.28 0.14388 0.77404 1.2919 458.12 496.46 2.5400 1.1133 1.3154 211.18 0.63150 5.6341 0.0094939
-65.625 4.5551 0.00055447 48.816 48.889 0.37280 607.26 0.0016467 48.588 48.640 0.37160 1.3955 2.1518 1315.6 -0.0059464 259.93 0.14327 0.81570 1.2259 459.16 497.67 2.5353 1.1172 1.3200 211.54 0.62332 5.6608 0.0095750
-64.625 4.8173 0.00058146 50.978 51.056 0.38320 606.16 0.0016497 50.740 50.795 0.38195 1.3974 2.1553 1308.9 -0.0059164 256.65 0.14266 0.85910 1.1640 460.21 498.87 2.5307 1.1212 1.3246 211.89 0.61527 5.6874 0.0096564
-63.625 5.0915 0.00060939 53.145 53.227 0.39356 605.07 0.0016527 52.896 52.954 0.39226 1.3993 2.1588 1302.3 -0.0058861 253.42 0.14205 0.90429 1.1058 461.25 500.07 2.5262 1.1252 1.3293 212.24 0.60736 5.7140 0.0097382
-62.625 5.3781 0.00063828 55.315 55.402 0.40389 603.97 0.0016557 55.055 55.117 0.40254 1.4012 2.1624 1295.7 -0.0058553 250.26 0.14144 0.95134 1.0511 462.30 501.28 2.5218 1.1293 1.3340 212.58 0.59958 5.7406 0.0098201
-61.625 5.6774 0.00066815 57.490 57.581 0.41420 602.87 0.0016587 57.218 57.283 0.41279 1.4031 2.1660 1289.1 -0.0058241 247.16 0.14084 1.0003 0.99972 463.35 502.48 2.5175 1.1333 1.3387 212.92 0.59194 5.7672 0.0099024
-60.625 5.9899 0.00069901 59.668 59.764 0.42447 601.77 0.0016618 59.385 59.453 0.42301 1.4051 2.1697 1282.5 -0.0057925 244.12 0.14023 1.0512 0.95131 464.40 503.68 2.5133 1.1374 1.3435 213.26 0.58442 5.7938 0.0099850
-59.625 6.3160 0.00073087 61.850 61.951 0.43471 600.66 0.0016648 61.554 61.627 0.43320 1.4071 2.1734 1275.9 -0.0057605 241.13 0.13962 1.1041 0.90573 465.45 504.89 2.5091 1.1415 1.3483 213.58 0.57704 5.8203 0.010068
-58.625 6.6561 0.00076376 64.036 64.142 0.44493 599.55 0.0016679 63.728 63.805 0.44335 1.4091 2.1772 1269.3 -0.0057280 238.19 0.13902 1.1591 0.86277 466.50 506.09 2.5051 1.1457 1.3532 213.90 0.56978 5.8468 0.010151
-57.625 7.0107 0.00079768 66.226 66.338 0.45511 598.44 0.0016710 65.905 65.986 0.45348 1.4111 2.1810 1262.7 -0.0056951 235.31 0.13842 1.2161 0.82228 467.55 507.30 2.5011 1.1498 1.3581 214.22 0.56265 5.8733 0.010234
-56.625 7.3801 0.00083266 68.420 68.538 0.46527 597.33 0.0016741 68.086 68.172 0.46358 1.4132 2.1848 1256.1 -0.0056617 232.48 0.13781 1.2754 0.78408 468.60 508.50 2.4972 1.1540 1.3631 214.53 0.55564 5.8998 0.010318
-55.625 7.7648 0.00086869 70.618 70.743 0.47540 596.22 0.0016772 70.271 70.361 0.47364 1.4153 2.1887 1249.5 -0.0056279 229.69 0.13721 1.3369 0.74802 469.66 509.71 2.4934 1.1582 1.3681 214.84 0.54875 5.9263 0.010402
-54.625 8.1652 0.00090581 72.821 72.952 0.48550 595.10 0.0016804 72.460 72.554 0.48368 1.4174 2.1927 1242.9 -0.0055937 226.96 0.13661 1.4006 0.71396 470.72 510.91 2.4897 1.1624 1.3731 215.14 0.54199 5.9527 0.010486
-53.625 8.5819 0.00094401 75.027 75.165 0.49557 593.98 0.0016836 74.652 74.752 0.49369 1.4196 2.1967 1236.3 -0.0055589 224.27 0.13601 1.4667 0.68178 471.77 512.11 2.4860 1.1667 1.3782 215.43 0.53535 5.9792 0.010571
-52.625 9.0151 0.00098332 77.238 77.383 0.50562 592.86 0.0016867 76.849 76.954 0.50368 1.4218 2.2007 1229.8 -0.0055237 221.63 0.13541 1.5353 0.65136 472.83 513.32 2.4824 1.1710 1.3834 215.72 0.52882 6.0056 0.010656
-51.625 9.4655 0.0010237 79.453 79.605 0.51565 591.73 0.0016900 79.049 79.159 0.51363 1.4240 2.2048 1223.2 -0.0054880 219.04 0.13482 1.6062 0.62258 473.89 514.52 2.4789 1.1752 1.3886 216.00 0.52241 6.0320 0.010741
-50.625 9.9335 0.0010653 81.673 81.832 0.52564 590.60 0.0016932 81.253 81.369 0.52356 1.4262 2.2089 1216.6 -0.0054519 216.48 0.13422 1.6797 0.59534 474.95 515.73 2.4755 1.1796 1.3938 216.28 0.51612 6.0584 0.010827
-49.625 10.419 0.0011080 83.897 84.064 0.53561 589.47 0.0016964 83.462 83.584 0.53347 1.4285 2.2131 1210.1 -0.0054152 213.98 0.13363 1.7558 0.56954 476.01 516.93 2.4722 1.1839 1.3991 216.55 0.50994 6.0848 0.010913
-48.625 10.924 0.0011518 86.125 86.300 0.54556 588.34 0.0016997 85.674 85.802 0.54334 1.4308 2.2173 1203.5 -0.0053780 211.51 0.13303 1.8345 0.54510 477.07 518.13 2.4689 1.1883 1.4044 216.82 0.50387 6.1112 0.010999
-47.625 11.448 0.0011967 88.358 88.541 0.55548 587.20 0.0017030 87.891 88.025 0.55319 1.4331 2.2216 1196.9 -0.0053403 209.08 0.13244 1.9159 0.52194 478.14 519.33 2.4657 1.1927 1.4098 217.08 0.49792 6.1375 0.011085
-46.625 11.991 0.0012429 90.595 90.787 0.56538 586.06 0.0017063 90.111 90.252 0.56302 1.4354 2.2259 1190.4 -0.0053020 206.69 0.13185 2.0001 0.49997 479.20 520.53 2.4625 1.1971 1.4153 217.33 0.49207 6.1639 0.011172
-45.625 12.554 0.0012902 92.837 93.038 0.57525 584.92 0.0017096 92.336 92.484 0.57282 1.4378 2.2303 1183.8 -0.0052633 204.34 0.13126 2.0872 0.47912 480.27 521.74 2.4594 1.2015 1.4207 217.58 0.48633 6.1902 0.011259
-44.625 13.137 0.0013387 95.083 95.294 0.58511 583.77 0.0017130 94.565 94.720 0.58260 1.4402 2.2347 1177.3 -0.0052240 202.03 0.13067 2.1771 0.45933 481.33 522.94 2.4564 1.2060 1.4263 217.82 0.48069 6.2165 0.011347
-43.625 13.741 0.0013883 97.334 97.554 0.59493 582.62 0.0017164 96.799 96.961 0.59235 1.4426 2.2392 1170.7 -0.0051841 199.75 0.13008 2.2700 0.44053 482.40 524.14 2.4535 1.2104 1.4319 218.05 0.47516 6.2429 0.011435
-42.625 14.367 0.0014391 99.590 99.820 0.60474 581.47 0.0017198 99.036 99.207 0.60208 1.4450 2.2437 1164.2 -0.0051437 197.51 0.12949 2.3659 0.42267 483.46 525.33 2.4506 1.2149 1.4375 218.28 0.46973 6.2692 0.011523
-41.625 15.015 0.0014912 101.85 102.09 0.61452 580.32 0.0017232 101.28 101.46 0.61179 1.4475 2.2483 1157.7 -0.0051027 195.30 0.12891 2.4649 0.40569 484.53 526.53 2.4478 1.2195 1.4432 218.50 0.46440 6.2955 0.011612
-40.625 15.686 0.0015444 104.12 104.37 0.62429 579.16 0.0017266 103.52 103.71 0.62147 1.4500 2.2529 1151.1 -0.0050611 193.13 0.12832 2.5671 0.38954 485.60 527.73 2.4450 1.2240 1.4489 218.72 0.45917 6.3218 0.011701
-39.625 16.380 0.0015988 106.38 106.65 0.63403 578.00 0.0017301 105.78 105.97 0.63113 1.4525 2.2576 1144.6 -0.0050189 190.99 0.12774 2.6725 0.37418 486.67 528.93 2.4423 1.2286 1.4547 218.93 0.45403 6.3481 0.011790
-38.625 17.097 0.0016544 108.66 108.93 0.64375 576.83 0.0017336 108.03 108.24 0.64077 1.4550 2.2623 1138.0 -0.0049761 188.88 0.12716 2.7813 0.35955 487.74 530.12 2.4397 1.2332 1.4606 219.13 0.44900 6.3744 0.011880
-37.625 17.838 0.0017112 110.94 111.23 0.65345 575.66 0.0017371 110.29 110.51 0.65039 1.4576 2.2671 1131.5 -0.0049327 186.81 0.12658 2.8934 0.34562 488.81 531.32 2.4371 1.2378 1.4665 219.33 0.44405 6.4007 0.011970
-36.625 18.604 0.0017692 113.22 113.52 0.66313 574.49 0.0017407 112.56 112.78 0.65999 1.4602 2.2719 1125.0 -0.0048887 184.76 0.12600 3.0089 0.33235 489.88 532.51 2.4346 1.2424 1.4724 219.52 0.43920 6.4270 0.012060
-35.625 19.395 0.0018284 115.51 115.82 0.67279 573.32 0.0017442 114.83 115.06 0.66956 1.4628 2.2768 1118.5 -0.0048440 182.75 0.12542 3.1280 0.31969 490.95 533.70 2.4321 1.2471 1.4784 219.70 0.43444 6.4533 0.012151
-34.625 20.212 0.0018888 117.81 118.13 0.68242 572.14 0.0017478 117.10 117.34 0.67912 1.4654 2.2818 1111.9 -0.0047987 180.76 0.12485 3.2506 0.30763 492.02 534.89 2.4297 1.2517 1.4845 219.88 0.42977 6.4797 0.012243
-33.625 21.056 0.0019504 120.11 120.44 0.69204 570.96 0.0017514 119.38 119.63 0.68865 1.4681 2.2868 1105.4 -0.0047527 178.80 0.12427 3.3770 0.29612 493.09 536.08 2.4273 1.2564 1.4906 220.05 0.42519 6.5060 0.012334
-32.625 21.926 0.0020131 122.41 122.76 0.70165 569.77 0.0017551 121.66 121.93 0.69817 1.4708 2.2918 1098.9 -0.0047061 176.87 0.12370 3.5071 0.28514 494.17 537.27 2.4250 1.2611 1.4968 220.21 0.42070 6.5323 0.012426
-31.625 22.823 0.0020770 124.72 125.09 0.71123 568.58 0.0017588 123.95 124.23 0.70767 1.4735 2.2970 1092.3 -0.0046587 174.97 0.12313 3.6410 0.27465 495.24 538.46 2.4227 1.2659 1.5031 220.36 0.41629 6.5587 0.012519
-30.625 23.749 0.0021421 127.04 127.42 0.72079 567.39 0.0017625 126.24 126.53 0.71714 1.4762 2.3021 1085.8 -0.0046107 173.09 0.12256 3.7787 0.26464 496.31 539.64 2.4205 1.2706 1.5094 220.51 0.41196 6.5850 0.012612
-29.625 24.703 0.0022084 129.36 129.75 0.73034 566.19 0.0017662 128.54 128.84 0.72660 1.4790 2.3074 1079.3 -0.0045619 171.24 0.12200 3.9205 0.25507 497.38 540.83 2.4184 1.2754 1.5157 220.65 0.40772 6.6114 0.012706
-28.625 25.687 0.0022758 131.68 132.09 0.73987 564.99 0.0017699 130.84 131.16 0.73604 1.4818 2.3126 1072.8 -0.0045124 169.42 0.12143 4.0663 0.24592 498.46 542.01 2.4162 1.2802 1.5222 220.79 0.40356 6.6378 0.012800
-27.625 26.700 0.0023443 134.01 134.44 0.74938 563.78 0.0017737 133.15 133.48 0.74547 1.4846 2.3180 1066.2 -0.0044621 167.62 0.12087 4.2163 0.23717 499.53 543.19 2.4142 1.2850 1.5286 220.91 0.39947 6.6642 0.012894
-26.625 27.743 0.0024139 136.35 136.79 0.75887 562.57 0.0017775 135.47 135.81 0.75487 1.4874 2.3234 1059.7 -0.0044111 165.84 0.12031 4.3705 0.22881 500.60 544.37 2.4122 1.2899 1.5352 221.03 0.39547 6.6906 0.012989
-25.625 28.817 0.0024847 138.69 139.15 0.76835 561.36 0.0017814 137.78 138.14 0.76426 1.4902 2.3289 1053.2 -0.0043593 164.09 0.11975 4.5290 0.22080 501.68 545.55 2.4102 1.2947 1.5418 221.14 0.39154 6.7171 0.013084
-24.625 29.923 0.0025565 141.03 141.51 0.77781 560.14 0.0017853 140.11 140.48 0.77363 1.4931 2.3344 1046.7 -0.0043067 162.36 0.11919 4.6918 0.21314 502.75 546.72 2.4083 1.2996 1.5485 221.25 0.38768 6.7436 0.013180
-23.625 31.061 0.0026294 143.39 143.88 0.78725 558.92 0.0017892 142.44 142.82 0.78298 1.4960 2.3400 1040.1 -0.0042533 160.65 0.11863 4.8592 0.20580 503.82 547.90 2.4064 1.3045 1.5552 221.35 0.38391 6.7701 0.013277
-22.625 32.232 0.0027033 145.74 146.26 0.79668 557.69 0.0017931 144.77 145.17 0.79232 1.4990 2.3457 1033.6 -0.0041990 158.97 0.11807 5.0311 0.19877 504.90 549.07 2.4045 1.3095 1.5621 221.44 0.38020 6.7967 0.013374
-21.625 33.435 0.0027783 148.11 148.64 0.80609 556.46 0.0017971 147.11 147.52 0.80164 1.5019 2.3514 1027.1 -0.0041439 157.30 0.11752 5.2076 0.19203 505.97 550.24 2.4027 1.3144 1.5690 221.52 0.37656 6.8232 0.013471
-20.625 34.673 0.0028542 150.47 151.03 0.81549 555.23 0.0018011 149.45 149.88 0.81095 1.5049 2.3572 1020.6 -0.0040879 155.66 0.11697 5.3889 0.18557 507.04 551.40 2.4010 1.3194 1.5759 221.59 0.37300 6.8499 0.013569
-19.625 35.946 0.0029312 152.85 153.42 0.82487 553.99 0.0018051 151.80 152.25 0.82024 1.5079 2.3630 1014.0 -0.0040311 154.04 0.11642 5.5750 0.17937 508.11 552.57 2.3992 1.3244 1.5829 221.66 0.36950 6.8765 0.013668
-18.625 37.253 0.0030090 155.23 155.82 0.83424 552.74 0.0018092 154.16 154.62 0.82952 1.5109 2.3689 1007.5 -0.0039733 152.44 0.11587 5.7660 0.17343 509.19 553.73 2.3976 1.3294 1.5901 221.72 0.36608 6.9032 0.013767
-17.625 38.596 0.0030878 157.61 158.23 0.84359 551.49 0.0018133 156.52 157.00 0.83878 1.5140 2.3749 1001.0 -0.0039145 150.86 0.11532 5.9621 0.16773 510.26 554.89 2.3959 1.3345 1.5972 221.77 0.36272 6.9300 0.013867
-16.625 39.976 0.0031675 160.00 160.64 0.85293 550.24 0.0018174 158.89 159.39 0.84803 1.5171 2.3810 994.44 -0.0038549 149.29 0.11478 6.1632 0.16225 511.33 556.05 2.3943 1.3395 1.6045 221.81 0.35942 6.9568 0.013968
-15.625 41.392 0.0032480 162.40 163.06 0.86225 548.98 0.0018216 161.26 161.78 0.85726 1.5202 2.3871 987.91 -0.0037942 147.75 0.11423 6.3696 0.15700 512.40 557.20 2.3927 1.3446 1.6119 221.85 0.35619 6.9836 0.014069
-14.625 42.846 0.0033293 164.80 165.49 0.87156 547.71 0.0018258 163.64 164.18 0.86649 1.5233 2.3933 981.37 -0.0037325 146.22 0.11369 6.5812 0.15195 513.47 558.36 2.3912 1.3497 1.6193 221.87 0.35302 7.0105 0.014170
-13.625 44.338 0.0034114 167.21 167.92 0.88086 546.44 0.0018300 166.02 166.58 0.87569 1.5264 2.3996 974.83 -0.0036698 144.72 0.11315 6.7983 0.14710 514.54 559.51 2.3897 1.3549 1.6268 221.89 0.34992 7.0375 0.014273
-12.625 45.870 0.0034943 169.62 170.36 0.89014 545.17 0.0018343 168.41 168.99 0.88489 1.5296 2.4059 968.29 -0.0036061 143.23 0.11261 7.0208 0.14243 515.61 560.65 2.3883 1.3600 1.6344 221.90 0.34688 7.0646 0.014376
-11.625 47.440 0.0035778 172.04 172.80 0.89941 543.89 0.0018386 170.81 171.41 0.89407 1.5328 2.4124 961.75 -0.0035413 141.76 0.11208 7.2490 0.13795 516.68 561.80 2.3868 1.3652 1.6421 221.91 0.34389 7.0917 0.014479
-10.625 49.051 0.0036619 174.47 175.26 0.90867 542.60 0.0018430 173.21 173.83 0.90324 1.5360 2.4189 955.20 -0.0034753 140.30 0.11154 7.4829 0.13364 517.75 562.94 2.3854 1.3704 1.6498 221.90 0.34097 7.1188 0.014584
-9.6250 50.703 0.0037466 176.90 177.71 0.91791 541.31 0.0018474 175.61 176.26 0.91240 1.5393 2.4255 948.65 -0.0034082 138.86 0.11101 7.7226 0.12949 518.81 564.08 2.3841 1.3757 1.6577 221.88 0.33810 7.1461 0.014689
-8.6250 52.396 0.0038318 179.34 180.18 0.92714 540.02 0.0018518 178.03 178.70 0.92154 1.5426 2.4321 942.10 -0.0033400 137.44 0.11048 7.9683 0.12550 519.88 565.21 2.3827 1.3809 1.6657 221.86 0.33529 7.1734 0.014795
-7.6250 54.131 0.0039176 181.78 182.65 0.93636 538.72 0.0018563 180.45 181.14 0.93068 1.5459 2.4389 935.55 -0.0032705 136.03 0.10995 8.2200 0.12165 520.94 566.35 2.3814 1.3862 1.6737 221.83 0.33254 7.2008 0.014902
-6.6250 55.909 0.0040037 184.23 185.13 0.94557 537.41 0.0018608 182.87 183.59 0.93980 1.5492 2.4457 928.99 -0.0031998 134.64 0.10942 8.4779 0.11795 522.01 567.48 2.3801 1.3915 1.6819 221.79 0.32984 7.2284 0.015009
-5.6250 57.730 0.0040901 186.69 187.61 0.95477 536.10 0.0018653 185.30 186.05 0.94892 1.5525 2.4526 922.43 -0.0031279 133.27 0.10889 8.7420 0.11439 523.07 568.60 2.3789 1.3969 1.6902 221.74 0.32720 7.2560 0.015117
-4.6250 59.595 0.0041769 189.15 190.10 0.96395 534.78 0.0018699 187.74 188.51 0.95802 1.5559 2.4596 915.87 -0.0030546 131.91 0.10837 9.0126 0.11096 524.13 569.72 2.3777 1.4022 1.6985 221.68 0.32461 7.2837 0.015226
-3.6250 61.505 0.0042638 191.62 192.60 0.97312 533.45 0.0018746 190.19 190.98 0.96711 1.5593 2.4667 909.30 -0.0029800 130.56 0.10785 9.2896 0.10765 525.19 570.84 2.3765 1.4076 1.7070 221.62 0.32207 7.3115 0.015336
-2.6250 63.461 0.0043509 194.09 195.11 0.98229 532.12 0.0018793 192.64 193.46 0.97620 1.5627 2.4739 902.73 -0.0029041 129.23 0.10733 9.5733 0.10446 526.25 571.96 2.3753 1.4131 1.7156 221.54 0.31958 7.3394 0.015447
-1.6250 65.462 0.0044380 196.57 197.62 0.99144 530.78 0.0018840 195.10 195.95 0.98527 1.5662 2.4811 896.16 -0.0028267 127.91 0.10681 9.8638 0.10138 527.31 573.07 2.3742 1.4185 1.7243 221.45 0.31715 7.3674 0.015559
-0.62500 67.510 0.0045251 199.06 200.14 1.0006 529.44 0.0018888 197.56 198.44 0.99434 1.5696 2.4885 889.58 -0.0027478 126.61 0.10629 10.161 0.098414 528.37 574.18 2.3731 1.4240 1.7331 221.36 0.31476 7.3956 0.015671
0.37500 69.606 0.0046120 201.55 202.66 1.0097 528.09 0.0018936 200.03 200.94 1.0034 1.5731 2.4960 883.00 -0.0026675 125.32 0.10578 10.466 0.095552 529.42 575.28 2.3720 1.4295 1.7421 221.26 0.31242 7.4239 0.015785
1.3750 71.749 0.0046987 204.05 205.20 1.0188 526.73 0.0018985 202.51 203.45 1.0124 1.5767 2.5035 876.42 -0.0025856 124.04 0.10527 10.777 0.092790 530.48 576.38 2.3709 1.4350 1.7512 221.14 0.31013 7.4523 0.015899
2.3750 73.941 0.0047851 206.55 207.74 1.0279 525.37 0.0019034 204.99 205.96 1.0215 1.5802 2.5112 869.83 -0.0025022 122.78 0.10476 11.096 0.090123 531.53 577.47 2.3699 1.4406 1.7604 221.02 0.30789 7.4808 0.016015
3.3750 76.183 0.0048711 209.07 210.29 1.0370 523.99 0.0019084 207.48 208.48 1.0305 1.5838 2.5190 863.24 -0.0024171 121.53 0.10425 11.422 0.087549 532.58 578.56 2.3688 1.4462 1.7697 220.89 0.30569 7.5095 0.016131
4.3750 78.475 0.0049565 211.58 212.84 1.0461 522.62 0.0019134 209.98 211.01 1.0395 1.5874 2.5268 856.64 -0.0023303 120.29 0.10374 11.756 0.085062 533.63 579.65 2.3678 1.4518 1.7792 220.75 0.30354 7.5384 0.016249
5.3750 80.817 0.0050413 214.11 215.40 1.0552 521.23 0.0019185 212.48 213.55 1.0486 1.5910 2.5348 850.04 -0.0022417 119.06 0.10324 12.098 0.082660 534.67 580.73 2.3669 1.4575 1.7888 220.60 0.30144 7.5674 0.016368
6.3750 83.211 0.0051253 216.64 217.97 1.0643 519.84 0.0019237 215.00 216.10 1.0576 1.5946 2.5429 843.43 -0.0021514 117.85 0.10273 12.447 0.080340 535.72 581.81 2.3659 1.4632 1.7986 220.44 0.29938 7.5966 0.016487
7.3750 85.657 0.0052084 219.18 220.55 1.0733 518.44 0.0019289 217.51 218.65 1.0666 1.5983 2.5511 836.82 -0.0020593 116.65 0.10223 12.805 0.078096 536.76 582.88 2.3650 1.4689 1.8085 220.27 0.29736 7.6259 0.016608
8.3750 88.156 0.0052905 221.72 223.13 1.0824 517.03 0.0019341 220.04 221.22 1.0756 1.6020 2.5595 830.20 -0.0019652 115.46 0.10173 13.170 0.075928 537.80 583.95 2.3640 1.4746 1.8186 220.08 0.29538 7.6555 0.016730
9.3750 90.708 0.0053714 224.27 225.73 1.0914 515.62 0.0019394 222.57 223.79 1.0846 1.6057 2.5679 823.58 -0.0018691 114.28 0.10124 13.545 0.073830 538.84 585.01 2.3631 1.4804 1.8288 219.89 0.29345 7.6852 0.016853
10.375 93.315 0.0054509 226.83 228.33 1.1005 514.19 0.0019448 225.11 226.37 1.0936 1.6095 2.5765 816.96 -0.0017710 113.11 0.10074 13.927 0.071802 539.87 586.07 2.3622 1.4863 1.8392 219.69 0.29156 7.7151 0.016978
11.375 95.977 0.0055290 229.39 230.93 1.1095 512.76 0.0019502 227.66 228.95 1.1025 1.6132 2.5852 810.32 -0.0016708 111.95 0.10025 14.319 0.069840 540.90 587.12 2.3614 1.4921 1.8498 219.48 0.28971 7.7452 0.017103
12.375 98.694 0.0056053 231.97 233.55 1.1185 511.32 0.0019557 230.22 231.55 1.1115 1.6170 2.5940 803.68 -0.0015685 110.80 0.099756 14.719 0.067941 541.93 588.17 2.3605 1.4980 1.8605 219.26 0.28790 7.7756 0.017230
13.375 101.47 0.0056799 234.54 236.17 1.1275 509.87 0.0019613 232.78 234.15 1.1205 1.6208 2.6030 797.04 -0.0014639 109.67 0.099267 15.128 0.066103 542.96 589.21 2.3597 1.5040 1.8715 219.03 0.28612 7.8061 0.017359
14.375 104.30 0.0057524 237.13 238.80 1.1365 508.42 0.0019669 235.35 236.77 1.1295 1.6247 2.6121 790.39 -0.0013569 108.54 0.098779 15.547 0.064323 543.99 590.24 2.3588 1.5099 1.8826 218.79 0.28439 7.8369 0.017488
15.375 107.19 0.0058226 239.72 241.44 1.1455 506.95 0.0019726 237.93 239.39 1.1384 1.6286 2.6214 783.73 -0.0012476 107.43 0.098294 15.974 0.062600 545.01 591.27 2.3580 1.5159 1.8940 218.53 0.28270 7.8680 0.017619
16.375 110.13 0.0058905 242.32 244.08 1.1545 505.48 0.0019783 240.52 242.02 1.1474 1.6324 2.6308 777.07 -0.0011357 106.32 0.097810 16.412 0.060931 546.03 592.29 2.3572 1.5220 1.9055 218.27 0.28104 7.8993 0.017752
17.375 113.14 0.0059557 244.92 246.74 1.1635 504.00 0.0019841 243.11 244.66 1.1564 1.6364 2.6403 770.40 -0.0010213 105.22 0.097328 16.859 0.059314 547.04 593.31 2.3564 1.5281 1.9172 217.99 0.27942 7.9308 0.017886
18.375 116.21 0.0060180 247.53 249.40 1.1725 502.50 0.0019900 245.72 247.31 1.1653 1.6403 2.6501 763.72 -0.00090422 104.14 0.096848 17.317 0.057747 548.05 594.32 2.3557 1.5342 1.9292 217.71 0.27783 7.9626 0.018021
19.375 119.33 0.0060771 250.15 252.07 1.1815 501.00 0.0019960 248.33 249.97 1.1743 1.6443 2.6599 757.04 -0.00078435 103.06 0.096371 17.785 0.056228 549.06 595.33 2.3549 1.5404 1.9414 217.41 0.27628 7.9947 0.018159
20.375 122.52 0.0061329 252.78 254.74 1.1904 499.49 0.0020020 250.95 252.64 1.1832 1.6483 2.6700 750.35 -0.00066161 101.99 0.095895 18.263 0.054756 550.07 596.32 2.3541 1.5466 1.9538 217.10 0.27477 8.0272 0.018297
21.375 125.77 0.0061850 255.41 257.43 1.1994 497.97 0.0020082 253.57 255.32 1.1922 1.6523 2.6802 743.64 -0.00053589 100.93 0.095420 18.752 0.053328 551.07 597.31 2.3534 1.5528 1.9665 216.78 0.27329 8.0599 0.018438
22.375 129.08 0.0062332 258.05 260.12 1.2083 496.43 0.0020144 256.21 258.00 1.2012 1.6563 2.6906 736.94 -0.00040708 99.877 0.094948 19.252 0.051943 552.07 598.30 2.3526 1.5591 1.9795 216.45 0.27184 8.0929 0.018580
23.375 132.46 0.0062771 260.70 262.83 1.2173 494.89 0.0020206 258.86 260.70 1.2101 1.6604 2.7012 730.22 -0.00027505 98.834 0.094478 19.763 0.050600 553.06 599.27 2.3519 1.5655 1.9927 216.11 0.27043 8.1263 0.018724
24.375 135.90 0.0063165 263.36 265.54 1.2262 493.34 0.0020270 261.51 263.41 1.2191 1.6645 2.7120 723.49 -0.00013968 97.800 0.094009 20.285 0.049297 554.05 600.24 2.3512 1.5718 2.0061 215.75 0.26906 8.1600 0.018870
25.375 139.41 0.0063509 266.02 268.25 1.2351 491.77 0.0020335 264.17 266.13 1.2280 1.6686 2.7230 716.76 -8.3775e-07 96.773 0.093543 20.820 0.048032 555.03 601.20 2.3504 1.5783 2.0199 215.39 0.26771 8.1941 0.019017
26.375 142.98 0.0063801 268.69 270.98 1.2441 490.20 0.0020400 266.84 268.85 1.2370 1.6728 2.7342 710.01 0.00014161 95.755 0.093078 21.366 0.046804 556.01 602.15 2.3497 1.5847 2.0340 215.01 0.26640 8.2286 0.019167
27.375 146.62 0.0064036 271.36 273.72 1.2530 488.61 0.0020466 269.52 271.59 1.2459 1.6770 2.7456 703.26 0.00028782 94.745 0.092615 21.924 0.045612 556.99 603.10 2.3490 1.5913 2.0484 214.62 0.26512 8.2634 0.019319
28.375 150.33 0.0064210 274.05 276.46 1.2619 487.01 0.0020533 272.21 274.34 1.2549 1.6812 2.7573 696.49 0.00043793 93.742 0.092154 22.495 0.044454 557.96 604.03 2.3483 1.5978 2.0631 214.21 0.26387 8.2987 0.019472
29.375 154.10 0.0064320 276.74 279.21 1.2708 485.40 0.0020601 274.91 277.10 1.2638 1.6854 2.7691 689.72 0.00059212 92.747 0.091695 23.079 0.043329 558.92 604.96 2.3476 1.6044 2.0781 213.80 0.26265 8.3344 0.019628
30.375 157.94 0.0064360 279.44 281.97 1.2797 483.78 0.0020671 277.62 279.87 1.2728 1.6897 2.7813 682.93 0.00075055 91.760 0.091238 23.676 0.042237 559.88 605.88 2.3469 1.6111 2.0935 213.37 0.26147 8.3705 0.019786
31.375 161.86 0.0064325 282.15 284.74 1.2886 482.15 0.0020741 280.34 282.66 1.2818 1.6939 2.7936 676.13 0.00091340 90.779 0.090782 24.287 0.041175 560.84 606.79 2.3462 1.6178 2.1092 212.93 0.26031 8.4071 0.019947
32.375 165.84 0.0064212 284.86 287.52 1.2975 480.50 0.0020812 283.07 285.45 1.2908 1.6983 2.8063 669.32 0.0010809 89.806 0.090328 24.911 0.040143 561.79 607.69 2.3455 1.6246 2.1254 212.48 0.25919 8.4442 0.020110
33.375 169.90 0.0064013 287.58 290.31 1.3064 478.83 0.0020884 285.81 288.26 1.2997 1.7026 2.8192 662.50 0.0012532 88.840 0.089876 25.549 0.039140 562.73 608.58 2.3448 1.6314 2.1419 212.01 0.25809 8.4818 0.020275
34.375 174.02 0.0063724 290.31 293.10 1.3153 477.16 0.0020957 288.56 291.07 1.3087 1.7070 2.8324 655.67 0.0014305 87.880 0.089426 26.202 0.038164 563.67 609.46 2.3440 1.6383 2.1589 211.53 0.25702 8.5199 0.020443
35.375 178.22 0.0063338 293.05 295.91 1.3242 475.47 0.0021032 291.32 293.90 1.3177 1.7114 2.8459 648.82 0.0016131 86.927 0.088977 26.870 0.037216 564.60 610.33 2.3433 1.6452 2.1763 211.04 0.25599 8.5586 0.020613
36.375 182.50 0.0062849 295.79 298.72 1.3331 473.77 0.0021107 294.09 296.74 1.3267 1.7158 2.8597 641.96 0.0018012 85.980 0.088531 27.553 0.036293 565.52 611.19 2.3426 1.6522 2.1942 210.53 0.25498 8.5978 0.020786
37.375 186.84 0.0062249 298.55 301.54 1.3420 472.05 0.0021184 296.87 299.60 1.3357 1.7203 2.8739 635.08 0.0019950 85.040 0.088085 28.252 0.035395 566.44 612.04 2.3419 1.6592 2.2125 210.01 0.25400 8.6376 0.020962
38.375 191.27 0.0061532 301.31 304.37 1.3508 470.31 0.0021262 299.66 302.46 1.3447 1.7248 2.8884 628.19 0.0021949 84.105 0.087642 28.967 0.034522 567.35 612.88 2.3411 1.6663 2.2314 209.47 0.25305 8.6780 0.021141
39.375 195.77 0.0060689 304.07 307.21 1.3597 468.56 0.0021342 302.46 305.34 1.3537 1.7293 2.9033 621.29 0.0024011 83.177 0.087200 29.699 0.033671 568.26 613.70 2.3404 1.6734 2.2508 208.92 0.25213 8.7190 0.021323
40.375 200.34 0.0059711 306.85 310.06 1.3686 466.80 0.0021423 305.27 308.23 1.3627 1.7339 2.9185 614.37 0.0026140 82.254 0.086760 30.447 0.032844 569.15 614.52 2.3396 1.6806 2.2708 208.36 0.25123 8.7608 0.021508
41.375 205.00 0.0058590 309.63 312.92 1.3774 465.01 0.0021505 308.10 311.14 1.3718 1.7385 2.9342 607.43 0.0028338 81.338 0.086322 31.214 0.032037 570.04 615.32 2.3389 1.6879 2.2913 207.78 0.25037 8.8032 0.021696
42.375 209.73 0.0057317 312.43 315.79 1.3863 463.21 0.0021588 310.94 314.06 1.3808 1.7432 2.9502 600.47 0.0030609 80.426 0.085885 31.998 0.031252 570.92 616.11 2.3381 1.6952 2.3125 207.19 0.24953 8.8463 0.021888
43.375 214.54 0.0055879 315.23 318.67 1.3952 461.40 0.0021673 313.79 316.99 1.3899 1.7478 2.9667 593.50 0.0032957 79.520 0.085449 32.800 0.030488 571.79 616.88 2.3373 1.7027 2.3344 206.58 0.24871 8.8902 0.022084
44.375 219.43 0.0054267 318.04 321.56 1.4040 459.56 0.0021760 316.65 319.94 1.3989 1.7525 2.9837 586.51 0.0035386 78.619 0.085015 33.622 0.029742 572.65 617.65 2.3365 1.7101 2.3569 205.96 0.24793 8.9349 0.022283
45.375 224.41 0.0052468 320.85 324.45 1.4129 457.71 0.0021848 319.52 322.90 1.4080 1.7573 3.0012 579.50 0.0037900 77.723 0.084583 34.463 0.029016 573.50 618.40 2.3357 1.7177 2.3802 205.32 0.24717 8.9805 0.022485
46.375 229.46 0.0050469 323.68 327.36 1.4217 455.83 0.0021938 322.41 325.88 1.4171 1.7621 3.0192 572.46 0.0040504 76.832 0.084152 35.325 0.028308 574.34 619.13 2.3349 1.7253 2.4042 204.67 0.24644 9.0269 0.022692
47.375 234.60 0.0048257 326.51 330.28 1.4306 453.94 0.0022029 325.31 328.87 1.4262 1.7669 3.0377 565.41 0.0043202 75.946 0.083723 36.208 0.027618 575.17 619.85 2.3340 1.7329 2.4291 204.00 0.24573 9.0742 0.022903
48.375 239.83 0.0045816 329.36 333.20 1.4395 452.03 0.0022123 328.22 331.88 1.4353 1.7718 3.0569 558.34 0.0046000 75.064 0.083295 37.112 0.026945 576.00 620.55 2.3332 1.7407 2.4548 203.31 0.24505 9.1224 0.023119
49.375 245.13 0.0043130 332.21 336.14 1.4483 450.09 0.0022218 331.15 334.90 1.4445 1.7767 3.0766 551.24 0.0048904 74.186 0.082868 38.039 0.026289 576.81 621.24 2.3323 1.7485 2.4815 202.61 0.24440 9.1716 0.023339
50.375 250.53 0.0040182 335.07 339.08 1.4572 448.13 0.0022315 334.09 337.94 1.4536 1.7817 3.0970 544.13 0.0051920 73.313 0.082442 38.989 0.025648 577.61 621.91 2.3314 1.7564 2.5092 201.89 0.24377 9.2219 0.023564
51.375 256.01 0.0036952 337.94 342.04 1.4660 446.15 0.0022414 337.04 341.00 1.4628 1.7867 3.1181 536.98 0.0055054 72.443 0.082018 39.962 0.025024 578.39 622.56 2.3304 1.7644 2.5379 201.16 0.24317 9.2733 0.023794
52.375 261.57 0.0033421 340.81 345.01 1.4749 444.15 0.0022515 340.01 344.07 1.4720 1.7918 3.1400 529.82 0.0058313 71.577 0.081595 40.961 0.024414 579.17 623.20 2.3295 1.7724 2.5677 200.41 0.24260 9.3258 0.024029
53.375 267.23 0.0029566 343.70 347.98 1.4837 442.12 0.0022618 343.00 347.17 1.4812 1.7969 3.1627 522.62 0.0061705 70.715 0.081174 41.985 0.023818 579.93 623.81 2.3285 1.7805 2.5987 199.63 0.24205 9.3795 0.024270
54.375 272.97 0.0025363 346.59 350.97 1.4926 440.06 0.0022724 346.00 350.28 1.4904 1.8021 3.1862 515.40 0.0065239 69.856 0.080753 43.036 0.023237 580.68 624.41 2.3274 1.7887 2.6310 198.85 0.24154 9.4344 0.024516
55.375 278.81 0.0020785 349.50 353.97 1.5014 437.98 0.0022832 349.02 353.40 1.4997 1.8073 3.2106 508.15 0.0068923 69.001 0.080334 44.114 0.022669 581.41 624.99 2.3264 1.7969 2.6646 198.04 0.24105 9.4907 0.024769
56.375 284.74 0.0015803 352.41 356.98 1.5103 435.87 0.0022943 352.05 356.55 1.5090 1.8126 3.2360 500.87 0.0072767 68.148 0.079915 45.221 0.022114 582.13 625.54 2.3253 1.8052 2.6998 197.22 0.24059 9.5484 0.025028
57.375 290.76 0.0010387 355.34 360.00 1.5191 433.73 0.0023056 355.10 359.72 1.5183 1.8179 3.2624 493.56 0.0076782 67.299 0.079498 46.358 0.021571 582.83 626.07 2.3241 1.8136 2.7365 196.37 0.24016 9.6075 0.025294
58.375 296.87 0.00045013 358.27 363.03 1.5280 431.56 0.0023172 358.17 362.91 1.5276 1.8233 3.2900 486.22 0.0080980 66.451 0.079082 47.525 0.021041 583.52 626.58 2.3230 1.8220 2.7749 195.51 0.23976 9.6682 0.025568
59.375 314.82 undefined 360.89 365.94 1.5359 430.00 0.0023256 360.89 365.94 1.5359 1.8280 3.3050 482.00 0.0083403 65.855 0.078810 430.00 0.0023256 360.89 365.94 1.5359 1.8280 3.3050 482.00 0.0083403 65.855 0.078810
60.375 361.99 undefined 362.72 368.52 1.5414 430.00 0.0023256 362.72 368.52 1.5414 1.8306 3.2867 485.54 0.0081068 65.876 0.078896 430.00 0.0023256 362.72 368.52 1.5414 1.8306 3.2867 485.54 0.0081068 65.876 0.078896
61.375 409.26 undefined 364.55 371.11 1.5469 430.00 0.0023256 364.55 371.11 1.5469 1.8333 3.2693 489.02 0.0078813 65.897 0.078982 430.00 0.0023256 364.55 371.11 1.5469 1.8333 3.2693 489.02 0.0078813 65.897 0.078982
62.375 456.63 undefined 366.38 373.71 1.5523 430.00 0.0023256 366.38 373.71 1.5523 1.8360 3.2528 492.43 0.0076632 65.917 0.079070 430.00 0.0023256 366.38 373.71 1.5523 1.8360 3.2528 492.43 0.0076632 65.917 0.079070
63.375 504.09 undefined 368.22 376.30 1.5578 430.00 0.0023256 368.22 376.30 1.5578 1.8388 3.2371 495.78 0.0074522 65.938 0.079158 430.00 0.0023256 368.22 376.30 1.5578 1.8388 3.2371 495.78 0.0074522 65.938 0.079158
64.375 551.63 undefined 370.06 378.91 1.5633 430.00 0.0023256 370.06 378.91 1.5633 1.8417 3.2222 499.06 0.0072478 65.959 0.079247 430.00 0.0023256 370.06 378.91 1.5633 1.8417 3.2222 499.06 0.0072478 65.959 0.079247
65.375 599.26 undefined 371.90 381.51 1.5687 430.00 0.0023256 371.90 381.51 1.5687 1.8446 3.2079 502.29 0.0070497 65.980 0.079336 430.00 0.0023256 371.90 381.51 1.5687 1.8446 3.2079 502.29 0.0070497 65.980 0.079336
66.375 646.97 undefined 373.75 384.12 1.5742 430.00 0.0023256 373.75 384.12 1.5742 1.8476 3.1943 505.46 0.0068576 66.001 0.079426 430.00 0.0023256 373.75 384.12 1.5742 1.8476 3.1943 505.46 0.0068576 66.001 0.079426
67.375 694.75 undefined 375.60 386.74 1.5796 430.00 0.0023256 375.60 386.74 1.5796 1.8507 3.1813 508.58 0.0066711 66.022 0.079517 430.00 0.0023256 375.60 386.74 1.5796 1.8507 3.1813 508.58 0.0066711 66.022 0.079517
68.375 742.61 undefined 377.45 389.36 1.5850 430.00 0.0023256 377.45 389.36 1.5850 1.8538 3.1689 511.65 0.0064899 66.043 0.079608 430.00 0.0023256 377.45 389.36 1.5850 1.8538 3.1689 511.65 0.0064899 66.043 0.079608
69.375 790.54 undefined 379.31 391.98 1.5905 430.00 0.0023256 379.31 391.98 1.5905 1.8569 3.1570 514.67 0.0063138 66.064 0.079700 430.00 0.0023256 379.31 391.98 1.5905 1.8569 3.1570 514.67 0.0063138 66.064 0.079700
70.375 838.53 undefined 381.17 394.61 1.5959 430.00 0.0023256 381.17 394.61 1.5959 1.8601 3.1457 517.65 0.0061426 66.085 0.079793 430.00 0.0023256 381.17 394.61 1.5959 1.8601 3.1457 517.65 0.0061426 66.085 0.079793
71.375 886.59 undefined 383.03 397.24 1.6013 430.00 0.0023256 383.03 397.24 1.6013 1.8634 3.1349 520.58 0.0059760 66.106 0.079886 430.00 0.0023256 383.03 397.24 1.6013 1.8634 3.1349 520.58 0.0059760 66.106 0.079886
72.375 934.70 undefined 384.89 399.88 1.6067 430.00 0.0023256 384.89 399.88 1.6067 1.8666 3.1245 523.47 0.0058138 66.127 0.079979 430.00 0.0023256 384.89 399.88 1.6067 1.8666 3.1245 523.47 0.0058138 66.127 0.079979
73.375 982.88 undefined 386.76 402.52 1.6121 430.00 0.0023256 386.76 402.52 1.6121 1.8700 3.1145 526.31 0.0056558 66.148 0.080074 430.00 0.0023256 386.76 402.52 1.6121 1.8700 3.1145 526.31 0.0056558 66.148 0.080074
74.375 1031.1 undefined 388.63 405.17 1.6175 430.00 0.0023256 388.63 405.17 1.6175 1.8733 3.1050 529.12 0.0055018 66.169 0.080168 430.00 0.0023256 388.63 405.17 1.6175 1.8733 3.1050 529.12 0.0055018 66.169 0.080168
75.375 1079.4 undefined 390.51 407.82 1.6229 430.00 0.0023256 390.51 407.82 1.6229 1.8767 3.0959 531.89 0.0053517 66.190 0.080263 430.00 0.0023256 390.51 407.82 1.6229 1.8767 3.0959 531.89 0.0053517 66.190 0.080263
76.375 1127.7 undefined 392.39 410.47 1.6283 430.00 0.0023256 392.39 410.47 1.6283 1.8802 3.0872 534.62 0.0052053 66.211 0.080359 430.00 0.0023256 392.39 410.47 1.6283 1.8802 3.0872 534.62 0.0052053 66.211 0.080359
77.375 1176.1 undefined 394.27 413.13 1.6336 430.00 0.0023256 394.27 413.13 1.6336 1.8837 3.0788 537.32 0.0050624 66.232 0.080455 430.00 0.0023256 394.27 413.13 1.6336 1.8837 3.0788 537.32 0.0050624 66.232 0.080455
78.375 1224.5 undefined 396.15 415.79 1.6390 430.00 0.0023256 396.15 415.79 1.6390 1.8872 3.0708 539.98 0.0049230 66.253 0.080552 430.00 0.0023256 396.15 415.79 1.6390 1.8872 3.0708 539.98 0.0049230 66.253 0.080552
79.375 1273.0 undefined 398.04 418.45 1.6444 430.00 0.0023256 398.04 418.45 1.6444 1.8907 3.0631 542.61 0.0047868 66.274 0.080649 430.00 0.0023256 398.04 418.45 1.6444 1.8907 3.0631 542.61 0.0047868 66.274 0.080649
80.375 1321.5 undefined 399.94 421.12 1.6497 430.00 0.0023256 399.94 421.12 1.6497 1.8943 3.0557 545.21 0.0046537 66.295 0.080746 430.00 0.0023256 399.94 421.12 1.6497 1.8943 3.0557 545.21 0.0046537 66.295 0.080746
81.375 1370.0 undefined 401.83 423.80 1.6551 430.00 0.0023256 401.83 423.80 1.6551 1.8979 3.0487 547.78 0.0045237 66.316 0.080844 430.00 0.0023256 401.83 423.80 1.6551 1.8979 3.0487 547.78 0.0045237 66.316 0.080844
82.375 1418.6 undefined 403.73 426.48 1.6604 430.00 0.0023256 403.73 426.48 1.6604 1.9015 3.0419 550.33 0.0043967 66.337 0.080942 430.00 0.0023256 403.73 426.48 1.6604 1.9015 3.0419 550.33 0.0043967 66.337 0.080942
83.375 1467.2 undefined 405.63 429.16 1.6658 430.00 0.0023256 405.63 429.16 1.6658 1.9052 3.0354 552.84 0.0042724 66.358 0.081041 430.00 0.0023256 405.63 429.16 1.6658 1.9052 3.0354 552.84 0.0042724 66.358 0.081041
84.375 1515.9 undefined 407.54 431.85 1.6711 430.00 0.0023256 407.54 431.85 1.6711 1.9089 3.0292 555.33 0.0041509 66.380 0.081140 430.00 0.0023256 407.54 431.85 1.6711 1.9089 3.0292 555.33 0.0041509 66.380 0.081140
85.375 1564.6 undefined 409.45 434.54 1.6765 430.00 0.0023256 409.45 434.54 1.6765 1.9126 3.0232 557.79 0.0040320 66.401 0.081240 430.00 0.0023256 409.45 434.54 1.6765 1.9126 3.0232 557.79 0.0040320 66.401 0.081240
86.375 1613.3 undefined 411.37 437.23 1.6818 430.00 0.0023256 411.37 437.23 1.6818 1.9163 3.0175 560.22 0.0039156 66.422 0.081340 430.00 0.0023256 411.37 437.23 1.6818 1.9163 3.0175 560.22 0.0039156 66.422 0.081340
87.375 1662.0 undefined 413.28 439.93 1.6871 430.00 0.0023256 413.28 439.93 1.6871 1.9200 3.0120 562.63 0.0038017 66.443 0.081441 430.00 0.0023256 413.28 439.93 1.6871 1.9200 3.0120 562.63 0.0038017 66.443 0.081441
88.375 1710.8 undefined 415.21 442.64 1.6924 430.00 0.0023256 415.21 442.64 1.6924 1.9238 3.0067 565.02 0.0036902 66.464 0.081542 430.00 0.0023256 415.21 442.64 1.6924 1.9238 3.0067 565.02 0.0036902 66.464 0.081542
89.375 1759.6 undefined 417.13 445.35 1.6978 430.00 0.0023256 417.13 445.35 1.6978 1.9276 3.0017 567.38 0.0035810 66.486 0.081643 430.00 0.0023256 417.13 445.35 1.6978 1.9276 3.0017 567.38 0.0035810 66.486 0.081643
90.375 1808.4 undefined 419.06 448.06 1.7031 430.00 0.0023256 419.06 448.06 1.7031 1.9314 2.9968 569.73 0.0034740 66.507 0.081744 430.00 0.0023256 419.06 448.06 1.7031 1.9314 2.9968 569.73 0.0034740 66.507 0.081744
91.375 1857.3 undefined 420.99 450.77 1.7084 430.00 0.0023256 420.99 450.77 1.7084 1.9352 2.9922 572.05 0.0033692 66.528 0.081847 430.00 0.0023256 420.99 450.77 1.7084 1.9352 2.9922 572.05 0.0033692 66.528 0.081847
92.375 1906.1 undefined 422.93 453.50 1.7137 430.00 0.0023256 422.93 453.50 1.7137 1.9390 2.9878 574.35 0.0032664 66.549 0.081949 430.00 0.0023256 422.93 453.50 1.7137 1.9390 2.9878 574.35 0.0032664 66.549 0.081949
93.375 1955.0 undefined 424.87 456.22 1.7190 430.00 0.0023256 424.87 456.22 1.7190 1.9429 2.9836 576.63 0.0031657 66.570 0.082052 430.00 0.0023256 424.87 456.22 1.7190 1.9429 2.9836 576.63 0.0031657 66.570 0.082052
94.375 2003.9 undefined 426.82 458.95 1.7243 430.00 0.0023256 426.82 458.95 1.7243 1.9468 2.9795 578.89 0.0030670 66.592 0.082155 430.00 0.0023256 426.82 458.95 1.7243 1.9468 2.9795 578.89 0.0030670 66.592 0.082155
95.375 2052.9 undefined 428.77 461.68 1.7296 430.00 0.0023256 428.77 461.68 1.7296 1.9506 2.9756 581.13 0.0029702 66.613 0.082259 430.00 0.0023256 428.77 461.68 1.7296 1.9506 2.9756 581.13 0.0029702 66.613 0.082259
96.375 2101.8 undefined 430.72 464.42 1.7349 430.00 0.0023256 430.72 464.42 1.7349 1.9545 2.9719 583.35 0.0028753 66.634 0.082363 430.00 0.0023256 430.72 464.42 1.7349 1.9545 2.9719 583.35 0.0028753 66.634 0.082363
97.375 2150.8 undefined 432.68 467.16 1.7402 430.00 0.0023256 432.68 467.16 1.7402 1.9584 2.9684 585.56 0.0027822 66.656 0.082467 430.00 0.0023256 432.68 467.16 1.7402 1.9584 2.9684 585.56 0.0027822 66.656 0.082467
98.375 2199.7 undefined 434.64 469.91 1.7455 430.00 0.0023256 434.64 469.91 1.7455 1.9623 2.9650 587.75 0.0026908 66.677 0.082572 430.00 0.0023256 434.64 469.91 1.7455 1.9623 2.9650 587.75 0.0026908 66.677 0.082572
99.375 2248.7 undefined 436.60 472.66 1.7507 430.00 0.0023256 436.60 472.66 1.7507 1.9663 2.9617 589.92 0.0026012 66.698 0.082677 430.00 0.0023256 436.60 472.66 1.7507 1.9663 2.9617 589.92 0.0026012 66.698 0.082677
100.38 2297.7 undefined 438.57 475.41 1.7560 430.00 0.0023256 438.57 475.41 1.7560 1.9702 2.9587 592.07 0.0025132 66.719 0.082782 430.00 0.0023256 438.57 475.41 1.7560 1.9702 2.9587 592.07 0.0025132 66.719 0.082782
101.38 2346.8 undefined 440.54 478.17 1.7613 430.00 0.0023256 440.54 478.17 1.7613 1.9742 2.9557 594.21 0.0024269 66.741 0.082888 430.00 0.0023256 440.54 478.17 1.7613 1.9742 2.9557 594.21 0.0024269 66.741 0.082888
102.38 2395.8 undefined 442.52 480.93 1.7666 430.00 0.0023256 442.52 480.93 1.7666 1.9781 2.9529 596.33 0.0023421 66.762 0.082994 430.00 0.0023256 442.52 480.93 1.7666 1.9781 2.9529 596.33 0.0023421 66.762 0.082994
103.38 2444.9 undefined 444.50 483.70 1.7718 430.00 0.0023256 444.50 483.70 1.7718 1.9821 2.9502 598.44 0.0022589 66.783 0.083101 430.00 0.0023256 444.50 483.70 1.7718 1.9821 2.9502 598.44 0.0022589 66.783 0.083101
104.38 2493.9 undefined 446.48 486.47 1.7771 430.00 0.0023256 446.48 486.47 1.7771 1.9860 2.9477 600.53 0.0021772 66.805 0.083208 430.00 0.0023256 446.48 486.47 1.7771 1.9860 2.9477 600.53 0.0021772 66.805 0.083208
105.38 2543.0 undefined 448.47 489.24 1.7823 430.00 0.0023256 448.47 489.24 1.7823 1.9900 2.9453 602.61 0.0020970 66.826 0.083315 430.00 0.0023256 448.47 489.24 1.7823 1.9900 2.9453 602.61 0.0020970 66.826 0.083315
106.38 2592.1 undefined 450.46 492.02 1.7876 430.00 0.0023256 450.46 492.02 1.7876 1.9940 2.9430 604.67 0.0020182 66.847 0.083423 430.00 0.0023256 450.46 492.02 1.7876 1.9940 2.9430 604.67 0.0020182 66.847 0.083423
107.38 2641.2 undefined 452.46 494.81 1.7929 430.00 0.0023256 452.46 494.81 1.7929 1.9980 2.9409 606.72 0.0019407 66.869 0.083531 430.00 0.0023256 452.46 494.81 1.7929 1.9980 2.9409 606.72 0.0019407 66.869 0.083531
108.38 2690.3 undefined 454.46 497.59 1.7981 430.00 0.0023256 454.46 497.59 1.7981 2.0020 2.9388 608.76 0.0018647 66.890 0.083639 430.00 0.0023256 454.46 497.59 1.7981 2.0020 2.9388 608.76 0.0018647 66.890 0.083639
109.38 2739.4 undefined 456.46 500.38 1.8033 430.00 0.0023256 456.46 500.38 1.8033 2.0060 2.9369 610.78 0.0017899 66.912 0.083748 430.00 0.0023256 456.46 500.38 1.8033 2.0060 2.9369 610.78 0.0017899 66.912 0.083748
110.38 2788.5 undefined 458.47 503.18 1.8086 430.00 0.0023256 458.47 503.18 1.8086 2.0100 2.9350 612.79 0.0017165 66.933 0.083857 430.00 0.0023256 458.47 503.18 1.8086 2.0100 2.9350 612.79 0.0017165 66.933 0.083857
111.38 2837.6 undefined 460.48 505.98 1.8138 430.00 0.0023256 460.48 505.98 1.8138 2.0140 2.9333 614.79 0.0016443 66.954 0.083966 430.00 0.0023256 460.48 505.98 1.8138 2.0140 2.9333 614.79 0.0016443 66.954 0.083966
112.38 2886.7 undefined 462.50 508.78 1.8191 430.00 0.0023256 462.50 508.78 1.8191 2.0180 2.9317 616.77 0.0015733 66.976 0.084076 430.00 0.0023256 462.50 508.78 1.8191 2.0180 2.9317 616.77 0.0015733 66.976 0.084076
113.38 2935.9 undefined 464.52 511.59 1.8243 430.00 0.0023256 464.52 511.59 1.8243 2.0220 2.9302 618.74 0.0015036 66.997 0.084186 430.00 0.0023256 464.52 511.59 1.8243 2.0220 2.9302 618.74 0.0015036 66.997 0.084186
114.38 2985.0 undefined 466.54 514.40 1.8295 430.00 0.0023256 466.54 514.40 1.8295 2.0261 2.9287 620.70 0.0014350 67.019 0.084296 430.00 0.0023256 466.54 514.40 1.8295 2.0261 2.9287 620.70 0.0014350 67.019 0.084296
115.38 3034.1 undefined 468.57 517.22 1.8348 430.00 0.0023256 468.57 517.22 1.8348 2.0301 2.9274 622.65 0.0013676 67.040 0.084407 430.00 0.0023256 468.57 517.22 1.8348 2.0301 2.9274 622.65 0.0013676 67.040 0.084407
116.38 3083.3 undefined 470.60 520.04 1.8400 430.00 0.0023256 470.60 520.04 1.8400 2.0341 2.9262 624.59 0.0013013 67.061 0.084518 430.00 0.0023256 470.60 520.04 1.8400 2.0341 2.9262 624.59 0.0013013 67.061 0.084518
117.38 3132.4 undefined 472.64 522.86 1.8452 430.00 0.0023256 472.64 522.86 1.8452 2.0382 2.9250 626.51 0.0012361 67.083 0.084629 430.00 0.0023256 472.64 522.86 1.8452 2.0382 2.9250 626.51 0.0012361 67.083 0.084629
118.38 3181.6 undefined 474.68 525.69 1.8504 430.00 0.0023256 474.68 525.69 1.8504 2.0422 2.9239 628.43 0.0011720 67.104 0.084740 430.00 0.0023256 474.68 525.69 1.8504 2.0422 2.9239 628.43 0.0011720 67.104 0.084740
119.38 3230.7 undefined 476.72 528.52 1.8556 430.00 0.0023256 476.72 528.52 1.8556 2.0462 2.9229 630.33 0.0011089 67.126 0.084852 430.00 0.0023256 476.72 528.52 1.8556 2.0462 2.9229 630.33 0.0011089 67.126 0.084852
120.38 3279.9 undefined 478.77 531.36 1.8608 430.00 0.0023256 478.77 531.36 1.8608 2.0503 2.9220 632.23 0.0010469 67.147 0.084965 430.00 0.0023256 478.77 531.36 1.8608 2.0503 2.9220 632.23 0.0010469 67.147 0.084965
121.38 3329.1 undefined 480.82 534.20 1.8661 430.00 0.0023256 480.82 534.20 1.8661 2.0543 2.9212 634.11 0.00098583 67.169 0.085077 430.00 0.0023256 480.82 534.20 1.8661 2.0543 2.9212 634.11 0.00098583 67.169 0.085077
122.38 3378.2 undefined 482.88 537.05 1.8713 430.00 0.0023256 482.88 537.05 1.8713 2.0584 2.9205 635.98 0.00092577 67.190 0.085190 430.00 0.0023256 482.88 537.05 1.8713 2.0584 2.9205 635.98 0.00092577 67.190 0.085190
123.38 3427.4 undefined 484.94 539.89 1.8765 430.00 0.0023256 484.94 539.89 1.8765 2.0624 2.9198 637.84 0.00086667 67.211 0.085304 430.00 0.0023256 484.94 539.89 1.8765 2.0624 2.9198 637.84 0.00086667 67.211 0.085304
124.38 3476.5 undefined 487.00 542.75 1.8817 430.00 0.0023256 487.00 542.75 1.8817 2.0665 2.9192 639.70 0.00080851 67.233 0.085417 430.00 0.0023256 487.00 542.75 1.8817 2.0665 2.9192 639.70 0.00080851 67.233 0.085417
125.38 3525.7 undefined 489.07 545.60 1.8869 430.00 0.0023256 489.07 545.60 1.8869 2.0705 2.9187 641.54 0.00075127 67.254 0.085531 430.00 0.0023256 489.07 545.60 1.8869 2.0705 2.9187 641.54 0.00075127 67.254 0.085531
126.38 3574.9 undefined 491.14 548.47 1.8920 430.00 0.0023256 491.14 548.47 1.8920 2.0745 2.9182 643.37 0.00069493 67.276 0.085646 430.00 0.0023256 491.14 548.47 1.8920 2.0745 2.9182 643.37 0.00069493 67.276 0.085646
127.38 3624.0 undefined 493.22 551.33 1.8972 430.00 0.0023256 493.22 551.33 1.8972 2.0786 2.9178 645.20 0.00063947 67.297 0.085760 430.00 0.0023256 493.22 551.33 1.8972 2.0786 2.9178 645.20 0.00063947 67.297 0.085760
128.38 3673.2 undefined 495.30 554.20 1.9024 430.00 0.0023256 495.30 554.20 1.9024 2.0826 2.9175 647.01 0.00058488 67.319 0.085875 430.00 0.0023256 495.30 554.20 1.9024 2.0826 2.9175 647.01 0.00058488 67.319 0.085875
129.38 3722.3 undefined 497.39 557.07 1.9076 430.00 0.0023256 497.39 557.07 1.9076 2.0867 2.9172 648.82 0.00053113 67.340 0.085990 430.00 0.0023256 497.39 557.07 1.9076 2.0867 2.9172 648.82 0.00053113 67.340 0.085990
130.38 3771.5 undefined 499.48 559.95 1.9128 430.00 0.0023256 499.48 559.95 1.9128 2.0907 2.9170 650.61 0.00047821 67.362 0.086106 430.00 0.0023256 499.48 559.95 1.9128 2.0907 2.9170 650.61 0.00047821 67.362 0.086106
131.38 3820.7 undefined 501.57 562.83 1.9180 430.00 0.0023256 501.57 562.83 1.9180 2.0948 2.9169 652.40 0.00042610 67.383 0.086222 430.00 0.0023256 501.57 562.83 1.9180 2.0948 2.9169 652.40 0.00042610 67.383 0.086222
132.38 3869.8 undefined 503.66 565.71 1.9232 430.00 0.0023256 503.66 565.71 1.9232 2.0988 2.9168 654.18 0.00037479 67.405 0.086338 430.00 0.0023256 503.66 565.71 1.9232 2.0988 2.9168 654.18 0.00037479 67.405 0.086338
133.38 3919.0 undefined 505.77 568.60 1.9283 430.00 0.0023256 505.77 568.60 1.9283 2.1029 2.9168 655.95 0.00032425 67.426 0.086454 430.00 0.0023256 505.77 568.60 1.9283 2.1029 2.9168 655.95 0.00032425 67.426 0.086454
134.38 3968.1 undefined 507.87 571.50 1.9335 430.00 0.0023256 507.87 571.50 1.9335 2.1069 2.9168 657.71 0.00027448 67.448 0.086571 430.00 0.0023256 507.87 571.50 1.9335 2.1069 2.9168 657.71 0.00027448 67.448 0.086571
135.38 4017.3 undefined 509.98 574.39 1.9387 430.00 0.0023256 509.98 574.39 1.9387 2.1110 2.9169 659.46 0.00022546 67.469 0.086688 430.00 0.0023256 509.98 574.39 1.9387 2.1110 2.9169 659.46 0.00022546 67.469 0.086688
136.38 4066.4 undefined 512.09 577.29 1.9438 430.00 0.0023256 512.09 577.29 1.9438 2.1150 2.9170 661.21 0.00017717 67.491 0.086806 430.00 0.0023256 512.09 577.29 1.9438 2.1150 2.9170 661.21 0.00017717 67.491 0.086806
137.38 4115.5 undefined 514.21 580.20 1.9490 430.00 0.0023256 514.21 580.20 1.9490 2.1191 2.9172 662.95 0.00012960 67.512 0.086923 430.00 0.0023256 514.21 580.20 1.9490 2.1191 2.9172 662.95 0.00012960 67.512 0.086923
138.38 4164.7 undefined 516.33 583.11 1.9542 430.00 0.0023256 516.33 583.11 1.9542 2.1231 2.9175 664.68 8.2734e-05 67.534 0.087041 430.00 0.0023256 516.33 583.11 1.9542 2.1231 2.9175 664.68 8.2734e-05 67.534 0.087041
139.38 4213.8 undefined 518.46 586.02 1.9593 430.00 0.0023256 518.46 586.02 1.9593 2.1271 2.9178 666.40 3.6560e-05 67.555 0.087160 430.00 0.0023256 518.46 586.02 1.9593 2.1271 2.9178 666.40 3.6560e-05 67.555 0.087160
140.38 4262.9 undefined 520.58 588.94 1.9645 430.00 0.0023256 520.58 588.94 1.9645 2.1312 2.9181 668.11 -8.9375e-06 67.577 0.087278 430.00 0.0023256 520.58 588.94 1.9645 2.1312 2.9181 668.11 -8.9375e-06 67.577 0.087278
141.38 4312.0 undefined 522.72 591.86 1.9696 430.00 0.0023256 522.72 591.86 1.9696 2.1352 2.9185 669.82 -5.3770e-05 67.598 0.087397 430.00 0.0023256 522.72 591.86 1.9696 2.1352 2.9185 669.82 -5.3770e-05 67.598 0.087397
142.38 4361.2 undefined 524.86 594.78 1.9748 430.00 0.0023256 524.86 594.78 1.9748 2.1393 2.9189 671.51 -9.7950e-05 67.620 0.087517 430.00 0.0023256 524.86 594.78 1.9748 2.1393 2.9189 671.51 -9.7950e-05 67.620 0.087517
143.38 4410.3 undefined 527.00 597.71 1.9799 430.00 0.0023256 527.00 597.71 1.9799 2.1433 2.9194 673.20 -0.00014149 67.642 0.087636 430.00 0.0023256 527.00 597.71 1.9799 2.1433 2.9194 673.20 -0.00014149 67.642 0.087636
144.38 4459.4 undefined 529.14 600.64 1.9851 430.00 0.0023256 529.14 600.64 1.9851 2.1473 2.9199 674.89 -0.00018440 67.663 0.087756 430.00 0.0023256 529.14 600.64 1.9851 2.1473 2.9199 674.89 -0.00018440 67.663 0.087756
145.38 4508.5 undefined 531.29 603.58 1.9902 430.00 0.0023256 531.29 603.58 1.9902 2.1514 2.9205 676.56 -0.00022670 67.685 0.087876 430.00 0.0023256 531.29 603.58 1.9902 2.1514 2.9205 676.56 -0.00022670 67.685 0.087876
146.38 4557.6 undefined 533.44 606.52 1.9953 430.00 0.0023256 533.44 606.52 1.9953 2.1554 2.9211 678.23 -0.00026839 67.706 0.087997 430.00 0.0023256 533.44 606.52 1.9953 2.1554 2.9211 678.23 -0.00026839 67.706 0.087997
147.38 4606.6 undefined 535.60 609.47 2.0005 430.00 0.0023256 535.60 609.47 2.0005 2.1594 2.9217 679.89 -0.00030949 67.728 0.088118 430.00 0.0023256 535.60 609.47 2.0005 2.1594 2.9217 679.89 -0.00030949 67.728 0.088118
148.38 4655.7 undefined 537.76 612.41 2.0056 430.00 0.0023256 537.76 612.41 2.0056 2.1635 2.9224 681.55 -0.00035001 67.749 0.088239 430.00 0.0023256 537.76 612.41 2.0056 2.1635 2.9224 681.55 -0.00035001 67.749 0.088239
149.38 4704.8 undefined 539.93 615.37 2.0107 430.00 0.0023256 539.93 615.37 2.0107 2.1675 2.9232 683.20 -0.00038996 67.771 0.088360 430.00 0.0023256 539.93 615.37 2.0107 2.1675 2.9232 683.20 -0.00038996 67.771 0.088360
150.38 4753.8 undefined 542.10 618.32 2.0159 430.00 0.0023256 542.10 618.32 2.0159 2.1715 2.9239 684.84 -0.00042934 67.792 0.088482 430.00 0.0023256 542.10 618.32 2.0159 2.1715 2.9239 684.84 -0.00042934 67.792 0.088482
151.38 4802.9 undefined 544.27 621.28 2.0210 430.00 0.0023256 544.27 621.28 2.0210 2.1755 2.9247 686.47 -0.00046818 67.814 0.088604 430.00 0.0023256 544.27 621.28 2.0210 2.1755 2.9247 686.47 -0.00046818 67.814 0.088604
152.38 4852.0 undefined 546.45 624.25 2.0261 430.00 0.0023256 546.45 624.25 2.0261 2.1795 2.9256 688.10 -0.00050647 67.835 0.088727 430.00 0.0023256 546.45 624.25 2.0261 2.1795 2.9256 688.10 -0.00050647 67.835 0.088727
153.38 4901.0 undefined 548.63 627.22 2.0312 430.00 0.0023256 548.63 627.22 2.0312 2.1836 2.9264 689.72 -0.00054423 67.857 0.088849 430.00 0.0023256 548.63 627.22 2.0312 2.1836 2.9264 689.72 -0.00054423 67.857 0.088849
154.38 4950.0 undefined 550.82 630.19 2.0364 430.00 0.0023256 550.82 630.19 2.0364 2.1876 2.9274 691.33 -0.00058148 67.878 0.088972 430.00 0.0023256 550.82 630.19 2.0364 2.1876 2.9274 691.33 -0.00058148 67.878 0.088972
155.38 4999.0 undefined 553.01 633.16 2.0415 430.00 0.0023256 553.01 633.16 2.0415 2.1916 2.9283 692.94 -0.00061820 67.900 0.089095 430.00 0.0023256 553.01 633.16 2.0415 2.1916 2.9283 692.94 -0.00061820 67.900 0.089095
156.38 5048.1 undefined 555.20 636.14 2.0466 430.00 0.0023256 555.20 636.14 2.0466 2.1956 2.9293 694.54 -0.00065443 67.922 0.089219 430.00 0.0023256 555.20 636.14 2.0466 2.1956 2.9293 694.54 -0.00065443 67.922 0.089219
157.38 5097.1 undefined 557.40 639.13 2.0517 430.00 0.0023256 557.40 639.13 2.0517 2.1996 2.9303 696.14 -0.00069016 67.943 0.089343 430.00 0.0023256 557.40 639.13 2.0517 2.1996 2.9303 696.14 -0.00069016 67.943 0.089343
158.38 5146.1 undefined 559.60 642.11 2.0568 430.00 0.0023256 559.60 642.11 2.0568 2.2036 2.9313 697.73 -0.00072540 67.965 0.089467 430.00 0.0023256 559.60 642.11 2.0568 2.2036 2.9313 697.73 -0.00072540 67.965 0.089467
159.38 5195.1 undefined 561.80 645.10 2.0619 430.00 0.0023256 561.80 645.10 2.0619 2.2076 2.9324 699.31 -0.00076017 67.986 0.089592 430.00 0.0023256 561.80 645.10 2.0619 2.2076 2.9324 699.31 -0.00076017 67.986 0.089592
160.38 5244.0 undefined 564.01 648.10 2.0670 430.00 0.0023256 564.01 648.10 2.0670 2.2116 2.9335 700.88 -0.00079447 68.008 0.089716 430.00 0.0023256 564.01 648.10 2.0670 2.2116 2.9335 700.88 -0.00079447 68.008 0.089716
161.38 5293.0 undefined 566.23 651.10 2.0721 430.00 0.0023256 566.23 651.10 2.0721 2.2156 2.9346 702.45 -0.00082831 68.029 0.089841 430.00 0.0023256 566.23 651.10 2.0721 2.2156 2.9346 702.45 -0.00082831 68.029 0.089841
162.38 5342.0 undefined 568.45 654.10 2.0772 430.00 0.0023256 568.45 654.10 2.0772 2.2196 2.9358 704.02 -0.00086169 68.051 0.089967 430.00 0.0023256 568.45 654.10 2.0772 2.2196 2.9358 704.02 -0.00086169 68.051 0.089967
163.38 5390.9 undefined 570.67 657.11 2.0823 430.00 0.0023256 570.67 657.11 2.0823 2.2236 2.9370 705.58 -0.00089463 68.072 0.090092 430.00 0.0023256 570.67 657.11 2.0823 2.2236 2.9370 705.58 -0.00089463 68.072 0.090092
164.38 5439.9 undefined 572.89 660.12 2.0874 430.00 0.0023256 572.89 660.12 2.0874 2.2276 2.9382 707.13 -0.00092713 68.094 0.090218 430.00 0.0023256 572.89 660.12 2.0874 2.2276 2.9382 707.13 -0.00092713 68.094 0.090218
165.38 5488.8 undefined 575.12 663.13 2.0925 430.00 0.0023256 575.12 663.13 2.0925 2.2316 2.9394 708.68 -0.00095920 68.115 0.090345 430.00 0.0023256 575.12 663.13 2.0925 2.2316 2.9394 708.68 -0.00095920 68.115 0.090345
166.38 5537.7 undefined 577.36 666.15 2.0976 430.00 0.0023256 577.36 666.15 2.0976 2.2355 2.9407 710.22 -0.00099085 68.137 0.090471 430.00 0.0023256 577.36 666.15 2.0976 2.2355 2.9407 710.22 -0.00099085 68.137 0.090471
167.38 5586.6 undefined 579.59 669.17 2.1027 430.00 0.0023256 579.59 669.17 2.1027 2.2395 2.9420 711.76 -0.0010221 68.159 0.090598 430.00 0.0023256 579.59 669.17 2.1027 2.2395 2.9420 711.76 -0.0010221 68.159 0.090598
168.38 5635.5 undefined 581.83 672.20 2.1077 430.00 0.0023256 581.83 672.20 2.1077 2.2435 2.9433 713.29 -0.0010529 68.180 0.090725 430.00 0.0023256 581.83 672.20 2.1077 2.2435 2.9433 713.29 -0.0010529 68.180 0.090725
169.38 5684.4 undefined 584.08 675.23 2.1128 430.00 0.0023256 584.08 675.23 2.1128 2.2475 2.9447 714.81 -0.0010833 68.202 0.090853 430.00 0.0023256 584.08 675.23 2.1128 2.2475 2.9447 714.81 -0.0010833 68.202 0.090853
170.38 5733.3 undefined 586.33 678.26 2.1179 430.00 0.0023256 586.33 678.26 2.1179 2.2514 2.9461 716.33 -0.0011134 68.223 0.090981 430.00 0.0023256 586.33 678.26 2.1179 2.2514 2.9461 716.33 -0.0011134 68.223 0.090981
171.38 5782.2 undefined 588.58 681.30 2.1230 430.00 0.0023256 588.58 681.30 2.1230 2.2554 2.9475 717.84 -0.0011430 68.245 0.091109 430.00 0.0023256 588.58 681.30 2.1230 2.2554 2.9475 717.84 -0.0011430 68.245 0.091109
172.38 5831.0 undefined 590.84 684.34 2.1281 430.00 0.0023256 590.84 684.34 2.1281 2.2594 2.9489 719.35 -0.0011722 68.266 0.091237 430.00 0.0023256 590.84 684.34 2.1281 2.2594 2.9489 719.35 -0.0011722 68.266 0.091237
173.38 5879.9 undefined 593.10 687.38 2.1331 430.00 0.0023256 593.10 687.38 2.1331 2.2633 2.9503 720.85 -0.0012011 68.288 0.091366 430.00 0.0023256 593.10 687.38 2.1331 2.2633 2.9503 720.85 -0.0012011 68.288 0.091366
174.38 5928.7 undefined 595.37 690.43 2.1382 430.00 0.0023256 595.37 690.43 2.1382 2.2673 2.9518 722.35 -0.0012296 68.309 0.091495 430.00 0.0023256 595.37 690.43 2.1382 2.2673 2.9518 722.35 -0.0012296 68.309 0.091495
175.38 5977.5 undefined 597.64 693.48 2.1433 430.00 0.0023256 597.64 693.48 2.1433 2.2712 2.9533 723.85 -0.0012578 68.331 0.091624 430.00 0.0023256 597.64 693.48 2.1433 2.2712 2.9533 723.85 -0.0012578 68.331 0.091624
176.38 6026.4 undefined 599.91 696.54 2.1483 430.00 0.0023256 599.91 696.54 2.1483 2.2752 2.9548 725.33 -0.0012855 68.352 0.091753 430.00 0.0023256 599.91 696.54 2.1483 2.2752 2.9548 725.33 -0.0012855 68.352 0.091753
177.38 6075.2 undefined 602.19 699.60 2.1534 430.00 0.0023256 602.19 699.60 2.1534 2.2791 2.9563 726.82 -0.0013130 68.374 0.091883 430.00 0.0023256 602.19 699.60 2.1534 2.2791 2.9563 726.82 -0.0013130 68.374 0.091883
178.38 6123.9 undefined 604.47 702.66 2.1584 430.00 0.0023256 604.47 702.66 2.1584 2.2831 2.9579 728.29 -0.0013401 68.395 0.092013 430.00 0.0023256 604.47 702.66 2.1584 2.2831 2.9579 728.29 -0.0013401 68.395 0.092013
179.38 6172.7 undefined 606.75 705.73 2.1635 430.00 0.0023256 606.75 705.73 2.1635 2.2870 2.9594 729.77 -0.0013668 68.417 0.092144 430.00 0.0023256 606.75 705.73 2.1635 2.2870 2.9594 729.77 -0.0013668 68.417 0.092144
180.38 6221.5 undefined 609.04 708.80 2.1685 430.00 0.0023256 609.04 708.80 2.1685 2.2910 2.9610 731.23 -0.0013932 68.438 0.092274 430.00 0.0023256 609.04 708.80 2.1685 2.2910 2.9610 731.23 -0.0013932 68.438 0.092274
181.38 6270.2 undefined 611.34 711.87 2.1736 430.00 0.0023256 611.34 711.87 2.1736 2.2949 2.9626 732.70 -0.0014193 68.460 0.092405 430.00 0.0023256 611.34 711.87 2.1736 2.2949 2.9626 732.70 -0.0014193 68.460 0.092405
182.38 6319.0 undefined 613.63 714.95 2.1786 430.00 0.0023256 613.63 714.95 2.1786 2.2988 2.9643 734.15 -0.0014450 68.481 0.092537 430.00 0.0023256 613.63 714.95 2.1786 2.2988 2.9643 734.15 -0.0014450 68.481 0.092537
183.38 6367.7 undefined 615.93 718.03 2.1837 430.00 0.0023256 615.93 718.03 2.1837 2.3028 2.9659 735.61 -0.0014704 68.503 0.092668 430.00 0.0023256 615.93 718.03 2.1837 2.3028 2.9659 735.61 -0.0014704 68.503 0.092668
184.38 6416.4 undefined 618.24 721.12 2.1887 430.00 0.0023256 618.24 721.12 2.1887 2.3067 2.9676 737.05 -0.0014955 68.525 0.092800 430.00 0.0023256 618.24 721.12 2.1887 2.3067 2.9676 737.05 -0.0014955 68.525 0.092800
185.38 6465.1 undefined 620.55 724.21 2.1938 430.00 0.0023256 620.55 724.21 2.1938 2.3106 2.9693 738.50 -0.0015203 68.546 0.092932 430.00 0.0023256 620.55 724.21 2.1938 2.3106 2.9693 738.50 -0.0015203 68.546 0.092932
186.38 6513.8 undefined 622.86 727.30 2.1988 430.00 0.0023256 622.86 727.30 2.1988 2.3145 2.9710 739.94 -0.0015448 68.568 0.093065 430.00 0.0023256 622.86 727.30 2.1988 2.3145 2.9710 739.94 -0.0015448 68.568 0.093065
187.38 6562.5 undefined 625.18 730.40 2.2038 430.00 0.0023256 625.18 730.40 2.2038 2.3184 2.9727 741.37 -0.0015690 68.589 0.093198 430.00 0.0023256 625.18 730.40 2.2038 2.3184 2.9727 741.37 -0.0015690 68.589 0.093198
188.38 6611.2 undefined 627.50 733.50 2.2089 430.00 0.0023256 627.50 733.50 2.2089 2.3223 2.9744 742.80 -0.0015929 68.610 0.093331 430.00 0.0023256 627.50 733.50 2.2089 2.3223 2.9744 742.80 -0.0015929 68.610 0.093331
189.38 6659.8 undefined 629.82 736.61 2.2139 430.00 0.0023256 629.82 736.61 2.2139 2.3262 2.9762 744.23 -0.0016165 68.632 0.093464 430.00 0.0023256 629.82 736.61 2.2139 2.3262 2.9762 744.23 -0.0016165 68.632 0.093464
190.38 6708.4 undefined 632.15 739.71 2.2189 430.00 0.0023256 632.15 739.71 2.2189 2.3301 2.9780 745.65 -0.0016398 68.653 0.093598 430.00 0.0023256 632.15 739.71 2.2189 2.3301 2.9780 745.65 -0.0016398 68.653 0.093598
191.38 6757.1 undefined 634.48 742.82 2.2240 430.00 0.0023256 634.48 742.82 2.2240 2.3340 2.9797 747.06 -0.0016628 68.675 0.093731 430.00 0.0023256 634.48 742.82 2.2240 2.3340 2.9797 747.06 -0.0016628 68.675 0.093731
192.38 6805.7 undefined 636.82 745.94 2.2290 430.00 0.0023256 636.82 745.94 2.2290 2.3379 2.9815 748.47 -0.0016856 68.696 0.093866 430.00 0.0023256 636.82 745.94 2.2290 2.3379 2.9815 748.47 -0.0016856 68.696 0.093866
193.38 6854.3 undefined 639.16 749.06 2.2340 430.00 0.0023256 639.16 749.06 2.2340 2.3418 2.9834 749.88 -0.0017081 68.718 0.094000 430.00 0.0023256 639.16 749.06 2.2340 2.3418 2.9834 749.88 -0.0017081 68.718 0.094000
194.38 6902.9 undefined 641.50 752.18 2.2390 430.00 0.0023256 641.50 752.18 2.2390 2.3457 2.9852 751.29 -0.0017303 68.739 0.094135 430.00 0.0023256 641.50 752.18 2.2390 2.3457 2.9852 751.29 -0.0017303 68.739 0.094135
195.38 6951.4 undefined 643.85 755.31 2.2440 430.00 0.0023256 643.85 755.31 2.2440 2.3496 2.9870 752.68 -0.0017522 68.761 0.094270 430.00 0.0023256 643.85 755.31 2.2440 2.3496 2.9870 752.68 -0.0017522 68.761 0.094270
196.38 7000.0 undefined 646.20 758.44 2.2491 430.00 0.0023256 646.20 758.44 2.2491 2.3535 2.9889 754.08 -0.0017739 68.782 0.094405 430.00 0.0023256 646.20 758.44 2.2491 2.3535 2.9889 754.08 -0.0017739 68.782 0.094405
197.38 7048.5 undefined 648.55 761.57 2.2541 430.00 0.0023256 648.55 761.57 2.2541 2.3573 2.9908 755.47 -0.0017953 68.804 0.094541 430.00 0.0023256 648.55 761.57 2.2541 2.3573 2.9908 755.47 -0.0017953 68.804 0.094541
198.38 7097.0 undefined 650.91 764.71 2.2591 430.00 0.0023256 650.91 764.71 2.2591 2.3612 2.9927 756.85 -0.0018164 68.825 0.094677 430.00 0.0023256 650.91 764.71 2.2591 2.3612 2.9927 756.85 -0.0018164 68.825 0.094677
199.38 7145.6 undefined 653.28 767.85 2.2641 430.00 0.0023256 653.28 767.85 2.2641 2.3651 2.9946 758.24 -0.0018373 68.847 0.094813 430.00 0.0023256 653.28 767.85 2.2641 2.3651 2.9946 758.24 -0.0018373 68.847 0.094813
200.38 7194.1 undefined 655.64 771.00 2.2691 430.00 0.0023256 655.64 771.00 2.2691 2.3689 2.9965 759.61 -0.0018580 68.868 0.094950 430.00 0.0023256 655.64 771.00 2.2691 2.3689 2.9965 759.61 -0.0018580 68.868 0.094950
201.38 7242.5 undefined 658.01 774.14 2.2741 430.00 0.0023256 658.01 774.14 2.2741 2.3728 2.9984 760.99 -0.0018784 68.890 0.095086 430.00 0.0023256 658.01 774.14 2.2741 2.3728 2.9984 760.99 -0.0018784 68.890 0.095086
202.38 7291.0 undefined 660.39 777.30 2.2791 430.00 0.0023256 660.39 777.30 2.2791 2.3767 3.0004 762.36 -0.0018985 68.911 0.095223 430.00 0.0023256 660.39 777.30 2.2791 2.3767 3.0004 762.36 -0.0018985 68.911 0.095223
203.38 7339.5 undefined 662.77 780.45 2.2841 430.00 0.0023256 662.77 780.45 2.2841 2.3805 3.0023 763.72 -0.0019185 68.932 0.095361 430.00 0.0023256 662.77 780.45 2.2841 2.3805 3.0023 763.72 -0.0019185 68.932 0.095361
204.38 7387.9 undefined 665.15 783.61 2.2891 430.00 0.0023256 665.15 783.61 2.2891 2.3843 3.0043 765.09 -0.0019382 68.954 0.095499 430.00 0.0023256 665.15 783.61 2.2891 2.3843 3.0043 765.09 -0.0019382 68.954 0.095499
205.38 7436.3 undefined 667.54 786.77 2.2941 430.00 0.0023256 667.54 786.77 2.2941 2.3882 3.0062 766.44 -0.0019576 68.975 0.095636 430.00 0.0023256 667.54 786.77 2.2941 2.3882 3.0062 766.44 -0.0019576 68.975 0.095636
206.38 7484.7 undefined 669.93 789.94 2.2991 430.00 0.0023256 669.93 789.94 2.2991 2.3920 3.0082 767.80 -0.0019768 68.997 0.095775 430.00 0.0023256 669.93 789.94 2.2991 2.3920 3.0082 767.80 -0.0019768 68.997 0.095775
207.38 7533.1 undefined 672.32 793.11 2.3040 430.00 0.0023256 672.32 793.11 2.3040 2.3959 3.0102 769.15 -0.0019959 69.018 0.095913 430.00 0.0023256 672.32 793.11 2.3040 2.3959 3.0102 769.15 -0.0019959 69.018 0.095913
208.38 7581.5 undefined 674.72 796.28 2.3090 430.00 0.0023256 674.72 796.28 2.3090 2.3997 3.0123 770.49 -0.0020146 69.039 0.096056 430.00 0.0023256 674.72 796.28 2.3090 2.3997 3.0123 770.49 -0.0020146 69.039 0.096056
209.38 7629.9 undefined 677.12 799.46 2.3140 430.00 0.0023256 677.12 799.46 2.3140 2.4035 3.0143 771.84 -0.0020332 69.061 0.096198 430.00 0.0023256 677.12 799.46 2.3140 2.4035 3.0143 771.84 -0.0020332 69.061 0.096198
210.38 7678.2 undefined 679.53 802.64 2.3190 430.00 0.0023256 679.53 802.64 2.3190 2.4073 3.0163 773.17 -0.0020516 69.082 0.096341 430.00 0.0023256 679.53 802.64 2.3190 2.4073 3.0163 773.17 -0.0020516 69.082 0.096341
211.38 7726.6 undefined 681.93 805.82 2.3240 430.00 0.0023256 681.93 805.82 2.3240 2.4112 3.0184 774.51 -0.0020697 69.104 0.096484 430.00 0.0023256 681.93 805.82 2.3240 2.4112 3.0184 774.51 -0.0020697 69.104 0.096484
212.38 7774.9 undefined 684.35 809.01 2.3289 430.00 0.0023256 684.35 809.01 2.3289 2.4150 3.0204 775.84 -0.0020876 69.125 0.096627 430.00 0.0023256 684.35 809.01 2.3289 2.4150 3.0204 775.84 -0.0020876 69.125 0.096627
213.38 7823.2 undefined 686.76 812.20 2.3339 430.00 0.0023256 686.76 812.20 2.3339 2.4188 3.0225 777.17 -0.0021054 69.146 0.096771 430.00 0.0023256 686.76 812.20 2.3339 2.4188 3.0225 777.17 -0.0021054 69.146 0.096771
214.38 7871.5 undefined 689.19 815.40 2.3389 430.00 0.0023256 689.19 815.40 2.3389 2.4226 3.0246 778.49 -0.0021229 69.168 0.096915 430.00 0.0023256 689.19 815.40 2.3389 2.4226 3.0246 778.49 -0.0021229 69.168 0.096915
215.38 7919.8 undefined 691.61 818.60 2.3439 430.00 0.0023256 691.61 818.60 2.3439 2.4264 3.0266 779.81 -0.0021402 69.189 0.097059 430.00 0.0023256 691.61 818.60 2.3439 2.4264 3.0266 779.81 -0.0021402 69.189 0.097059
216.38 7968.0 undefined 694.04 821.80 2.3488 430.00 0.0023256 694.04 821.80 2.3488 2.4302 3.0287 781.13 -0.0021573 69.211 0.097204 430.00 0.0023256 694.04 821.80 2.3488 2.4302 3.0287 781.13 -0.0021573 69.211 0.097204
217.38 8016.3 undefined 696.47 825.01 2.3538 430.00 0.0023256 696.47 825.01 2.3538 2.4340 3.0308 782.44 -0.0021742 69.232 0.097349 430.00 0.0023256 696.47 825.01 2.3538 2.4340 3.0308 782.44 -0.0021742 69.232 0.097349
218.38 8064.5 undefined 698.91 828.21 2.3587 430.00 0.0023256 698.91 828.21 2.3587 2.4378 3.0330 783.75 -0.0021910 69.253 0.097494 430.00 0.0023256 698.91 828.21 2.3587 2.4378 3.0330 783.75 -0.0021910 69.253 0.097494
219.38 8112.7 undefined 701.35 831.43 2.3637 430.00 0.0023256 701.35 831.43 2.3637 2.4416 3.0351 785.06 -0.0022075 69.275 0.097639 430.00 0.0023256 701.35 831.43 2.3637 2.4416 3.0351 785.06 -0.0022075 69.275 0.097639
220.38 8160.9 undefined 703.79 834.64 2.3687 430.00 0.0023256 703.79 834.64 2.3687 2.4453 3.0372 786.36 -0.0022238 69.296 0.097785 430.00 0.0023256 703.79 834.64 2.3687 2.4453 3.0372 786.36 -0.0022238 69.296 0.097785
221.38 8209.1 undefined 706.24 837.86 2.3736 430.00 0.0023256 706.24 837.86 2.3736 2.4491 3.0394 787.66 -0.0022400 69.317 0.097931 430.00 0.0023256 706.24 837.86 2.3736 2.4491 3.0394 787.66 -0.0022400 69.317 0.097931
222.38 8257.3 undefined 708.69 841.09 2.3786 430.00 0.0023256 708.69 841.09 2.3786 2.4529 3.0415 788.95 -0.0022560 69.339 0.098077 430.00 0.0023256 708.69 841.09 2.3786 2.4529 3.0415 788.95 -0.0022560 69.339 0.098077
223.38 8305.4 undefined 711.14 844.31 2.3835 430.00 0.0023256 711.14 844.31 2.3835 2.4567 3.0437 790.24 -0.0022718 69.360 0.098224 430.00 0.0023256 711.14 844.31 2.3835 2.4567 3.0437 790.24 -0.0022718 69.360 0.098224
224.38 8353.6 undefined 713.60 847.54 2.3885 430.00 0.0023256 713.60 847.54 2.3885 2.4604 3.0458 791.53 -0.0022874 69.381 0.098371 430.00 0.0023256 713.60 847.54 2.3885 2.4604 3.0458 791.53 -0.0022874 69.381 0.098371
225.38 8401.7 undefined 716.06 850.78 2.3934 430.00 0.0023256 716.06 850.78 2.3934 2.4642 3.0480 792.82 -0.0023029 69.402 0.098518 430.00 0.0023256 716.06 850.78 2.3934 2.4642 3.0480 792.82 -0.0023029 69.402 0.098518
226.38 8449.8 undefined 718.53 854.02 2.3983 430.00 0.0023256 718.53 854.02 2.3983 2.4679 3.0502 794.10 -0.0023181 69.424 0.098666 430.00 0.0023256 718.53 854.02 2.3983 2.4679 3.0502 794.10 -0.0023181 69.424 0.098666
227.38 8497.9 undefined 721.00 857.26 2.4033 430.00 0.0023256 721.00 857.26 2.4033 2.4717 3.0524 795.38 -0.0023332 69.445 0.098814 430.00 0.0023256 721.00 857.26 2.4033 2.4717 3.0524 795.38 -0.0023332 69.445 0.098814
228.38 8545.9 undefined 723.47 860.50 2.4082 430.00 0.0023256 723.47 860.50 2.4082 2.4754 3.0546 796.65 -0.0023482 69.466 0.098962 430.00 0.0023256 723.47 860.50 2.4082 2.4754 3.0546 796.65 -0.0023482 69.466 0.098962
229.38 8594.0 undefined 725.95 863.75 2.4132 430.00 0.0023256 725.95 863.75 2.4132 2.4792 3.0568 797.93 -0.0023630 69.488 0.099110 430.00 0.0023256 725.95 863.75 2.4132 2.4792 3.0568 797.93 -0.0023630 69.488 0.099110
230.38 8642.0 undefined 728.43 867.00 2.4181 430.00 0.0023256 728.43 867.00 2.4181 2.4829 3.0590 799.20 -0.0023776 69.509 0.099259 430.00 0.0023256 728.43 867.00 2.4181 2.4829 3.0590 799.20 -0.0023776 69.509 0.099259
231.38 8690.1 undefined 730.92 870.25 2.4230 430.00 0.0023256 730.92 870.25 2.4230 2.4867 3.0612 800.46 -0.0023920 69.530 0.099408 430.00 0.0023256 730.92 870.25 2.4230 2.4867 3.0612 800.46 -0.0023920 69.530 0.099408
232.38 8738.1 undefined 733.40 873.51 2.4279 430.00 0.0023256 733.40 873.51 2.4279 2.4904 3.0634 801.72 -0.0024063 69.551 0.099557 430.00 0.0023256 733.40 873.51 2.4279 2.4904 3.0634 801.72 -0.0024063 69.551 0.099557
233.38 8786.1 undefined 735.90 876.77 2.4329 430.00 0.0023256 735.90 876.77 2.4329 2.4941 3.0657 802.98 -0.0024204 69.573 0.099706 430.00 0.0023256 735.90 876.77 2.4329 2.4941 3.0657 802.98 -0.0024204 69.573 0.099706
234.38 8834.0 undefined 738.39 880.04 2.4378 430.00 0.0023256 738.39 880.04 2.4378 2.4978 3.0679 804.24 -0.0024344 69.594 0.099856 430.00 0.0023256 738.39 880.04 2.4378 2.4978 3.0679 804.24 -0.0024344 69.594 0.099856
235.38 8882.0 undefined 740.89 883.31 2.4427 430.00 0.0023256 740.89 883.31 2.4427 2.5015 3.0702 805.49 -0.0024482 69.615 0.10001 430.00 0.0023256 740.89 883.31 2.4427 2.5015 3.0702 805.49 -0.0024482 69.615 0.10001
236.38 8929.9 undefined 743.40 886.58 2.4476 430.00 0.0023256 743.40 886.58 2.4476 2.5053 3.0724 806.74 -0.0024618 69.636 0.10016 430.00 0.0023256 743.40 886.58 2.4476 2.5053 3.0724 806.74 -0.0024618 69.636 0.10016
237.38 8977.9 undefined 745.90 889.86 2.4525 430.00 0.0023256 745.90 889.86 2.4525 2.5090 3.0747 807.99 -0.0024753 69.657 0.10031 430.00 0.0023256 745.90 889.86 2.4525 2.5090 3.0747 807.99 -0.0024753 69.657 0.10031
238.38 9025.8 undefined 748.41 893.14 2.4575 430.00 0.0023256 748.41 893.14 2.4575 2.5127 3.0769 809.23 -0.0024887 69.679 0.10046 430.00 0.0023256 748.41 893.14 2.4575 2.5127 3.0769 809.23 -0.0024887 69.679 0.10046
239.38 9073.7 undefined 750.93 896.42 2.4624 430.00 0.0023256 750.93 896.42 2.4624 2.5164 3.0792 810.47 -0.0025019 69.700 0.10061 430.00 0.0023256 750.93 896.42 2.4624 2.5164 3.0792 810.47 -0.0025019 69.700 0.10061
240.38 9121.5 undefined 753.45 899.70 2.4673 430.00 0.0023256 753.45 899.70 2.4673 2.5201 3.0815 811.71 -0.0025150 69.721 0.10076 430.00 0.0023256 753.45 899.70 2.4673 2.5201 3.0815 811.71 -0.0025150 69.721 0.10076
241.38 9169.4 undefined 755.97 902.99 2.4722 430.00 0.0023256 755.97 902.99 2.4722 2.5238 3.0838 812.95 -0.0025279 69.742 0.10091 430.00 0.0023256 755.97 902.99 2.4722 2.5238 3.0838 812.95 -0.0025279 69.742 0.10091
242.38 9217.2 undefined 758.49 906.29 2.4771 430.00 0.0023256 758.49 906.29 2.4771 2.5274 3.0861 814.18 -0.0025407 69.763 0.10107 430.00 0.0023256 758.49 906.29 2.4771 2.5274 3.0861 814.18 -0.0025407 69.763 0.10107
243.38 9265.1 undefined 761.02 909.58 2.4820 430.00 0.0023256 761.02 909.58 2.4820 2.5311 3.0884 815.41 -0.0025533 69.785 0.10122 430.00 0.0023256 761.02 909.58 2.4820 2.5311 3.0884 815.41 -0.0025533 69.785 0.10122
244.38 9312.9 undefined 763.56 912.88 2.4869 430.00 0.0023256 763.56 912.88 2.4869 2.5348 3.0907 816.63 -0.0025658 69.806 0.10137 430.00 0.0023256 763.56 912.88 2.4869 2.5348 3.0907 816.63 -0.0025658 69.806 0.10137
245.38 9360.7 undefined 766.09 916.18 2.4918 430.00 0.0023256 766.09 916.18 2.4918 2.5385 3.0930 817.86 -0.0025782 69.827 0.10152 430.00 0.0023256 766.09 916.18 2.4918 2.5385 3.0930 817.86 -0.0025782 69.827 0.10152
246.38 9408.4 undefined 768.63 919.49 2.4967 430.00 0.0023256 768.63 919.49 2.4967 2.5421 3.0953 819.08 -0.0025904 69.848 0.10168 430.00 0.0023256 768.63 919.49 2.4967 2.5421 3.0953 819.08 -0.0025904 69.848 0.10168
247.38 9456.2 undefined 771.18 922.80 2.5016 430.00 0.0023256 771.18 922.80 2.5016 2.5458 3.0976 820.29 -0.0026025 69.869 0.10183 430.00 0.0023256 771.18 922.80 2.5016 2.5458 3.0976 820.29 -0.0026025 69.869 0.10183
248.38 9503.9 undefined 773.72 926.11 2.5065 430.00 0.0023256 773.72 926.11 2.5065 2.5495 3.0999 821.51 -0.0026145 69.890 0.10198 430.00 0.0023256 773.72 926.11 2.5065 2.5495 3.0999 821.51 -0.0026145 69.890 0.10198
249.38 9551.7 undefined 776.28 929.43 2.5114 430.00 0.0023256 776.28 929.43 2.5114 2.5531 3.1023 822.72 -0.0026264 69.911 0.10214 430.00 0.0023256 776.28 929.43 2.5114 2.5531 3.1023 822.72 -0.0026264 69.911 0.10214
250.38 9599.4 undefined 778.83 932.75 2.5162 430.00 0.0023256 778.83 932.75 2.5162 2.5568 3.1046 823.93 -0.0026381 69.932 0.10229 430.00 0.0023256 778.83 932.75 2.5162 2.5568 3.1046 823.93 -0.0026381 69.932 0.10229
251.38 9647.1 undefined 781.39 936.07 2.5211 430.00 0.0023256 781.39 936.07 2.5211 2.5604 3.1069 825.13 -0.0026497 69.954 0.10245 430.00 0.0023256 781.39 936.07 2.5211 2.5604 3.1069 825.13 -0.0026497 69.954 0.10245
252.38 9694.7 undefined 783.95 939.40 2.5260 430.00 0.0023256 783.95 939.40 2.5260 2.5641 3.1093 826.34 -0.0026611 69.975 0.10260 430.00 0.0023256 783.95 939.40 2.5260 2.5641 3.1093 826.34 -0.0026611 69.975 0.10260
253.38 9742.4 undefined 786.52 942.73 2.5309 430.00 0.0023256 786.52 942.73 2.5309 2.5677 3.1116 827.54 -0.0026725 69.996 0.10276 430.00 0.0023256 786.52 942.73 2.5309 2.5677 3.1116 827.54 -0.0026725 69.996 0.10276
254.38 9790.0 undefined 789.09 946.06 2.5358 430.00 0.0023256 789.09 946.06 2.5358 2.5713 3.1140 828.73 -0.0026837 70.017 0.10291 430.00 0.0023256 789.09 946.06 2.5358 2.5713 3.1140 828.73 -0.0026837 70.017 0.10291
255.38 9837.7 undefined 791.66 949.40 2.5406 430.00 0.0023256 791.66 949.40 2.5406 2.5750 3.1163 829.93 -0.0026948 70.038 0.10307 430.00 0.0023256 791.66 949.40 2.5406 2.5750 3.1163 829.93 -0.0026948 70.038 0.10307
256.38 9885.3 undefined 794.24 952.74 2.5455 430.00 0.0023256 794.24 952.74 2.5455 2.5786 3.1187 831.12 -0.0027058 70.059 0.10323 430.00 0.0023256 794.24 952.74 2.5455 2.5786 3.1187 831.12 -0.0027058 70.059 0.10323
257.38 9932.9 undefined 796.82 956.08 2.5504 430.00 0.0023256 796.82 956.08 2.5504 2.5822 3.1210 832.31 -0.0027166 70.080 0.10338 430.00 0.0023256 796.82 956.08 2.5504 2.5822 3.1210 832.31 -0.0027166 70.080 0.10338
258.38 9980.4 undefined 799.40 959.43 2.5552 430.00 0.0023256 799.40 959.43 2.5552 2.5858 3.1234 833.50 -0.0027274 70.101 0.10354 430.00 0.0023256 799.40 959.43 2.5552 2.5858 3.1234 833.50 -0.0027274 70.101 0.10354
259.38 10028. undefined 801.99 962.78 2.5601 430.00 0.0023256 801.99 962.78 2.5601 2.5894 3.1258 834.68 -0.0027380 70.122 0.10370 430.00 0.0023256 801.99 962.78 2.5601 2.5894 3.1258 834.68 -0.0027380 70.122 0.10370
260.38 10076. undefined 804.58 966.13 2.5650 430.00 0.0023256 804.58 966.13 2.5650 2.5930 3.1281 835.86 -0.0027485 70.143 0.10385 430.00 0.0023256 804.58 966.13 2.5650 2.5930 3.1281 835.86 -0.0027485 70.143 0.10385
261.38 10123. undefined 807.17 969.49 2.5698 430.00 0.0023256 807.17 969.49 2.5698 2.5966 3.1305 837.04 -0.0027589 70.164 0.10401 430.00 0.0023256 807.17 969.49 2.5698 2.5966 3.1305 837.04 -0.0027589 70.164 0.10401
262.38 10171. undefined 809.77 972.85 2.5747 430.00 0.0023256 809.77 972.85 2.5747 2.6002 3.1329 838.22 -0.0027692 70.185 0.10417 430.00 0.0023256 809.77 972.85 2.5747 2.6002 3.1329 838.22 -0.0027692 70.185 0.10417
263.38 10218. undefined 812.38 976.22 2.5795 430.00 0.0023256 812.38 976.22 2.5795 2.6038 3.1353 839.39 -0.0027794 70.206 0.10433 430.00 0.0023256 812.38 976.22 2.5795 2.6038 3.1353 839.39 -0.0027794 70.206 0.10433
264.38 10266. undefined 814.98 979.58 2.5844 430.00 0.0023256 814.98 979.58 2.5844 2.6074 3.1377 840.56 -0.0027895 70.227 0.10449 430.00 0.0023256 814.98 979.58 2.5844 2.6074 3.1377 840.56 -0.0027895 70.227 0.10449
265.38 10313. undefined 817.59 982.95 2.5892 430.00 0.0023256 817.59 982.95 2.5892 2.6110 3.1401 841.73 -0.0027994 70.248 0.10465 430.00 0.0023256 817.59 982.95 2.5892 2.6110 3.1401 841.73 -0.0027994 70.248 0.10465
266.38 10360. undefined 820.20 986.33 2.5941 430.00 0.0023256 820.20 986.33 2.5941 2.6146 3.1425 842.90 -0.0028093 70.269 0.10481 430.00 0.0023256 820.20 986.33 2.5941 2.6146 3.1425 842.90 -0.0028093 70.269 0.10481
267.38 10408. undefined 822.82 989.70 2.5989 430.00 0.0023256 822.82 989.70 2.5989 2.6182 3.1449 844.06 -0.0028191 70.290 0.10497 430.00 0.0023256 822.82 989.70 2.5989 2.6182 3.1449 844.06 -0.0028191 70.290 0.10497
268.38 10455. undefined 825.44 993.08 2.6038 430.00 0.0023256 825.44 993.08 2.6038 2.6217 3.1473 845.22 -0.0028287 70.311 0.10513 430.00 0.0023256 825.44 993.08 2.6038 2.6217 3.1473 845.22 -0.0028287 70.311 0.10513
269.38 10503. undefined 828.06 996.47 2.6086 430.00 0.0023256 828.06 996.47 2.6086 2.6253 3.1497 846.38 -0.0028383 70.332 0.10529 430.00 0.0023256 828.06 996.47 2.6086 2.6253 3.1497 846.38 -0.0028383 70.332 0.10529
270.38 10550. undefined 830.69 999.85 2.6134 430.00 0.0023256 830.69 999.85 2.6134 2.6289 3.1521 847.54 -0.0028477 70.353 0.10545 430.00 0.0023256 830.69 999.85 2.6134 2.6289 3.1521 847.54 -0.0028477 70.353 0.10545
271.38 10597. undefined 833.32 1003.2 2.6183 430.00 0.0023256 833.32 1003.2 2.6183 2.6324 3.1545 848.69 -0.0028571 70.374 0.10561 430.00 0.0023256 833.32 1003.2 2.6183 2.6324 3.1545 848.69 -0.0028571 70.374 0.10561
272.38 10645. undefined 835.95 1006.6 2.6231 430.00 0.0023256 835.95 1006.6 2.6231 2.6360 3.1569 849.84 -0.0028663 70.394 0.10577 430.00 0.0023256 835.95 1006.6 2.6231 2.6360 3.1569 849.84 -0.0028663 70.394 0.10577
273.38 10692. undefined 838.59 1010.0 2.6279 430.00 0.0023256 838.59 1010.0 2.6279 2.6395 3.1593 850.99 -0.0028755 70.415 0.10593 430.00 0.0023256 838.59 1010.0 2.6279 2.6395 3.1593 850.99 -0.0028755 70.415 0.10593
274.38 10739. undefined 841.23 1013.4 2.6328 430.00 0.0023256 841.23 1013.4 2.6328 2.6431 3.1617 852.14 -0.0028845 70.436 0.10609 430.00 0.0023256 841.23 1013.4 2.6328 2.6431 3.1617 852.14 -0.0028845 70.436 0.10609
275.38 10787. undefined 843.88 1016.8 2.6376 430.00 0.0023256 843.88 1016.8 2.6376 2.6466 3.1642 853.28 -0.0028935 70.457 0.10625 430.00 0.0023256 843.88 1016.8 2.6376 2.6466 3.1642 853.28 -0.0028935 70.457 0.10625
276.38 10834. undefined 846.53 1020.2 2.6424 430.00 0.0023256 846.53 1020.2 2.6424 2.6501 3.1666 854.42 -0.0029024 70.478 0.10641 430.00 0.0023256 846.53 1020.2 2.6424 2.6501 3.1666 854.42 -0.0029024 70.478 0.10641
277.38 10881. undefined 849.18 1023.7 2.6472 430.00 0.0023256 849.18 1023.7 2.6472 2.6537 3.1690 855.56 -0.0029112 70.499 0.10658 430.00 0.0023256 849.18 1023.7 2.6472 2.6537 3.1690 855.56 -0.0029112 70.499 0.10658
278.38 10928. undefined 851.83 1027.1 2.6521 430.00 0.0023256 851.83 1027.1 2.6521 2.6572 3.1714 856.70 -0.0029199 70.520 0.10674 430.00 0.0023256 851.83 1027.1 2.6521 2.6572 3.1714 856.70 -0.0029199 70.520 0.10674
279.38 10976. undefined 854.49 1030.5 2.6569 430.00 0.0023256 854.49 1030.5 2.6569 2.6607 3.1739 857.83 -0.0029285 70.540 0.10690 430.00 0.0023256 854.49 1030.5 2.6569 2.6607 3.1739 857.83 -0.0029285 70.540 0.10690
280.38 11023. undefined 857.16 1033.9 2.6617 430.00 0.0023256 857.16 1033.9 2.6617 2.6642 3.1763 858.96 -0.0029370 70.561 0.10707 430.00 0.0023256 857.16 1033.9 2.6617 2.6642 3.1763 858.96 -0.0029370 70.561 0.10707
281.38 11070. undefined 859.82 1037.3 2.6665 430.00 0.0023256 859.82 1037.3 2.6665 2.6677 3.1787 860.09 -0.0029454 70.582 0.10723 430.00 0.0023256 859.82 1037.3 2.6665 2.6677 3.1787 860.09 -0.0029454 70.582 0.10723
282.38 11117. undefined 862.49 1040.7 2.6713 430.00 0.0023256 862.49 1040.7 2.6713 2.6712 3.1812 861.22 -0.0029537 70.603 0.10698 430.00 0.0023256 862.49 1040.7 2.6713 2.6712 3.1812 861.22 -0.0029537 70.603 0.10698
283.38 11164. undefined 865.16 1044.2 2.6761 430.00 0.0023256 865.16 1044.2 2.6761 2.6747 3.1836 862.35 -0.0029620 70.624 0.10715 430.00 0.0023256 865.16 1044.2 2.6761 2.6747 3.1836 862.35 -0.0029620 70.624 0.10715
284.38 11211. undefined 867.84 1047.6 2.6809 430.00 0.0023256 867.84 1047.6 2.6809 2.6782 3.1861 863.47 -0.0029701 70.644 0.10731 430.00 0.0023256 867.84 1047.6 2.6809 2.6782 3.1861 863.47 -0.0029701 70.644 0.10731
285.38 11259. undefined 870.52 1051.0 2.6857 430.00 0.0023256 870.52 1051.0 2.6857 2.6817 3.1885 864.59 -0.0029782 70.665 0.10747 430.00 0.0023256 870.52 1051.0 2.6857 2.6817 3.1885 864.59 -0.0029782 70.665 0.10747
286.38 11306. undefined 873.20 1054.5 2.6905 430.00 0.0023256 873.20 1054.5 2.6905 2.6852 3.1910 865.71 -0.0029862 70.686 0.10764 430.00 0.0023256 873.20 1054.5 2.6905 2.6852 3.1910 865.71 -0.0029862 70.686 0.10764
287.38 11353. undefined 875.89 1057.9 2.6953 430.00 0.0023256 875.89 1057.9 2.6953 2.6887 3.1934 866.82 -0.0029941 70.707 0.10780 430.00 0.0023256 875.89 1057.9 2.6953 2.6887 3.1934 866.82 -0.0029941 70.707 0.10780
288.38 11400. undefined 878.58 1061.4 2.7001 430.00 0.0023256 878.58 1061.4 2.7001 2.6922 3.1959 867.94 -0.0030019 70.727 0.10797 430.00 0.0023256 878.58 1061.4 2.7001 2.6922 3.1959 867.94 -0.0030019 70.727 0.10797
289.38 11447. undefined 881.28 1064.8 2.7049 430.00 0.0023256 881.28 1064.8 2.7049 2.6957 3.1983 869.05 -0.0030096 70.748 0.10813 430.00 0.0023256 881.28 1064.8 2.7049 2.6957 3.1983 869.05 -0.0030096 70.748 0.10813
290.38 11494. undefined 883.97 1068.3 2.7097 430.00 0.0023256 883.97 1068.3 2.7097 2.6991 3.2008 870.16 -0.0030173 70.769 0.10830 430.00 0.0023256 883.97 1068.3 2.7097 2.6991 3.2008 870.16 -0.0030173 70.769 0.10830
291.38 11541. undefined 886.67 1071.7 2.7145 430.00 0.0023256 886.67 1071.7 2.7145 2.7026 3.2032 871.26 -0.0030249 70.789 0.10846 430.00 0.0023256 886.67 1071.7 2.7145 2.7026 3.2032 871.26 -0.0030249 70.789 0.10846
292.38 11588. undefined 889.38 1075.2 2.7193 430.00 0.0023256 889.38 1075.2 2.7193 2.7061 3.2057 872.37 -0.0030324 70.810 0.10863 430.00 0.0023256 889.38 1075.2 2.7193 2.7061 3.2057 872.37 -0.0030324 70.810 0.10863
293.38 11635. undefined 892.09 1078.6 2.7241 430.00 0.0023256 892.09 1078.6 2.7241 2.7095 3.2081 873.47 -0.0030398 70.831 0.10880 430.00 0.0023256 892.09 1078.6 2.7241 2.7095 3.2081 873.47 -0.0030398 70.831 0.10880
294.38 11682. undefined 894.80 1082.1 2.7288 430.00 0.0023256 894.80 1082.1 2.7288 2.7130 3.2106 874.57 -0.0030472 70.851 0.10896 430.00 0.0023256 894.80 1082.1 2.7288 2.7130 3.2106 874.57 -0.0030472 70.851 0.10896
295.38 11729. undefined 897.51 1085.6 2.7336 430.00 0.0023256 897.51 1085.6 2.7336 2.7164 3.2131 875.67 -0.0030544 70.872 0.10913 430.00 0.0023256 897.51 1085.6 2.7336 2.7164 3.2131 875.67 -0.0030544 70.872 0.10913
296.38 11776. undefined 900.23 1089.0 2.7384 430.00 0.0023256 900.23 1089.0 2.7384 2.7199 3.2155 876.77 -0.0030616 70.893 0.10930 430.00 0.0023256 900.23 1089.0 2.7384 2.7199 3.2155 876.77 -0.0030616 70.893 0.10930
297.38 11823. undefined 902.95 1092.5 2.7432 430.00 0.0023256 902.95 1092.5 2.7432 2.7233 3.2180 877.86 -0.0030688 70.913 0.10946 430.00 0.0023256 902.95 1092.5 2.7432 2.7233 3.2180 877.86 -0.0030688 70.913 0.10946
298.38 11869. undefined 905.68 1096.0 2.7479 430.00 0.0023256 905.68 1096.0 2.7479 2.7267 3.2205 878.95 -0.0030758 70.934 0.10963 430.00 0.0023256 905.68 1096.0 2.7479 2.7267 3.2205 878.95 -0.0030758 70.934 0.10963
299.38 11916. undefined 908.40 1099.5 2.7527 430.00 0.0023256 908.40 1099.5 2.7527 2.7302 3.2229 880.04 -0.0030828 70.954 0.10980 430.00 0.0023256 908.40 1099.5 2.7527 2.7302 3.2229 880.04 -0.0030828 70.954 0.10980
300.38 11963. undefined 911.14 1103.0 2.7575 430.00 0.0023256 911.14 1103.0 2.7575 2.7336 3.2254 881.13 -0.0030897 70.975 0.10997 430.00 0.0023256 911.14 1103.0 2.7575 2.7336 3.2254 881.13 -0.0030897 70.975 0.10997