Temperature (C) Pressure (psia) Quality (l+v) Internal Energy (l+v, kJ/kg) Enthalpy (l+v, kJ/kg) Entropy (l+v, J/g*K) Density (l, kg/m3) Volume (l, m3/kg) Internal Energy (l, kJ/kg) Enthalpy (l, kJ/kg) Entropy (l, J/g*K) Cv (l, J/g*K) Cp (l, J/g*K) Sound Spd. (l, m/s) Joule-Thomson (l, F/psia) Viscosity (l, uPa*s) Therm. Cond. (l, W/m*K) Density (v, kg/m3) Volume (v, m3/kg) Internal Energy (v, kJ/kg) Enthalpy (v, kJ/kg) Entropy (v, J/g*K) Cv (v, J/g*K) Cp (v, J/g*K) Sound Spd. (v, m/s) Joule-Thomson (v, F/psia) Viscosity (v, uPa*s) Therm. Cond. (v, W/m*K)
-187.62 2.4953e-08 9.9734e-12 -196.64 -196.64 -1.3959 733.13 0.0013640 -196.64 -196.64 -1.3959 1.3553 1.9158 2136.4 -0.0077592 10960. 0.20792 1.0669e-08 9.3732e+07 350.13 366.26 5.1858 0.69067 0.87923 143.28 6.1051 2.3259 0.0017061
-186.62 3.7339e-08 1.4721e-11 -194.73 -194.73 -1.3736 732.08 0.0013660 -194.73 -194.73 -1.3736 1.3539 1.9166 2129.6 -0.0077546 10073. 0.20765 1.5780e-08 6.3371e+07 350.82 367.14 5.1200 0.69462 0.88317 144.03 5.9178 2.3534 0.0017533
-185.62 5.5322e-08 2.1516e-11 -192.81 -192.81 -1.3516 731.04 0.0013679 -192.81 -192.81 -1.3516 1.3525 1.9174 2122.9 -0.0077498 9276.1 0.20737 2.3112e-08 4.3267e+07 351.52 368.02 5.0561 0.69857 0.88713 144.77 5.7383 2.3808 0.0018007
-184.62 8.1182e-08 3.1152e-11 -190.89 -190.89 -1.3298 730.00 0.0013699 -190.89 -190.89 -1.3298 1.3513 1.9182 2116.1 -0.0077448 8557.8 0.20708 3.3533e-08 2.9821e+07 352.22 368.91 4.9939 0.70253 0.89108 145.51 5.5662 2.4083 0.0018485
-183.62 1.1803e-07 4.4693e-11 -188.97 -188.97 -1.3083 728.96 0.0013718 -188.97 -188.97 -1.3083 1.3501 1.9191 2109.3 -0.0077395 7909.8 0.20678 4.8211e-08 2.0742e+07 352.92 369.81 4.9333 0.70648 0.89504 146.24 5.4011 2.4357 0.0018965
-182.62 1.7009e-07 6.3556e-11 -187.05 -187.05 -1.2869 727.92 0.0013738 -187.05 -187.05 -1.2869 1.3490 1.9201 2102.5 -0.0077340 7324.3 0.20647 6.8704e-08 1.4555e+07 353.63 370.70 4.8744 0.71043 0.89899 146.97 5.2426 2.4632 0.0019448
-181.62 2.4299e-07 8.9615e-11 -185.13 -185.13 -1.2658 726.88 0.0013757 -185.13 -185.13 -1.2658 1.3480 1.9210 2095.7 -0.0077283 6794.5 0.20616 9.7079e-08 1.0301e+07 354.35 371.60 4.8170 0.71438 0.90294 147.69 5.0904 2.4906 0.0019934
-180.62 3.4425e-07 1.2532e-10 -183.21 -183.21 -1.2450 725.85 0.0013777 -183.21 -183.21 -1.2450 1.3470 1.9220 2088.9 -0.0077225 6314.4 0.20584 1.3605e-07 7.3504e+06 355.06 372.51 4.7612 0.71833 0.90688 148.41 4.9442 2.5181 0.0020423
-179.62 4.8378e-07 1.7386e-10 -181.29 -181.29 -1.2243 724.81 0.0013797 -181.29 -181.29 -1.2243 1.3461 1.9231 2082.0 -0.0077164 5878.8 0.20551 1.8915e-07 5.2868e+06 355.78 373.42 4.7068 0.72227 0.91082 149.13 4.8038 2.5456 0.0020915
-178.62 6.7459e-07 2.3936e-10 -179.37 -179.37 -1.2038 723.78 0.0013816 -179.37 -179.37 -1.2038 1.3453 1.9241 2075.2 -0.0077102 5482.9 0.20517 2.6096e-07 3.8320e+06 356.51 374.33 4.6538 0.72620 0.91475 149.84 4.6688 2.5731 0.0021410
-177.62 9.3358e-07 3.2708e-10 -177.44 -177.44 -1.1836 722.75 0.0013836 -177.44 -177.44 -1.1836 1.3445 1.9252 2068.4 -0.0077039 5122.6 0.20483 3.5737e-07 2.7982e+06 357.23 375.25 4.6022 0.73012 0.91867 150.54 4.5390 2.6005 0.0021907
-176.62 1.2826e-06 4.4374e-10 -175.52 -175.52 -1.1635 721.72 0.0013856 -175.52 -175.52 -1.1635 1.3437 1.9263 2061.5 -0.0076973 4794.1 0.20447 4.8588e-07 2.0581e+06 357.97 376.17 4.5519 0.73403 0.92258 151.25 4.4142 2.6280 0.0022408
-175.62 1.7496e-06 5.9782e-10 -173.59 -173.59 -1.1437 720.69 0.0013876 -173.59 -173.59 -1.1437 1.3430 1.9274 2054.7 -0.0076907 4494.3 0.20411 6.5601e-07 1.5244e+06 358.70 377.09 4.5029 0.73792 0.92648 151.95 4.2941 2.6555 0.0022912
-174.62 2.3705e-06 7.9998e-10 -171.66 -171.66 -1.1240 719.66 0.0013895 -171.66 -171.66 -1.1240 1.3423 1.9286 2047.9 -0.0076838 4220.2 0.20375 8.7976e-07 1.1367e+06 359.44 378.02 4.4551 0.74181 0.93036 152.64 4.1784 2.6830 0.0023418
-173.62 3.1903e-06 1.0635e-09 -169.73 -169.73 -1.1045 718.64 0.0013915 -169.73 -169.73 -1.1045 1.3417 1.9298 2041.0 -0.0076769 3969.3 0.20338 1.1721e-06 8.5314e+05 360.19 378.95 4.4085 0.74568 0.93423 153.33 4.0671 2.7105 0.0023928
-172.62 4.2661e-06 1.4049e-09 -167.80 -167.80 -1.0852 717.61 0.0013935 -167.80 -167.80 -1.0852 1.3411 1.9310 2034.2 -0.0076698 3739.3 0.20300 1.5518e-06 6.4441e+05 360.93 379.89 4.3631 0.74953 0.93809 154.02 3.9599 2.7379 0.0024440
-171.62 5.6692e-06 1.8445e-09 -165.87 -165.87 -1.0661 716.58 0.0013955 -165.87 -165.87 -1.0661 1.3405 1.9322 2027.3 -0.0076625 3528.0 0.20261 2.0419e-06 4.8974e+05 361.69 380.83 4.3188 0.75337 0.94193 154.71 3.8566 2.7654 0.0024955
-170.62 7.4884e-06 2.4073e-09 -163.94 -163.94 -1.0472 715.56 0.0013975 -163.94 -163.94 -1.0472 1.3400 1.9334 2020.5 -0.0076552 3333.8 0.20222 2.6708e-06 3.7442e+05 362.44 381.77 4.2755 0.75720 0.94575 155.39 3.7570 2.7929 0.0025473
-169.62 9.8334e-06 3.1237e-09 -162.00 -162.00 -1.0284 714.54 0.0013995 -162.00 -162.00 -1.0284 1.3395 1.9347 2013.6 -0.0076477 3154.9 0.20182 3.4733e-06 2.8791e+05 363.20 382.72 4.2334 0.76100 0.94956 156.07 3.6609 2.8204 0.0025994
-168.62 1.2839e-05 4.0305e-09 -160.07 -160.07 -1.0098 713.52 0.0014015 -160.07 -160.07 -1.0098 1.3390 1.9359 2006.8 -0.0076401 2989.9 0.20141 4.4917e-06 2.2263e+05 363.96 383.67 4.1922 0.76479 0.95335 156.74 3.5683 2.8479 0.0026518
-167.62 1.6672e-05 5.1725e-09 -158.13 -158.13 -0.99134 712.49 0.0014035 -158.13 -158.13 -0.99134 1.3386 1.9372 2000.0 -0.0076323 2837.5 0.20100 5.7771e-06 1.7310e+05 364.73 384.63 4.1521 0.76856 0.95712 157.41 3.4790 2.8754 0.0027045
-166.62 2.1533e-05 6.6029e-09 -156.19 -156.19 -0.97306 711.47 0.0014055 -156.19 -156.19 -0.97306 1.3382 1.9385 1993.1 -0.0076245 2696.5 0.20058 7.3914e-06 1.3529e+05 365.50 385.59 4.1129 0.77232 0.96087 158.08 3.3927 2.9029 0.0027575
-165.62 2.7666e-05 8.3857e-09 -154.25 -154.25 -0.95494 710.45 0.0014075 -154.25 -154.25 -0.95494 1.3378 1.9398 1986.3 -0.0076165 2566.0 0.20016 9.4084e-06 1.0629e+05 366.27 386.55 4.0746 0.77605 0.96460 158.75 3.3095 2.9304 0.0028108
-164.62 3.5367e-05 1.0597e-08 -152.31 -152.31 -0.93698 709.44 0.0014096 -152.31 -152.31 -0.93698 1.3375 1.9411 1979.4 -0.0076084 2444.9 0.19973 1.1916e-05 83918. 367.05 387.52 4.0372 0.77976 0.96832 159.41 3.2291 2.9579 0.0028643
-163.62 4.4989e-05 1.3327e-08 -150.37 -150.37 -0.91917 708.42 0.0014116 -150.37 -150.37 -0.91917 1.3371 1.9424 1972.6 -0.0076002 2332.3 0.19930 1.5020e-05 66577. 367.83 388.49 4.0008 0.78346 0.97201 160.07 3.1514 2.9854 0.0029182
-162.62 5.6956e-05 1.6681e-08 -148.43 -148.43 -0.90151 707.40 0.0014136 -148.43 -148.43 -0.90151 1.3368 1.9437 1965.8 -0.0075919 2227.7 0.19886 1.8844e-05 53068. 368.62 389.46 3.9651 0.78713 0.97569 160.72 3.0764 3.0129 0.0029723
-161.62 7.1773e-05 2.0784e-08 -146.48 -146.48 -0.88400 706.38 0.0014157 -146.48 -146.48 -0.88400 1.3365 1.9451 1959.0 -0.0075834 2130.2 0.19841 2.3533e-05 42494. 369.41 390.44 3.9304 0.79079 0.97935 161.38 3.0038 3.0404 0.0030268
-160.62 9.0036e-05 2.5781e-08 -144.54 -144.54 -0.86663 705.37 0.0014177 -144.54 -144.54 -0.86663 1.3363 1.9465 1952.1 -0.0075748 2039.2 0.19796 2.9258e-05 34178. 370.20 391.42 3.8964 0.79443 0.98298 162.03 2.9337 3.0679 0.0030815
-159.62 0.00011245 3.1842e-08 -142.59 -142.59 -0.84940 704.35 0.0014197 -142.59 -142.59 -0.84940 1.3360 1.9478 1945.3 -0.0075661 1954.2 0.19751 3.6221e-05 27609. 371.00 392.40 3.8632 0.79805 0.98660 162.68 2.8658 3.0955 0.0031365
-158.62 0.00013985 3.9163e-08 -140.64 -140.64 -0.83231 703.34 0.0014218 -140.64 -140.64 -0.83231 1.3358 1.9492 1938.5 -0.0075573 1874.8 0.19705 4.4652e-05 22395. 371.80 393.39 3.8307 0.80164 0.99020 163.32 2.8002 3.1230 0.0031918
-157.62 0.00017320 4.7969e-08 -138.69 -138.69 -0.81536 702.32 0.0014238 -138.69 -138.69 -0.81536 1.3356 1.9506 1931.7 -0.0075484 1800.3 0.19658 5.4822e-05 18241. 372.60 394.38 3.7990 0.80522 0.99378 163.96 2.7367 3.1505 0.0032474
-156.62 0.00021364 5.8523e-08 -136.74 -136.74 -0.79854 701.31 0.0014259 -136.74 -136.74 -0.79854 1.3354 1.9520 1924.9 -0.0075393 1730.5 0.19611 6.7040e-05 14916. 373.41 395.38 3.7680 0.80878 0.99734 164.60 2.6752 3.1780 0.0033033
-155.62 0.00026248 7.1122e-08 -134.79 -134.79 -0.78185 700.30 0.0014280 -134.79 -134.79 -0.78185 1.3352 1.9534 1918.1 -0.0075302 1664.9 0.19564 8.1666e-05 12245. 374.22 396.38 3.7377 0.81232 1.0009 165.24 2.6157 3.2055 0.0033595
-154.62 0.00032125 8.6108e-08 -132.83 -132.83 -0.76530 699.29 0.0014300 -132.83 -132.83 -0.76530 1.3350 1.9548 1911.3 -0.0075209 1603.3 0.19516 9.9109e-05 10090. 375.03 397.38 3.7081 0.81585 1.0044 165.87 2.5580 3.2330 0.0034160
-153.62 0.00039171 1.0387e-07 -130.88 -130.88 -0.74887 698.27 0.0014321 -130.88 -130.88 -0.74887 1.3349 1.9563 1904.5 -0.0075114 1545.3 0.19468 0.00011984 8344.6 375.85 398.39 3.6792 0.81935 1.0079 166.50 2.5022 3.2606 0.0034727
-152.62 0.00047590 1.2485e-07 -128.92 -128.92 -0.73256 697.26 0.0014342 -128.92 -128.92 -0.73256 1.3348 1.9577 1897.8 -0.0075019 1490.6 0.19419 0.00014439 6925.9 376.67 399.40 3.6509 0.82284 1.0114 167.13 2.4481 3.2881 0.0035298
-151.62 0.00057613 1.4954e-07 -126.96 -126.96 -0.71638 696.25 0.0014363 -126.96 -126.96 -0.71638 1.3346 1.9592 1891.0 -0.0074922 1438.9 0.19370 0.00017336 5768.4 377.49 400.41 3.6232 0.82631 1.0149 167.76 2.3957 3.3156 0.0035872
-150.62 0.00069507 1.7850e-07 -125.00 -125.00 -0.70032 695.24 0.0014384 -125.00 -125.00 -0.70032 1.3345 1.9606 1884.2 -0.0074824 1390.2 0.19320 0.00020744 4820.7 378.32 401.42 3.5962 0.82976 1.0183 168.38 2.3448 3.3431 0.0036448
-149.62 0.00083574 2.1237e-07 -123.04 -123.04 -0.68437 694.23 0.0014404 -123.04 -123.04 -0.68438 1.3345 1.9621 1877.4 -0.0074724 1344.0 0.19270 0.00024740 4042.0 379.15 402.44 3.5697 0.83319 1.0218 169.00 2.2956 3.3706 0.0037027
-148.62 0.0010016 2.5185e-07 -121.08 -121.08 -0.66855 693.22 0.0014425 -121.08 -121.08 -0.66855 1.3344 1.9636 1870.7 -0.0074623 1300.3 0.19220 0.00029412 3400.0 379.99 403.47 3.5438 0.83661 1.0252 169.62 2.2478 3.3982 0.0037610
-147.62 0.0011965 2.9774e-07 -119.11 -119.11 -0.65284 692.21 0.0014447 -119.11 -119.11 -0.65284 1.3343 1.9651 1863.9 -0.0074521 1258.9 0.19169 0.00034856 2869.0 380.83 404.49 3.5185 0.84001 1.0286 170.24 2.2014 3.4257 0.0038195
-146.62 0.0014249 3.5090e-07 -117.15 -117.15 -0.63724 691.20 0.0014468 -117.15 -117.15 -0.63724 1.3343 1.9666 1857.2 -0.0074417 1219.6 0.19117 0.00041181 2428.3 381.67 405.52 3.4938 0.84340 1.0320 170.85 2.1565 3.4532 0.0038783
-145.62 0.0016917 4.1232e-07 -115.18 -115.18 -0.62175 690.19 0.0014489 -115.18 -115.18 -0.62175 1.3343 1.9682 1850.4 -0.0074312 1182.3 0.19066 0.00048510 2061.4 382.51 406.56 3.4695 0.84677 1.0353 171.46 2.1128 3.4807 0.0039374
-144.62 0.0020026 4.8307e-07 -113.21 -113.21 -0.60637 689.18 0.0014510 -113.21 -113.21 -0.60637 1.3343 1.9697 1843.7 -0.0074206 1146.8 0.19014 0.00056976 1755.1 383.36 407.59 3.4458 0.85012 1.0387 172.07 2.0705 3.5082 0.0039967
-143.62 0.0023637 5.6435e-07 -111.24 -111.24 -0.59110 688.17 0.0014531 -111.24 -111.24 -0.59110 1.3343 1.9713 1836.9 -0.0074098 1113.0 0.18962 0.00066731 1498.6 384.21 408.63 3.4226 0.85346 1.0420 172.68 2.0294 3.5358 0.0040564
-142.62 0.0027820 6.5748e-07 -109.27 -109.27 -0.57593 687.16 0.0014553 -109.27 -109.27 -0.57593 1.3343 1.9728 1830.2 -0.0073988 1080.8 0.18909 0.00077939 1283.1 385.07 409.68 3.3999 0.85679 1.0454 173.28 1.9896 3.5633 0.0041164
-141.62 0.0032653 7.6389e-07 -107.30 -107.30 -0.56087 686.15 0.0014574 -107.30 -107.30 -0.56087 1.3343 1.9744 1823.5 -0.0073878 1050.1 0.18856 0.00090784 1101.5 385.93 410.72 3.3777 0.86011 1.0487 173.88 1.9508 3.5908 0.0041766
-140.62 0.0038222 8.8518e-07 -105.32 -105.32 -0.54590 685.14 0.0014596 -105.32 -105.32 -0.54591 1.3344 1.9760 1816.7 -0.0073765 1020.7 0.18803 0.0010547 948.16 386.79 411.77 3.3560 0.86341 1.0520 174.48 1.9133 3.6183 0.0042372
-139.62 0.0044623 1.0231e-06 -103.34 -103.34 -0.53104 684.13 0.0014617 -103.34 -103.34 -0.53105 1.3344 1.9776 1810.0 -0.0073651 992.74 0.18749 0.0012221 818.26 387.65 412.83 3.3347 0.86670 1.0553 175.08 1.8768 3.6459 0.0042980
-138.62 0.0051963 1.1794e-06 -101.37 -101.37 -0.51628 683.12 0.0014639 -101.37 -101.37 -0.51629 1.3345 1.9792 1803.3 -0.0073536 965.97 0.18695 0.0014125 707.94 388.52 413.88 3.3139 0.86998 1.0586 175.67 1.8413 3.6734 0.0043592
-137.62 0.0060358 1.3564e-06 -99.385 -99.385 -0.50162 682.11 0.0014660 -99.386 -99.386 -0.50162 1.3346 1.9808 1796.6 -0.0073419 940.35 0.18641 0.0016287 614.00 389.39 414.94 3.2935 0.87325 1.0619 176.26 1.8069 3.7009 0.0044206
-136.62 0.0069938 1.5561e-06 -97.404 -97.404 -0.48705 681.10 0.0014682 -97.404 -97.404 -0.48705 1.3347 1.9825 1789.9 -0.0073301 915.81 0.18586 0.0018733 533.80 390.26 416.00 3.2735 0.87650 1.0651 176.85 1.7734 3.7284 0.0044823
-135.62 0.0080843 1.7810e-06 -95.420 -95.420 -0.47257 680.09 0.0014704 -95.421 -95.421 -0.47258 1.3348 1.9841 1783.2 -0.0073180 892.30 0.18531 0.0021497 465.17 391.14 417.07 3.2540 0.87975 1.0684 177.44 1.7409 3.7559 0.0045443
-134.62 0.0093230 2.0337e-06 -93.435 -93.435 -0.45819 679.08 0.0014726 -93.436 -93.436 -0.45820 1.3350 1.9858 1776.5 -0.0073059 869.75 0.18476 0.0024613 406.30 392.02 418.14 3.2348 0.88299 1.0716 178.02 1.7093 3.7834 0.0046066
-133.62 0.010727 2.3170e-06 -91.448 -91.448 -0.44390 678.07 0.0014748 -91.450 -91.449 -0.44391 1.3351 1.9875 1769.8 -0.0072935 848.11 0.18421 0.0028116 355.67 392.91 419.21 3.2161 0.88622 1.0749 178.61 1.6786 3.8109 0.0046691
-132.62 0.012315 2.6340e-06 -89.460 -89.460 -0.42970 677.06 0.0014770 -89.461 -89.461 -0.42971 1.3353 1.9892 1763.1 -0.0072810 827.32 0.18365 0.0032049 312.03 393.79 420.29 3.1977 0.88944 1.0781 179.19 1.6488 3.8385 0.0047320
-131.62 0.014106 2.9879e-06 -87.470 -87.469 -0.41559 676.04 0.0014792 -87.471 -87.471 -0.41560 1.3354 1.9909 1756.4 -0.0072684 807.34 0.18309 0.0036453 274.33 394.68 421.36 3.1798 0.89266 1.0813 179.76 1.6197 3.8660 0.0047951
-130.62 0.016124 3.3822e-06 -85.478 -85.478 -0.40156 675.03 0.0014814 -85.479 -85.479 -0.40157 1.3356 1.9926 1749.7 -0.0072555 788.12 0.18253 0.0041375 241.69 395.58 422.44 3.1622 0.89586 1.0846 180.34 1.5915 3.8935 0.0048586
-129.62 0.018392 3.8207e-06 -83.484 -83.484 -0.38762 674.02 0.0014836 -83.486 -83.486 -0.38763 1.3358 1.9944 1743.0 -0.0072425 769.63 0.18196 0.0046867 213.37 396.47 423.53 3.1450 0.89906 1.0878 180.91 1.5641 3.9210 0.0049223
-128.62 0.020935 4.3073e-06 -81.489 -81.488 -0.37377 673.01 0.0014859 -81.491 -81.490 -0.37378 1.3360 1.9961 1736.3 -0.0072294 751.83 0.18140 0.0052981 188.75 397.37 424.62 3.1281 0.90226 1.0910 181.48 1.5374 3.9485 0.0049863
-127.62 0.023783 4.8464e-06 -79.491 -79.491 -0.35999 672.00 0.0014881 -79.494 -79.493 -0.36001 1.3363 1.9979 1729.6 -0.0072160 734.67 0.18083 0.0059776 167.29 398.27 425.71 3.1116 0.90545 1.0942 182.05 1.5114 3.9760 0.0050506
-126.62 0.026966 5.4423e-06 -77.492 -77.492 -0.34630 670.98 0.0014904 -77.495 -77.495 -0.34632 1.3365 1.9997 1722.9 -0.0072025 718.14 0.18025 0.0067313 148.56 399.18 426.80 3.0954 0.90863 1.0974 182.62 1.4861 4.0035 0.0051152
-125.62 0.030515 6.1001e-06 -75.491 -75.491 -0.33270 669.97 0.0014926 -75.494 -75.494 -0.33272 1.3368 2.0015 1716.2 -0.0071888 702.18 0.17968 0.0075660 132.17 400.09 427.89 3.0795 0.91181 1.1006 183.18 1.4615 4.0310 0.0051800
-124.62 0.034467 6.8247e-06 -73.489 -73.488 -0.31917 668.95 0.0014949 -73.492 -73.492 -0.31919 1.3371 2.0033 1709.5 -0.0071749 686.79 0.17910 0.0084885 117.81 401.00 428.99 3.0640 0.91499 1.1038 183.74 1.4375 4.0584 0.0052452
-123.62 0.038859 7.6215e-06 -71.484 -71.483 -0.30571 667.94 0.0014971 -71.488 -71.487 -0.30574 1.3374 2.0051 1702.8 -0.0071609 671.93 0.17852 0.0095065 105.19 401.91 430.10 3.0488 0.91816 1.1070 184.30 1.4141 4.0859 0.0053106
-122.62 0.043731 8.4964e-06 -69.478 -69.477 -0.29234 666.92 0.0014994 -69.482 -69.481 -0.29237 1.3377 2.0070 1696.2 -0.0071466 657.57 0.17794 0.010628 94.092 402.83 431.20 3.0339 0.92134 1.1102 184.86 1.3913 4.1134 0.0053764
-121.62 0.049128 9.4552e-06 -67.469 -67.468 -0.27904 665.91 0.0015017 -67.474 -67.473 -0.27907 1.3380 2.0089 1689.5 -0.0071322 643.70 0.17736 0.011861 84.309 403.75 432.31 3.0193 0.92451 1.1134 185.41 1.3691 4.1409 0.0054424
-120.62 0.055096 1.0504e-05 -65.459 -65.458 -0.26582 664.89 0.0015040 -65.464 -65.463 -0.26585 1.3384 2.0107 1682.8 -0.0071176 630.28 0.17678 0.013215 75.669 404.67 433.42 3.0050 0.92767 1.1166 185.96 1.3475 4.1683 0.0055087
-119.62 0.061684 1.1651e-05 -63.447 -63.446 -0.25267 663.87 0.0015063 -63.452 -63.452 -0.25271 1.3387 2.0126 1676.1 -0.0071028 617.30 0.17619 0.014700 68.027 405.60 434.53 2.9909 0.93084 1.1198 186.51 1.3264 4.1958 0.0055752
-118.62 0.068946 1.2901e-05 -61.433 -61.432 -0.23959 662.86 0.0015086 -61.439 -61.438 -0.23963 1.3391 2.0146 1669.4 -0.0070878 604.74 0.17560 0.016325 61.255 406.53 435.64 2.9772 0.93401 1.1231 187.06 1.3058 4.2233 0.0056421
-117.62 0.076937 1.4262e-05 -59.416 -59.415 -0.22659 661.84 0.0015109 -59.423 -59.422 -0.22663 1.3395 2.0165 1662.8 -0.0070726 592.58 0.17501 0.018101 55.245 407.46 436.76 2.9638 0.93718 1.1263 187.60 1.2857 4.2507 0.0057092
-116.62 0.085718 1.5743e-05 -57.398 -57.397 -0.21365 660.82 0.0015133 -57.406 -57.405 -0.21370 1.3400 2.0184 1656.1 -0.0070573 580.80 0.17442 0.020040 49.901 408.39 437.88 2.9506 0.94035 1.1295 188.14 1.2660 4.2782 0.0057767
-115.62 0.095353 1.7351e-05 -55.378 -55.377 -0.20079 659.80 0.0015156 -55.386 -55.385 -0.20084 1.3404 2.0204 1649.4 -0.0070417 569.38 0.17383 0.022152 45.142 409.33 439.01 2.9377 0.94352 1.1327 188.68 1.2468 4.3056 0.0058444
-114.62 0.10591 1.9094e-05 -53.356 -53.354 -0.18799 658.78 0.0015180 -53.365 -53.364 -0.18805 1.3409 2.0224 1642.7 -0.0070260 558.32 0.17323 0.024451 40.898 410.27 440.13 2.9250 0.94669 1.1360 189.22 1.2281 4.3330 0.0059123
-113.62 0.11746 2.0982e-05 -51.332 -51.330 -0.17526 657.76 0.0015203 -51.342 -51.340 -0.17533 1.3413 2.0244 1636.0 -0.0070100 547.59 0.17264 0.026949 37.107 411.21 441.26 2.9126 0.94987 1.1392 189.75 1.2097 4.3604 0.0059806
-112.62 0.13008 2.3023e-05 -49.306 -49.303 -0.16260 656.73 0.0015227 -49.316 -49.315 -0.16267 1.3418 2.0264 1629.3 -0.0069938 537.18 0.17204 0.029661 33.715 412.16 442.39 2.9005 0.95305 1.1424 190.28 1.1918 4.3879 0.0060491
-111.62 0.14384 2.5226e-05 -47.277 -47.275 -0.15000 655.71 0.0015251 -47.289 -47.287 -0.15008 1.3424 2.0285 1622.7 -0.0069774 527.08 0.17144 0.032600 30.675 413.10 443.53 2.8885 0.95623 1.1457 190.81 1.1742 4.4153 0.0061180
-110.62 0.15884 2.7603e-05 -45.247 -45.244 -0.13747 654.69 0.0015274 -45.259 -45.258 -0.13755 1.3429 2.0305 1616.0 -0.0069609 517.28 0.17084 0.035781 27.948 414.06 444.66 2.8769 0.95942 1.1490 191.34 1.1570 4.4427 0.0061871
-109.62 0.17516 3.0162e-05 -43.214 -43.211 -0.12500 653.66 0.0015298 -43.228 -43.226 -0.12509 1.3435 2.0326 1609.3 -0.0069441 507.76 0.17024 0.039220 25.497 415.01 445.80 2.8654 0.96261 1.1522 191.86 1.1402 4.4701 0.0062564
-108.62 0.19290 3.2914e-05 -41.179 -41.176 -0.11260 652.64 0.0015322 -41.194 -41.192 -0.11269 1.3441 2.0347 1602.6 -0.0069271 498.51 0.16964 0.042933 23.292 415.96 446.94 2.8542 0.96581 1.1555 192.38 1.1236 4.4974 0.0063261
-107.62 0.21215 3.5871e-05 -39.142 -39.139 -0.10025 651.61 0.0015347 -39.158 -39.156 -0.10036 1.3447 2.0369 1595.9 -0.0069098 489.52 0.16903 0.046937 21.305 416.92 448.09 2.8433 0.96901 1.1588 192.90 1.1075 4.5248 0.0063960
-106.62 0.23301 3.9044e-05 -37.103 -37.099 -0.087968 650.58 0.0015371 -37.120 -37.118 -0.088082 1.3453 2.0390 1589.2 -0.0068924 480.79 0.16843 0.051250 19.512 417.88 449.23 2.8325 0.97222 1.1621 193.41 1.0916 4.5522 0.0064662
-105.62 0.25561 4.2443e-05 -35.061 -35.057 -0.075746 649.55 0.0015395 -35.080 -35.078 -0.075868 1.3460 2.0412 1582.6 -0.0068747 472.30 0.16782 0.055891 17.892 418.85 450.38 2.8220 0.97544 1.1655 193.93 1.0760 4.5795 0.0065367
-104.62 0.28004 4.6082e-05 -33.017 -33.013 -0.063582 648.52 0.0015420 -33.038 -33.035 -0.063714 1.3467 2.0434 1575.9 -0.0068569 464.04 0.16721 0.060878 16.426 419.81 451.53 2.8116 0.97867 1.1688 194.44 1.0608 4.6069 0.0066074
-103.62 0.30643 4.9972e-05 -30.971 -30.966 -0.051476 647.49 0.0015444 -30.994 -30.991 -0.051619 1.3474 2.0456 1569.2 -0.0068387 456.00 0.16660 0.066231 15.099 420.78 452.68 2.8015 0.98191 1.1722 194.94 1.0458 4.6342 0.0066785
-102.62 0.33490 5.4126e-05 -28.923 -28.918 -0.039428 646.46 0.0015469 -28.947 -28.944 -0.039582 1.3481 2.0478 1562.5 -0.0068204 448.18 0.16600 0.071971 13.894 421.75 453.84 2.7916 0.98516 1.1755 195.44 1.0310 4.6615 0.0067498
-101.62 0.36558 5.8557e-05 -26.872 -26.866 -0.027437 645.43 0.0015494 -26.898 -26.894 -0.027602 1.3489 2.0501 1555.8 -0.0068018 440.57 0.16539 0.078120 12.801 422.73 454.99 2.7818 0.98841 1.1789 195.95 1.0166 4.6888 0.0068213
-100.62 0.39862 6.3278e-05 -24.819 -24.813 -0.015502 644.39 0.0015519 -24.847 -24.843 -0.015678 1.3497 2.0524 1549.1 -0.0067830 433.16 0.16478 0.084699 11.807 423.70 456.15 2.7723 0.99168 1.1823 196.44 1.0024 4.7161 0.0068932
-99.625 0.43414 6.8303e-05 -22.763 -22.756 -0.0036213 643.36 0.0015544 -22.794 -22.789 -0.0038103 1.3505 2.0547 1542.4 -0.0067639 425.95 0.16416 0.091731 10.901 424.68 457.31 2.7630 0.99496 1.1858 196.94 0.98838 4.7434 0.0069653
-98.625 0.47230 7.3647e-05 -20.705 -20.698 0.0082050 642.32 0.0015569 -20.738 -20.733 0.0080027 1.3514 2.0570 1535.7 -0.0067447 418.92 0.16355 0.099240 10.077 425.66 458.48 2.7538 0.99825 1.1892 197.43 0.97464 4.7707 0.0070377
-97.625 0.51325 7.9322e-05 -18.645 -18.637 0.019978 641.28 0.0015594 -18.680 -18.674 0.019762 1.3522 2.0594 1529.0 -0.0067251 412.07 0.16294 0.10725 9.3239 426.65 459.64 2.7448 1.0016 1.1927 197.92 0.96112 4.7979 0.0071103
-96.625 0.55714 8.5344e-05 -16.582 -16.573 0.031698 640.24 0.0015619 -16.620 -16.614 0.031467 1.3531 2.0618 1522.3 -0.0067053 405.39 0.16233 0.11579 8.6365 427.63 460.81 2.7360 1.0049 1.1962 198.40 0.94783 4.8251 0.0071832
-95.625 0.60416 9.1728e-05 -14.516 -14.506 0.043366 639.20 0.0015645 -14.557 -14.550 0.043120 1.3540 2.0642 1515.7 -0.0066853 398.88 0.16171 0.12488 8.0078 428.62 461.98 2.7274 1.0082 1.1997 198.88 0.93475 4.8524 0.0072564
-94.625 0.65446 9.8488e-05 -12.448 -12.437 0.054983 638.16 0.0015670 -12.491 -12.484 0.054721 1.3550 2.0667 1509.0 -0.0066650 392.53 0.16110 0.13455 7.4323 429.61 463.15 2.7189 1.0116 1.2032 199.36 0.92188 4.8796 0.0073299
-93.625 0.70822 0.00010564 -10.377 -10.366 0.066550 637.12 0.0015696 -10.424 -10.416 0.066271 1.3560 2.0691 1502.3 -0.0066444 386.34 0.16048 0.14482 6.9050 430.60 464.32 2.7107 1.0149 1.2068 199.83 0.90921 4.9068 0.0074036
-92.625 0.76564 0.00011320 -8.3037 -8.2916 0.078068 636.07 0.0015722 -8.3535 -8.3452 0.077771 1.3570 2.0716 1495.6 -0.0066236 380.31 0.15987 0.15573 6.4212 431.60 465.49 2.7025 1.0183 1.2104 200.30 0.89673 4.9340 0.0074776
-91.625 0.82689 0.00012118 -6.2277 -6.2146 0.089536 635.02 0.0015747 -6.2808 -6.2719 0.089220 1.3580 2.0742 1488.9 -0.0066025 374.41 0.15925 0.16731 5.9769 432.59 466.67 2.6946 1.0217 1.2140 200.77 0.88445 4.9611 0.0075518
-90.625 0.89218 0.00012961 -4.1489 -4.1348 0.10096 633.98 0.0015773 -4.2056 -4.1959 0.10062 1.3591 2.0767 1482.2 -0.0065811 368.66 0.15864 0.17958 5.5685 433.59 467.84 2.6868 1.0251 1.2177 201.24 0.87236 4.9883 0.0076263
-89.625 0.96172 0.00013848 -2.0674 -2.0521 0.11233 632.93 0.0015800 -2.1279 -2.1174 0.11197 1.3602 2.0793 1475.5 -0.0065595 363.05 0.15802 0.19258 5.1928 434.59 469.02 2.6791 1.0285 1.2213 201.70 0.86045 5.0154 0.0077011
-88.625 1.0357 0.00014783 0.016886 0.033302 0.12366 631.88 0.0015826 -0.047516 -0.036215 0.12328 1.3613 2.0819 1468.8 -0.0065375 357.56 0.15740 0.20633 4.8466 435.59 470.20 2.6717 1.0320 1.2250 202.15 0.84873 5.0425 0.0077761
-87.625 1.1144 0.00015767 2.1040 2.1216 0.13494 630.83 0.0015852 2.0355 2.0476 0.13454 1.3625 2.0846 1462.1 -0.0065153 352.21 0.15679 0.22087 4.5276 436.60 471.39 2.6643 1.0354 1.2288 202.61 0.83718 5.0696 0.0078514
-86.625 1.1979 0.00016802 4.1939 4.2129 0.14617 629.77 0.0015879 4.1211 4.1342 0.14575 1.3637 2.0873 1455.4 -0.0064928 346.98 0.15617 0.23623 4.2331 437.61 472.57 2.6571 1.0389 1.2325 203.06 0.82580 5.0967 0.0079270
-85.625 1.2866 0.00017889 6.2867 6.3071 0.15736 628.72 0.0015905 6.2094 6.2235 0.15691 1.3649 2.0900 1448.8 -0.0064701 341.87 0.15555 0.25245 3.9612 438.61 473.75 2.6501 1.0424 1.2363 203.50 0.81460 5.1237 0.0080028
-84.625 1.3806 0.00019029 8.3824 8.4043 0.16851 627.66 0.0015932 8.3004 8.3155 0.16803 1.3661 2.0927 1442.1 -0.0064470 336.87 0.15494 0.26956 3.7097 439.63 474.94 2.6432 1.0460 1.2402 203.95 0.80356 5.1508 0.0080789
-83.625 1.4803 0.00020226 10.481 10.505 0.17961 626.60 0.0015959 10.394 10.410 0.17911 1.3674 2.0955 1435.4 -0.0064236 331.99 0.15432 0.28760 3.4771 440.64 476.13 2.6364 1.0495 1.2440 204.38 0.79269 5.1778 0.0081553
-82.625 1.5858 0.00021480 12.583 12.608 0.19067 625.54 0.0015986 12.491 12.508 0.19014 1.3687 2.0983 1428.7 -0.0063999 327.22 0.15370 0.30659 3.2616 441.65 477.31 2.6298 1.0531 1.2479 204.82 0.78199 5.2048 0.0082319
-81.625 1.6975 0.00022793 14.687 14.714 0.20169 624.48 0.0016013 14.590 14.609 0.20113 1.3700 2.1012 1422.0 -0.0063759 322.55 0.15309 0.32659 3.0619 442.67 478.50 2.6233 1.0567 1.2519 205.25 0.77144 5.2318 0.0083088
-80.625 1.8155 0.00024167 16.795 16.824 0.21266 623.42 0.0016041 16.692 16.712 0.21208 1.3714 2.1041 1415.4 -0.0063516 317.99 0.15247 0.34763 2.8766 443.69 479.70 2.6169 1.0603 1.2558 205.67 0.76106 5.2587 0.0083860
-79.625 1.9402 0.00025603 18.906 18.937 0.22360 622.36 0.0016068 18.797 18.819 0.22299 1.3728 2.1070 1408.7 -0.0063270 313.52 0.15186 0.36974 2.7046 444.71 480.89 2.6106 1.0639 1.2598 206.10 0.75083 5.2857 0.0084634
-78.625 2.0718 0.00027104 21.020 21.053 0.23449 621.29 0.0016096 20.905 20.928 0.23385 1.3742 2.1099 1402.0 -0.0063021 309.15 0.15124 0.39296 2.5448 445.73 482.08 2.6045 1.0676 1.2639 206.51 0.74076 5.3126 0.0085411
-77.625 2.2107 0.00028671 23.137 23.172 0.24535 620.22 0.0016123 23.016 23.040 0.24468 1.3757 2.1129 1395.3 -0.0062768 304.88 0.15062 0.41735 2.3961 446.75 483.27 2.5985 1.0712 1.2680 206.93 0.73084 5.3395 0.0086190
-76.625 2.3571 0.00030306 25.258 25.295 0.25617 619.15 0.0016151 25.130 25.156 0.25546 1.3772 2.1159 1388.7 -0.0062512 300.69 0.15001 0.44292 2.2577 447.78 484.47 2.5926 1.0749 1.2721 207.34 0.72107 5.3664 0.0086972
-75.625 2.5113 0.00032011 27.381 27.421 0.26695 618.08 0.0016179 27.247 27.275 0.26620 1.3787 2.1190 1382.0 -0.0062253 296.59 0.14939 0.46974 2.1288 448.81 485.67 2.5869 1.0787 1.2762 207.74 0.71146 5.3933 0.0087757
-74.625 2.6736 0.00033787 29.508 29.551 0.27769 617.01 0.0016207 29.366 29.396 0.27691 1.3802 2.1221 1375.4 -0.0061990 292.58 0.14878 0.49783 2.0087 449.83 486.86 2.5812 1.0824 1.2804 208.14 0.70200 5.4201 0.0088544
-73.625 2.8444 0.00035636 31.639 31.684 0.28839 615.93 0.0016236 31.489 31.521 0.28758 1.3818 2.1252 1368.7 -0.0061724 288.65 0.14816 0.52725 1.8966 450.86 488.06 2.5757 1.0862 1.2847 208.54 0.69268 5.4469 0.0089334
-72.625 3.0240 0.00037560 33.773 33.820 0.29906 614.85 0.0016264 33.615 33.649 0.29821 1.3834 2.1284 1362.0 -0.0061454 284.81 0.14755 0.55804 1.7920 451.90 489.26 2.5703 1.0900 1.2889 208.93 0.68351 5.4737 0.0090126
-71.625 3.2127 0.00039560 35.910 35.961 0.30969 613.78 0.0016293 35.745 35.781 0.30880 1.3851 2.1316 1355.4 -0.0061181 281.03 0.14694 0.59024 1.6942 452.93 490.46 2.5650 1.0938 1.2932 209.32 0.67448 5.5005 0.0090922
-70.625 3.4108 0.00041639 38.050 38.104 0.32029 612.69 0.0016321 37.877 37.915 0.31935 1.3867 2.1349 1348.7 -0.0060904 277.34 0.14632 0.62390 1.6028 453.96 491.66 2.5598 1.0976 1.2976 209.70 0.66560 5.5273 0.0091720
-69.625 3.6187 0.00043797 40.194 40.252 0.33085 611.61 0.0016350 40.013 40.053 0.32987 1.3884 2.1382 1342.1 -0.0060624 273.72 0.14571 0.65906 1.5173 455.00 492.86 2.5547 1.1015 1.3020 210.08 0.65687 5.5540 0.0092520
-68.625 3.8367 0.00046037 42.342 42.403 0.34137 610.53 0.0016379 42.152 42.195 0.34036 1.3902 2.1415 1335.5 -0.0060339 270.17 0.14510 0.69577 1.4372 456.04 494.06 2.5497 1.1054 1.3064 210.45 0.64827 5.5807 0.0093324
-67.625 4.0652 0.00048361 44.493 44.558 0.35187 609.44 0.0016409 44.294 44.340 0.35080 1.3919 2.1449 1328.8 -0.0060051 266.69 0.14449 0.73408 1.3622 457.08 495.26 2.5448 1.1093 1.3109 210.82 0.63981 5.6074 0.0094130
-66.625 4.3046 0.00050769 46.648 46.716 0.36233 608.35 0.0016438 46.439 46.488 0.36122 1.3937 2.1483 1322.2 -0.0059760 263.28 0.14388 0.77404 1.2919 458.12 496.46 2.5400 1.1133 1.3154 211.18 0.63150 5.6341 0.0094939
-65.625 4.5551 0.00053263 48.807 48.879 0.37275 607.26 0.0016467 48.588 48.640 0.37160 1.3955 2.1518 1315.6 -0.0059464 259.93 0.14327 0.81570 1.2259 459.16 497.67 2.5353 1.1172 1.3200 211.54 0.62332 5.6608 0.0095750
-64.625 4.8173 0.00055846 50.969 51.045 0.38315 606.16 0.0016497 50.740 50.795 0.38195 1.3974 2.1553 1308.9 -0.0059164 256.65 0.14266 0.85910 1.1640 460.21 498.87 2.5307 1.1212 1.3246 211.89 0.61527 5.6874 0.0096564
-63.625 5.0915 0.00058518 53.135 53.216 0.39351 605.07 0.0016527 52.896 52.954 0.39226 1.3993 2.1588 1302.3 -0.0058861 253.42 0.14205 0.90429 1.1058 461.25 500.07 2.5262 1.1252 1.3293 212.24 0.60736 5.7140 0.0097382
-62.625 5.3781 0.00061281 55.305 55.390 0.40384 603.97 0.0016557 55.055 55.117 0.40254 1.4012 2.1624 1295.7 -0.0058553 250.26 0.14144 0.95134 1.0511 462.30 501.28 2.5218 1.1293 1.3340 212.58 0.59958 5.7406 0.0098201
-61.625 5.6774 0.00064136 57.479 57.569 0.41414 602.87 0.0016587 57.218 57.283 0.41279 1.4031 2.1660 1289.1 -0.0058241 247.16 0.14084 1.0003 0.99972 463.35 502.48 2.5175 1.1333 1.3387 212.92 0.59194 5.7672 0.0099024
-60.625 5.9899 0.00067086 59.656 59.751 0.42441 601.77 0.0016618 59.385 59.453 0.42301 1.4051 2.1697 1282.5 -0.0057925 244.12 0.14023 1.0512 0.95131 464.40 503.68 2.5133 1.1374 1.3435 213.26 0.58442 5.7938 0.0099850
-59.625 6.3160 0.00070130 61.838 61.938 0.43465 600.66 0.0016648 61.554 61.627 0.43320 1.4071 2.1734 1275.9 -0.0057605 241.13 0.13962 1.1041 0.90573 465.45 504.89 2.5091 1.1415 1.3483 213.58 0.57704 5.8203 0.010068
-58.625 6.6561 0.00073272 64.023 64.129 0.44486 599.55 0.0016679 63.728 63.805 0.44335 1.4091 2.1772 1269.3 -0.0057280 238.19 0.13902 1.1591 0.86277 466.50 506.09 2.5051 1.1457 1.3532 213.90 0.56978 5.8468 0.010151
-57.625 7.0107 0.00076511 66.213 66.324 0.45505 598.44 0.0016710 65.905 65.986 0.45348 1.4111 2.1810 1262.7 -0.0056951 235.31 0.13842 1.2161 0.82228 467.55 507.30 2.5011 1.1498 1.3581 214.22 0.56265 5.8733 0.010234
-56.625 7.3801 0.00079849 68.406 68.523 0.46520 597.33 0.0016741 68.086 68.172 0.46358 1.4132 2.1848 1256.1 -0.0056617 232.48 0.13781 1.2754 0.78408 468.60 508.50 2.4972 1.1540 1.3631 214.53 0.55564 5.8998 0.010318
-55.625 7.7648 0.00083288 70.604 70.727 0.47533 596.22 0.0016772 70.271 70.361 0.47364 1.4153 2.1887 1249.5 -0.0056279 229.69 0.13721 1.3369 0.74802 469.66 509.71 2.4934 1.1582 1.3681 214.84 0.54875 5.9263 0.010402
-54.625 8.1652 0.00086828 72.806 72.935 0.48542 595.10 0.0016804 72.460 72.554 0.48368 1.4174 2.1927 1242.9 -0.0055937 226.96 0.13661 1.4006 0.71396 470.72 510.91 2.4897 1.1624 1.3731 215.14 0.54199 5.9527 0.010486
-53.625 8.5819 0.00090471 75.012 75.148 0.49550 593.98 0.0016836 74.652 74.752 0.49369 1.4196 2.1967 1236.3 -0.0055589 224.27 0.13601 1.4667 0.68178 471.77 512.11 2.4860 1.1667 1.3782 215.43 0.53535 5.9792 0.010571
-52.625 9.0151 0.00094217 77.222 77.365 0.50554 592.86 0.0016867 76.849 76.954 0.50368 1.4218 2.2007 1229.8 -0.0055237 221.63 0.13541 1.5353 0.65136 472.83 513.32 2.4824 1.1710 1.3834 215.72 0.52882 6.0056 0.010656
-51.625 9.4655 0.00098068 79.436 79.586 0.51556 591.73 0.0016900 79.049 79.159 0.51363 1.4240 2.2048 1223.2 -0.0054880 219.04 0.13482 1.6062 0.62258 473.89 514.52 2.4789 1.1752 1.3886 216.00 0.52241 6.0320 0.010741
-50.625 9.9335 0.0010202 81.655 81.812 0.52555 590.60 0.0016932 81.253 81.369 0.52356 1.4262 2.2089 1216.6 -0.0054519 216.48 0.13422 1.6797 0.59534 474.95 515.73 2.4755 1.1796 1.3938 216.28 0.51612 6.0584 0.010827
-49.625 10.419 0.0010609 83.878 84.043 0.53552 589.47 0.0016964 83.462 83.584 0.53347 1.4285 2.2131 1210.1 -0.0054152 213.98 0.13363 1.7558 0.56954 476.01 516.93 2.4722 1.1839 1.3991 216.55 0.50994 6.0848 0.010913
-48.625 10.924 0.0011026 86.106 86.279 0.54547 588.34 0.0016997 85.674 85.802 0.54334 1.4308 2.2173 1203.5 -0.0053780 211.51 0.13303 1.8345 0.54510 477.07 518.13 2.4689 1.1883 1.4044 216.82 0.50387 6.1112 0.010999
-47.625 11.448 0.0011454 88.338 88.519 0.55538 587.20 0.0017030 87.891 88.025 0.55319 1.4331 2.2216 1196.9 -0.0053403 209.08 0.13244 1.9159 0.52194 478.14 519.33 2.4657 1.1927 1.4098 217.08 0.49792 6.1375 0.011085
-46.625 11.991 0.0011892 90.574 90.764 0.56528 586.06 0.0017063 90.111 90.252 0.56302 1.4354 2.2259 1190.4 -0.0053020 206.69 0.13185 2.0001 0.49997 479.20 520.53 2.4625 1.1971 1.4153 217.33 0.49207 6.1639 0.011172
-45.625 12.554 0.0012342 92.815 93.014 0.57515 584.92 0.0017096 92.336 92.484 0.57282 1.4378 2.2303 1183.8 -0.0052633 204.34 0.13126 2.0872 0.47912 480.27 521.74 2.4594 1.2015 1.4207 217.58 0.48633 6.1902 0.011259
-44.625 13.137 0.0012802 95.060 95.269 0.58500 583.77 0.0017130 94.565 94.720 0.58260 1.4402 2.2347 1177.3 -0.0052240 202.03 0.13067 2.1771 0.45933 481.33 522.94 2.4564 1.2060 1.4263 217.82 0.48069 6.2165 0.011347
-43.625 13.741 0.0013274 97.310 97.528 0.59482 582.62 0.0017164 96.799 96.961 0.59235 1.4426 2.2392 1170.7 -0.0051841 199.75 0.13008 2.2700 0.44053 482.40 524.14 2.4535 1.2104 1.4319 218.05 0.47516 6.2429 0.011435
-42.625 14.367 0.0013756 99.565 99.793 0.60462 581.47 0.0017198 99.036 99.207 0.60208 1.4450 2.2437 1164.2 -0.0051437 197.51 0.12949 2.3659 0.42267 483.46 525.33 2.4506 1.2149 1.4375 218.28 0.46973 6.2692 0.011523
-41.625 15.015 0.0014250 101.82 102.06 0.61440 580.32 0.0017232 101.28 101.46 0.61179 1.4475 2.2483 1157.7 -0.0051027 195.30 0.12891 2.4649 0.40569 484.53 526.53 2.4478 1.2195 1.4432 218.50 0.46440 6.2955 0.011612
-40.625 15.686 0.0014755 104.09 104.34 0.62416 579.16 0.0017266 103.52 103.71 0.62147 1.4500 2.2529 1151.1 -0.0050611 193.13 0.12832 2.5671 0.38954 485.60 527.73 2.4450 1.2240 1.4489 218.72 0.45917 6.3218 0.011701
-39.625 16.380 0.0015270 106.36 106.62 0.63390 578.00 0.0017301 105.78 105.97 0.63113 1.4525 2.2576 1144.6 -0.0050189 190.99 0.12774 2.6725 0.37418 486.67 528.93 2.4423 1.2286 1.4547 218.93 0.45403 6.3481 0.011790
-38.625 17.097 0.0015797 108.63 108.90 0.64361 576.83 0.0017336 108.03 108.24 0.64077 1.4550 2.2623 1138.0 -0.0049761 188.88 0.12716 2.7813 0.35955 487.74 530.12 2.4397 1.2332 1.4606 219.13 0.44900 6.3744 0.011880
-37.625 17.838 0.0016335 110.91 111.19 0.65331 575.66 0.0017371 110.29 110.51 0.65039 1.4576 2.2671 1131.5 -0.0049327 186.81 0.12658 2.8934 0.34562 488.81 531.32 2.4371 1.2378 1.4665 219.33 0.44405 6.4007 0.011970
-36.625 18.604 0.0016884 113.19 113.49 0.66298 574.49 0.0017407 112.56 112.78 0.65999 1.4602 2.2719 1125.0 -0.0048887 184.76 0.12600 3.0089 0.33235 489.88 532.51 2.4346 1.2424 1.4724 219.52 0.43920 6.4270 0.012060
-35.625 19.395 0.0017444 115.48 115.79 0.67264 573.32 0.0017442 114.83 115.06 0.66956 1.4628 2.2768 1118.5 -0.0048440 182.75 0.12542 3.1280 0.31969 490.95 533.70 2.4321 1.2471 1.4784 219.70 0.43444 6.4533 0.012151
-34.625 20.212 0.0018014 117.77 118.10 0.68227 572.14 0.0017478 117.10 117.34 0.67912 1.4654 2.2818 1111.9 -0.0047987 180.76 0.12485 3.2506 0.30763 492.02 534.89 2.4297 1.2517 1.4845 219.88 0.42977 6.4797 0.012243
-33.625 21.056 0.0018596 120.07 120.41 0.69189 570.96 0.0017514 119.38 119.63 0.68865 1.4681 2.2868 1105.4 -0.0047527 178.80 0.12427 3.3770 0.29612 493.09 536.08 2.4273 1.2564 1.4906 220.05 0.42519 6.5060 0.012334
-32.625 21.926 0.0019188 122.38 122.72 0.70148 569.77 0.0017551 121.66 121.93 0.69817 1.4708 2.2918 1098.9 -0.0047061 176.87 0.12370 3.5071 0.28514 494.17 537.27 2.4250 1.2611 1.4968 220.21 0.42070 6.5323 0.012426
-31.625 22.823 0.0019791 124.68 125.05 0.71106 568.58 0.0017588 123.95 124.23 0.70767 1.4735 2.2970 1092.3 -0.0046587 174.97 0.12313 3.6410 0.27465 495.24 538.46 2.4227 1.2659 1.5031 220.36 0.41629 6.5587 0.012519
-30.625 23.749 0.0020405 127.00 127.37 0.72062 567.39 0.0017625 126.24 126.53 0.71714 1.4762 2.3021 1085.8 -0.0046107 173.09 0.12256 3.7787 0.26464 496.31 539.64 2.4205 1.2706 1.5094 220.51 0.41196 6.5850 0.012612
-29.625 24.703 0.0021028 129.32 129.71 0.73016 566.19 0.0017662 128.54 128.84 0.72660 1.4790 2.3074 1079.3 -0.0045619 171.24 0.12200 3.9205 0.25507 497.38 540.83 2.4184 1.2754 1.5157 220.65 0.40772 6.6114 0.012706
-28.625 25.687 0.0021663 131.64 132.05 0.73968 564.99 0.0017699 130.84 131.16 0.73604 1.4818 2.3126 1072.8 -0.0045124 169.42 0.12143 4.0663 0.24592 498.46 542.01 2.4162 1.2802 1.5222 220.79 0.40356 6.6378 0.012800
-27.625 26.700 0.0022307 133.97 134.39 0.74919 563.78 0.0017737 133.15 133.48 0.74547 1.4846 2.3180 1066.2 -0.0044621 167.62 0.12087 4.2163 0.23717 499.53 543.19 2.4142 1.2850 1.5286 220.91 0.39947 6.6642 0.012894
-26.625 27.743 0.0022962 136.30 136.74 0.75868 562.57 0.0017775 135.47 135.81 0.75487 1.4874 2.3234 1059.7 -0.0044111 165.84 0.12031 4.3705 0.22881 500.60 544.37 2.4122 1.2899 1.5352 221.03 0.39547 6.6906 0.012989
-25.625 28.817 0.0023626 138.64 139.10 0.76815 561.36 0.0017814 137.78 138.14 0.76426 1.4902 2.3289 1053.2 -0.0043593 164.09 0.11975 4.5290 0.22080 501.68 545.55 2.4102 1.2947 1.5418 221.14 0.39154 6.7171 0.013084
-24.625 29.923 0.0024300 140.99 141.46 0.77760 560.14 0.0017853 140.11 140.48 0.77363 1.4931 2.3344 1046.7 -0.0043067 162.36 0.11919 4.6918 0.21314 502.75 546.72 2.4083 1.2996 1.5485 221.25 0.38768 6.7436 0.013180
-23.625 31.061 0.0024983 143.34 143.83 0.78704 558.92 0.0017892 142.44 142.82 0.78298 1.4960 2.3400 1040.1 -0.0042533 160.65 0.11863 4.8592 0.20580 503.82 547.90 2.4064 1.3045 1.5552 221.35 0.38391 6.7701 0.013277
-22.625 32.232 0.0025676 145.69 146.21 0.79646 557.69 0.0017931 144.77 145.17 0.79232 1.4990 2.3457 1033.6 -0.0041990 158.97 0.11807 5.0311 0.19877 504.90 549.07 2.4045 1.3095 1.5621 221.44 0.38020 6.7967 0.013374
-21.625 33.435 0.0026378 148.06 148.59 0.80587 556.46 0.0017971 147.11 147.52 0.80164 1.5019 2.3514 1027.1 -0.0041439 157.30 0.11752 5.2076 0.19203 505.97 550.24 2.4027 1.3144 1.5690 221.52 0.37656 6.8232 0.013471
-20.625 34.673 0.0027088 150.42 150.97 0.81526 555.23 0.0018011 149.45 149.88 0.81095 1.5049 2.3572 1020.6 -0.0040879 155.66 0.11697 5.3889 0.18557 507.04 551.40 2.4010 1.3194 1.5759 221.59 0.37300 6.8499 0.013569
-19.625 35.946 0.0027806 152.79 153.36 0.82463 553.99 0.0018051 151.80 152.25 0.82024 1.5079 2.3630 1014.0 -0.0040311 154.04 0.11642 5.5750 0.17937 508.11 552.57 2.3992 1.3244 1.5829 221.66 0.36950 6.8765 0.013668
-18.625 37.253 0.0028533 155.17 155.76 0.83399 552.74 0.0018092 154.16 154.62 0.82952 1.5109 2.3689 1007.5 -0.0039733 152.44 0.11587 5.7660 0.17343 509.19 553.73 2.3976 1.3294 1.5901 221.72 0.36608 6.9032 0.013767
-17.625 38.596 0.0029267 157.56 158.17 0.84334 551.49 0.0018133 156.52 157.00 0.83878 1.5140 2.3749 1001.0 -0.0039145 150.86 0.11532 5.9621 0.16773 510.26 554.89 2.3959 1.3345 1.5972 221.77 0.36272 6.9300 0.013867
-16.625 39.976 0.0030009 159.94 160.58 0.85267 550.24 0.0018174 158.89 159.39 0.84803 1.5171 2.3810 994.44 -0.0038549 149.29 0.11478 6.1632 0.16225 511.33 556.05 2.3943 1.3395 1.6045 221.81 0.35942 6.9568 0.013968
-15.625 41.392 0.0030758 162.34 163.00 0.86199 548.98 0.0018216 161.26 161.78 0.85726 1.5202 2.3871 987.91 -0.0037942 147.75 0.11423 6.3696 0.15700 512.40 557.20 2.3927 1.3446 1.6119 221.85 0.35619 6.9836 0.014069
-14.625 42.846 0.0031513 164.74 165.42 0.87129 547.71 0.0018258 163.64 164.18 0.86649 1.5233 2.3933 981.37 -0.0037325 146.22 0.11369 6.5812 0.15195 513.47 558.36 2.3912 1.3497 1.6193 221.87 0.35302 7.0105 0.014170
-13.625 44.338 0.0032274 167.15 167.85 0.88058 546.44 0.0018300 166.02 166.58 0.87569 1.5264 2.3996 974.83 -0.0036698 144.72 0.11315 6.7983 0.14710 514.54 559.51 2.3897 1.3549 1.6268 221.89 0.34992 7.0375 0.014273
-12.625 45.870 0.0033041 169.56 170.28 0.88986 545.17 0.0018343 168.41 168.99 0.88489 1.5296 2.4059 968.29 -0.0036061 143.23 0.11261 7.0208 0.14243 515.61 560.65 2.3883 1.3600 1.6344 221.90 0.34688 7.0646 0.014376
-11.625 47.440 0.0033814 171.98 172.73 0.89912 543.89 0.0018386 170.81 171.41 0.89407 1.5328 2.4124 961.75 -0.0035413 141.76 0.11208 7.2490 0.13795 516.68 561.80 2.3868 1.3652 1.6421 221.91 0.34389 7.0917 0.014479
-10.625 49.051 0.0034591 174.40 175.18 0.90837 542.60 0.0018430 173.21 173.83 0.90324 1.5360 2.4189 955.20 -0.0034753 140.30 0.11154 7.4829 0.13364 517.75 562.94 2.3854 1.3704 1.6498 221.90 0.34097 7.1188 0.014584
-9.6250 50.703 0.0035372 176.83 177.63 0.91760 541.31 0.0018474 175.61 176.26 0.91240 1.5393 2.4255 948.65 -0.0034082 138.86 0.11101 7.7226 0.12949 518.81 564.08 2.3841 1.3757 1.6577 221.88 0.33810 7.1461 0.014689
-8.6250 52.396 0.0036157 179.26 180.09 0.92683 540.02 0.0018518 178.03 178.70 0.92154 1.5426 2.4321 942.10 -0.0033400 137.44 0.11048 7.9683 0.12550 519.88 565.21 2.3827 1.3809 1.6657 221.86 0.33529 7.1734 0.014795
-7.6250 54.131 0.0036944 181.71 182.56 0.93604 538.72 0.0018563 180.45 181.14 0.93068 1.5459 2.4389 935.55 -0.0032705 136.03 0.10995 8.2200 0.12165 520.94 566.35 2.3814 1.3862 1.6737 221.83 0.33254 7.2008 0.014902
-6.6250 55.909 0.0037734 184.15 185.04 0.94524 537.41 0.0018608 182.87 183.59 0.93980 1.5492 2.4457 928.99 -0.0031998 134.64 0.10942 8.4779 0.11795 522.01 567.48 2.3801 1.3915 1.6819 221.79 0.32984 7.2284 0.015009
-5.6250 57.730 0.0038526 186.61 187.52 0.95443 536.10 0.0018653 185.30 186.05 0.94892 1.5525 2.4526 922.43 -0.0031279 133.27 0.10889 8.7420 0.11439 523.07 568.60 2.3789 1.3969 1.6902 221.74 0.32720 7.2560 0.015117
-4.6250 59.595 0.0039318 189.07 190.01 0.96360 534.78 0.0018699 187.74 188.51 0.95802 1.5559 2.4596 915.87 -0.0030546 131.91 0.10837 9.0126 0.11096 524.13 569.72 2.3777 1.4022 1.6985 221.68 0.32461 7.2837 0.015226
-3.6250 61.505 0.0040111 191.53 192.51 0.97277 533.45 0.0018746 190.19 190.98 0.96711 1.5593 2.4667 909.30 -0.0029800 130.56 0.10785 9.2896 0.10765 525.19 570.84 2.3765 1.4076 1.7070 221.62 0.32207 7.3115 0.015336
-2.6250 63.461 0.0040903 194.00 195.01 0.98192 532.12 0.0018793 192.64 193.46 0.97620 1.5627 2.4739 902.73 -0.0029041 129.23 0.10733 9.5733 0.10446 526.25 571.96 2.3753 1.4131 1.7156 221.54 0.31958 7.3394 0.015447
-1.6250 65.462 0.0041693 196.48 197.52 0.99106 530.78 0.0018840 195.10 195.95 0.98527 1.5662 2.4811 896.16 -0.0028267 127.91 0.10681 9.8638 0.10138 527.31 573.07 2.3742 1.4185 1.7243 221.45 0.31715 7.3674 0.015559
-0.62500 67.510 0.0042481 198.96 200.03 1.0002 529.44 0.0018888 197.56 198.44 0.99434 1.5696 2.4885 889.58 -0.0027478 126.61 0.10629 10.161 0.098414 528.37 574.18 2.3731 1.4240 1.7331 221.36 0.31476 7.3956 0.015671
0.37500 69.606 0.0043266 201.45 202.56 1.0093 528.09 0.0018936 200.03 200.94 1.0034 1.5731 2.4960 883.00 -0.0026675 125.32 0.10578 10.466 0.095552 529.42 575.28 2.3720 1.4295 1.7421 221.26 0.31242 7.4239 0.015785
1.3750 71.749 0.0044046 203.95 205.09 1.0184 526.73 0.0018985 202.51 203.45 1.0124 1.5767 2.5035 876.42 -0.0025856 124.04 0.10527 10.777 0.092790 530.48 576.38 2.3709 1.4350 1.7512 221.14 0.31013 7.4523 0.015899
2.3750 73.941 0.0044821 206.45 207.63 1.0275 525.37 0.0019034 204.99 205.96 1.0215 1.5802 2.5112 869.83 -0.0025022 122.78 0.10476 11.096 0.090123 531.53 577.47 2.3699 1.4406 1.7604 221.02 0.30789 7.4808 0.016015
3.3750 76.183 0.0045590 208.96 210.17 1.0366 523.99 0.0019084 207.48 208.48 1.0305 1.5838 2.5190 863.24 -0.0024171 121.53 0.10425 11.422 0.087549 532.58 578.56 2.3688 1.4462 1.7697 220.89 0.30569 7.5095 0.016131
4.3750 78.475 0.0046351 211.48 212.72 1.0457 522.62 0.0019134 209.98 211.01 1.0395 1.5874 2.5268 856.64 -0.0023303 120.29 0.10374 11.756 0.085062 533.63 579.65 2.3678 1.4518 1.7792 220.75 0.30354 7.5384 0.016249
5.3750 80.817 0.0047103 214.00 215.28 1.0548 521.23 0.0019185 212.48 213.55 1.0486 1.5910 2.5348 850.04 -0.0022417 119.06 0.10324 12.098 0.082660 534.67 580.73 2.3669 1.4575 1.7888 220.60 0.30144 7.5674 0.016368
6.3750 83.211 0.0047845 216.53 217.85 1.0638 519.84 0.0019237 215.00 216.10 1.0576 1.5946 2.5429 843.43 -0.0021514 117.85 0.10273 12.447 0.080340 535.72 581.81 2.3659 1.4632 1.7986 220.44 0.29938 7.5966 0.016487
7.3750 85.657 0.0048575 219.06 220.42 1.0729 518.44 0.0019289 217.51 218.65 1.0666 1.5983 2.5511 836.82 -0.0020593 116.65 0.10223 12.805 0.078096 536.76 582.88 2.3650 1.4689 1.8085 220.27 0.29736 7.6259 0.016608
8.3750 88.156 0.0049292 221.61 223.00 1.0819 517.03 0.0019341 220.04 221.22 1.0756 1.6020 2.5595 830.20 -0.0019652 115.46 0.10173 13.170 0.075928 537.80 583.95 2.3640 1.4746 1.8186 220.08 0.29538 7.6555 0.016730
9.3750 90.708 0.0049996 224.15 225.59 1.0910 515.62 0.0019394 222.57 223.79 1.0846 1.6057 2.5679 823.58 -0.0018691 114.28 0.10124 13.545 0.073830 538.84 585.01 2.3631 1.4804 1.8288 219.89 0.29345 7.6852 0.016853
10.375 93.315 0.0050683 226.71 228.19 1.1000 514.19 0.0019448 225.11 226.37 1.0936 1.6095 2.5765 816.96 -0.0017710 113.11 0.10074 13.927 0.071802 539.87 586.07 2.3622 1.4863 1.8392 219.69 0.29156 7.7151 0.016978
11.375 95.977 0.0051352 229.27 230.79 1.1090 512.76 0.0019502 227.66 228.95 1.1025 1.6132 2.5852 810.32 -0.0016708 111.95 0.10025 14.319 0.069840 540.90 587.12 2.3614 1.4921 1.8498 219.48 0.28971 7.7452 0.017103
12.375 98.694 0.0052002 231.84 233.40 1.1180 511.32 0.0019557 230.22 231.55 1.1115 1.6170 2.5940 803.68 -0.0015685 110.80 0.099756 14.719 0.067941 541.93 588.17 2.3605 1.4980 1.8605 219.26 0.28790 7.7756 0.017230
13.375 101.47 0.0052631 234.41 236.02 1.1270 509.87 0.0019613 232.78 234.15 1.1205 1.6208 2.6030 797.04 -0.0014639 109.67 0.099267 15.128 0.066103 542.96 589.21 2.3597 1.5040 1.8715 219.03 0.28612 7.8061 0.017359
14.375 104.30 0.0053237 237.00 238.65 1.1360 508.42 0.0019669 235.35 236.77 1.1295 1.6247 2.6121 790.39 -0.0013569 108.54 0.098779 15.547 0.064323 543.99 590.24 2.3588 1.5099 1.8826 218.79 0.28439 7.8369 0.017488
15.375 107.19 0.0053817 239.58 241.28 1.1450 506.95 0.0019726 237.93 239.39 1.1384 1.6286 2.6214 783.73 -0.0012476 107.43 0.098294 15.974 0.062600 545.01 591.27 2.3580 1.5159 1.8940 218.53 0.28270 7.8680 0.017619
16.375 110.13 0.0054371 242.18 243.92 1.1540 505.48 0.0019783 240.52 242.02 1.1474 1.6324 2.6308 777.07 -0.0011357 106.32 0.097810 16.412 0.060931 546.03 592.29 2.3572 1.5220 1.9055 218.27 0.28104 7.8993 0.017752
17.375 113.14 0.0054894 244.78 246.57 1.1630 504.00 0.0019841 243.11 244.66 1.1564 1.6364 2.6403 770.40 -0.0010213 105.22 0.097328 16.859 0.059314 547.04 593.31 2.3564 1.5281 1.9172 217.99 0.27942 7.9308 0.017886
18.375 116.21 0.0055386 247.39 249.23 1.1719 502.50 0.0019900 245.72 247.31 1.1653 1.6403 2.6501 763.72 -0.00090422 104.14 0.096848 17.317 0.057747 548.05 594.32 2.3557 1.5342 1.9292 217.71 0.27783 7.9626 0.018021
19.375 119.33 0.0055842 250.01 251.90 1.1809 501.00 0.0019960 248.33 249.97 1.1743 1.6443 2.6599 757.04 -0.00078435 103.06 0.096371 17.785 0.056228 549.06 595.33 2.3549 1.5404 1.9414 217.41 0.27628 7.9947 0.018159
20.375 122.52 0.0056262 252.63 254.57 1.1898 499.49 0.0020020 250.95 252.64 1.1832 1.6483 2.6700 750.35 -0.00066161 101.99 0.095895 18.263 0.054756 550.07 596.32 2.3541 1.5466 1.9538 217.10 0.27477 8.0272 0.018297
21.375 125.77 0.0056642 255.26 257.25 1.1988 497.97 0.0020082 253.57 255.32 1.1922 1.6523 2.6802 743.64 -0.00053589 100.93 0.095420 18.752 0.053328 551.07 597.31 2.3534 1.5528 1.9665 216.78 0.27329 8.0599 0.018438
22.375 129.08 0.0056978 257.90 259.94 1.2077 496.43 0.0020144 256.21 258.00 1.2012 1.6563 2.6906 736.94 -0.00040708 99.877 0.094948 19.252 0.051943 552.07 598.30 2.3526 1.5591 1.9795 216.45 0.27184 8.0929 0.018580
23.375 132.46 0.0057269 260.54 262.64 1.2166 494.89 0.0020206 258.86 260.70 1.2101 1.6604 2.7012 730.22 -0.00027505 98.834 0.094478 19.763 0.050600 553.06 599.27 2.3519 1.5655 1.9927 216.11 0.27043 8.1263 0.018724
24.375 135.90 0.0057510 263.19 265.35 1.2256 493.34 0.0020270 261.51 263.41 1.2191 1.6645 2.7120 723.49 -0.00013968 97.800 0.094009 20.285 0.049297 554.05 600.24 2.3512 1.5718 2.0061 215.75 0.26906 8.1600 0.018870
25.375 139.41 0.0057698 265.85 268.06 1.2345 491.77 0.0020335 264.17 266.13 1.2280 1.6686 2.7230 716.76 -8.3775e-07 96.773 0.093543 20.820 0.048032 555.03 601.20 2.3504 1.5783 2.0199 215.39 0.26771 8.1941 0.019017
26.375 142.98 0.0057829 268.52 270.78 1.2434 490.20 0.0020400 266.84 268.85 1.2370 1.6728 2.7342 710.01 0.00014161 95.755 0.093078 21.366 0.046804 556.01 602.15 2.3497 1.5847 2.0340 215.01 0.26640 8.2286 0.019167
27.375 146.62 0.0057900 271.19 273.51 1.2523 488.61 0.0020466 269.52 271.59 1.2459 1.6770 2.7456 703.26 0.00028782 94.745 0.092615 21.924 0.045612 556.99 603.10 2.3490 1.5913 2.0484 214.62 0.26512 8.2634 0.019319
28.375 150.33 0.0057906 273.87 276.25 1.2612 487.01 0.0020533 272.21 274.34 1.2549 1.6812 2.7573 696.49 0.00043793 93.742 0.092154 22.495 0.044454 557.96 604.03 2.3483 1.5978 2.0631 214.21 0.26387 8.2987 0.019472
29.375 154.10 0.0057842 276.56 279.00 1.2701 485.40 0.0020601 274.91 277.10 1.2638 1.6854 2.7691 689.72 0.00059212 92.747 0.091695 23.079 0.043329 558.92 604.96 2.3476 1.6044 2.0781 213.80 0.26265 8.3344 0.019628
30.375 157.94 0.0057705 279.25 281.75 1.2790 483.78 0.0020671 277.62 279.87 1.2728 1.6897 2.7813 682.93 0.00075055 91.760 0.091238 23.676 0.042237 559.88 605.88 2.3469 1.6111 2.0935 213.37 0.26147 8.3705 0.019786
31.375 161.86 0.0057489 281.95 284.52 1.2879 482.15 0.0020741 280.34 282.66 1.2818 1.6939 2.7936 676.13 0.00091340 90.779 0.090782 24.287 0.041175 560.84 606.79 2.3462 1.6178 2.1092 212.93 0.26031 8.4071 0.019947
32.375 165.84 0.0057189 284.66 287.29 1.2968 480.50 0.0020812 283.07 285.45 1.2908 1.6983 2.8063 669.32 0.0010809 89.806 0.090328 24.911 0.040143 561.79 607.69 2.3455 1.6246 2.1254 212.48 0.25919 8.4442 0.020110
33.375 169.90 0.0056799 287.38 290.07 1.3057 478.83 0.0020884 285.81 288.26 1.2997 1.7026 2.8192 662.50 0.0012532 88.840 0.089876 25.549 0.039140 562.73 608.58 2.3448 1.6314 2.1419 212.01 0.25809 8.4818 0.020275
34.375 174.02 0.0056313 290.11 292.87 1.3145 477.16 0.0020957 288.56 291.07 1.3087 1.7070 2.8324 655.67 0.0014305 87.880 0.089426 26.202 0.038164 563.67 609.46 2.3440 1.6383 2.1589 211.53 0.25702 8.5199 0.020443
35.375 178.22 0.0055725 292.84 295.66 1.3234 475.47 0.0021032 291.32 293.90 1.3177 1.7114 2.8459 648.82 0.0016131 86.927 0.088977 26.870 0.037216 564.60 610.33 2.3433 1.6452 2.1763 211.04 0.25599 8.5586 0.020613
36.375 182.50 0.0055029 295.58 298.47 1.3323 473.77 0.0021107 294.09 296.74 1.3267 1.7158 2.8597 641.96 0.0018012 85.980 0.088531 27.553 0.036293 565.52 611.19 2.3426 1.6522 2.1942 210.53 0.25498 8.5978 0.020786
37.375 186.84 0.0054217 298.33 301.29 1.3411 472.05 0.0021184 296.87 299.60 1.3357 1.7203 2.8739 635.08 0.0019950 85.040 0.088085 28.252 0.035395 566.44 612.04 2.3419 1.6592 2.2125 210.01 0.25400 8.6376 0.020962
38.375 191.27 0.0053281 301.08 304.12 1.3500 470.31 0.0021262 299.66 302.46 1.3447 1.7248 2.8884 628.19 0.0021949 84.105 0.087642 28.967 0.034522 567.35 612.88 2.3411 1.6663 2.2314 209.47 0.25305 8.6780 0.021141
39.375 195.77 0.0052213 303.85 306.95 1.3589 468.56 0.0021342 302.46 305.34 1.3537 1.7293 2.9033 621.29 0.0024011 83.177 0.087200 29.699 0.033671 568.26 613.70 2.3404 1.6734 2.2508 208.92 0.25213 8.7190 0.021323
40.375 200.34 0.0051005 306.62 309.80 1.3677 466.80 0.0021423 305.27 308.23 1.3627 1.7339 2.9185 614.37 0.0026140 82.254 0.086760 30.447 0.032844 569.15 614.52 2.3396 1.6806 2.2708 208.36 0.25123 8.7608 0.021508
41.375 205.00 0.0049647 309.40 312.65 1.3766 465.01 0.0021505 308.10 311.14 1.3718 1.7385 2.9342 607.43 0.0028338 81.338 0.086322 31.214 0.032037 570.04 615.32 2.3389 1.6879 2.2913 207.78 0.25037 8.8032 0.021696
42.375 209.73 0.0048129 312.19 315.51 1.3854 463.21 0.0021588 310.94 314.06 1.3808 1.7432 2.9502 600.47 0.0030609 80.426 0.085885 31.998 0.031252 570.92 616.11 2.3381 1.6952 2.3125 207.19 0.24953 8.8463 0.021888
43.375 214.54 0.0046440 314.98 318.39 1.3943 461.40 0.0021673 313.79 316.99 1.3899 1.7478 2.9667 593.50 0.0032957 79.520 0.085449 32.800 0.030488 571.79 616.88 2.3373 1.7027 2.3344 206.58 0.24871 8.8902 0.022084
44.375 219.43 0.0044570 317.79 321.27 1.4031 459.56 0.0021760 316.65 319.94 1.3989 1.7525 2.9837 586.51 0.0035386 78.619 0.085015 33.622 0.029742 572.65 617.65 2.3365 1.7101 2.3569 205.96 0.24793 8.9349 0.022283
45.375 224.41 0.0042505 320.60 324.16 1.4120 457.71 0.0021848 319.52 322.90 1.4080 1.7573 3.0012 579.50 0.0037900 77.723 0.084583 34.463 0.029016 573.50 618.40 2.3357 1.7177 2.3802 205.32 0.24717 8.9805 0.022485
46.375 229.46 0.0040233 323.42 327.06 1.4208 455.83 0.0021938 322.41 325.88 1.4171 1.7621 3.0192 572.46 0.0040504 76.832 0.084152 35.325 0.028308 574.34 619.13 2.3349 1.7253 2.4042 204.67 0.24644 9.0269 0.022692
47.375 234.60 0.0037739 326.25 329.97 1.4296 453.94 0.0022029 325.31 328.87 1.4262 1.7669 3.0377 565.41 0.0043202 75.946 0.083723 36.208 0.027618 575.17 619.85 2.3340 1.7329 2.4291 204.00 0.24573 9.0742 0.022903
48.375 239.83 0.0035008 329.09 332.89 1.4385 452.03 0.0022123 328.22 331.88 1.4353 1.7718 3.0569 558.34 0.0046000 75.064 0.083295 37.112 0.026945 576.00 620.55 2.3332 1.7407 2.4548 203.31 0.24505 9.1224 0.023119
49.375 245.13 0.0032023 331.93 335.82 1.4473 450.09 0.0022218 331.15 334.90 1.4445 1.7767 3.0766 551.24 0.0048904 74.186 0.082868 38.039 0.026289 576.81 621.24 2.3323 1.7485 2.4815 202.61 0.24440 9.1716 0.023339
50.375 250.53 0.0028766 334.79 338.76 1.4562 448.13 0.0022315 334.09 337.94 1.4536 1.7817 3.0970 544.13 0.0051920 73.313 0.082442 38.989 0.025648 577.61 621.91 2.3314 1.7564 2.5092 201.89 0.24377 9.2219 0.023564
51.375 256.01 0.0025219 337.65 341.71 1.4650 446.15 0.0022414 337.04 341.00 1.4628 1.7867 3.1181 536.98 0.0055054 72.443 0.082018 39.962 0.025024 578.39 622.56 2.3304 1.7644 2.5379 201.16 0.24317 9.2733 0.023794
52.375 261.57 0.0021360 340.52 344.67 1.4738 444.15 0.0022515 340.01 344.07 1.4720 1.7918 3.1400 529.82 0.0058313 71.577 0.081595 40.961 0.024414 579.17 623.20 2.3295 1.7724 2.5677 200.41 0.24260 9.3258 0.024029
53.375 267.23 0.0017165 343.41 347.64 1.4827 442.12 0.0022618 343.00 347.17 1.4812 1.7969 3.1627 522.62 0.0061705 70.715 0.081174 41.985 0.023818 579.93 623.81 2.3285 1.7805 2.5987 199.63 0.24205 9.3795 0.024270
54.375 272.97 0.0012612 346.30 350.62 1.4915 440.06 0.0022724 346.00 350.28 1.4904 1.8021 3.1862 515.40 0.0065239 69.856 0.080753 43.036 0.023237 580.68 624.41 2.3274 1.7887 2.6310 198.85 0.24154 9.4344 0.024516
55.375 278.81 0.00076719 349.19 353.61 1.5003 437.98 0.0022832 349.02 353.40 1.4997 1.8073 3.2106 508.15 0.0068923 69.001 0.080334 44.114 0.022669 581.41 624.99 2.3264 1.7969 2.6646 198.04 0.24105 9.4907 0.024769
56.375 284.74 0.00023161 352.10 356.61 1.5092 435.87 0.0022943 352.05 356.55 1.5090 1.8126 3.2360 500.87 0.0072767 68.148 0.079915 45.221 0.022114 582.13 625.54 2.3253 1.8052 2.6998 197.22 0.24059 9.5484 0.025028
57.375 316.13 undefined 354.37 359.38 1.5160 435.00 0.0022989 354.37 359.38 1.5160 1.8163 3.2367 499.98 0.0073105 67.813 0.079796 435.00 0.0022989 354.37 359.38 1.5160 1.8163 3.2367 499.98 0.0073105 67.813 0.079796
58.375 365.17 undefined 356.18 361.97 1.5215 435.00 0.0022989 356.18 361.97 1.5215 1.8191 3.2206 503.47 0.0070995 67.833 0.079884 435.00 0.0022989 356.18 361.97 1.5215 1.8191 3.2206 503.47 0.0070995 67.833 0.079884
59.375 414.30 undefined 358.00 364.57 1.5270 435.00 0.0022989 358.00 364.57 1.5270 1.8219 3.2052 506.90 0.0068954 67.853 0.079972 435.00 0.0022989 358.00 364.57 1.5270 1.8219 3.2052 506.90 0.0068954 67.853 0.079972
60.375 463.52 undefined 359.83 367.18 1.5325 435.00 0.0022989 359.83 367.18 1.5325 1.8248 3.1906 510.26 0.0066979 67.874 0.080061 435.00 0.0022989 359.83 367.18 1.5325 1.8248 3.1906 510.26 0.0066979 67.874 0.080061
61.375 512.83 undefined 361.65 369.78 1.5380 435.00 0.0022989 361.65 369.78 1.5380 1.8277 3.1767 513.56 0.0065064 67.894 0.080150 435.00 0.0022989 361.65 369.78 1.5380 1.8277 3.1767 513.56 0.0065064 67.894 0.080150
62.375 562.23 undefined 363.48 372.39 1.5434 435.00 0.0022989 363.48 372.39 1.5434 1.8307 3.1634 516.80 0.0063208 67.914 0.080240 435.00 0.0022989 363.48 372.39 1.5434 1.8307 3.1634 516.80 0.0063208 67.914 0.080240
63.375 611.70 undefined 365.32 375.01 1.5489 435.00 0.0022989 365.32 375.01 1.5489 1.8338 3.1507 519.99 0.0061407 67.935 0.080331 435.00 0.0022989 365.32 375.01 1.5489 1.8338 3.1507 519.99 0.0061407 67.935 0.080331
64.375 661.25 undefined 367.15 377.63 1.5543 435.00 0.0022989 367.15 377.63 1.5543 1.8369 3.1386 523.12 0.0059659 67.955 0.080422 435.00 0.0022989 367.15 377.63 1.5543 1.8369 3.1386 523.12 0.0059659 67.955 0.080422
65.375 710.87 undefined 368.99 380.26 1.5598 435.00 0.0022989 368.99 380.26 1.5598 1.8400 3.1270 526.21 0.0057960 67.976 0.080514 435.00 0.0022989 368.99 380.26 1.5598 1.8400 3.1270 526.21 0.0057960 67.976 0.080514
66.375 760.56 undefined 370.83 382.89 1.5652 435.00 0.0022989 370.83 382.89 1.5652 1.8432 3.1160 529.24 0.0056308 67.996 0.080607 435.00 0.0022989 370.83 382.89 1.5652 1.8432 3.1160 529.24 0.0056308 67.996 0.080607
67.375 810.31 undefined 372.68 385.52 1.5706 435.00 0.0022989 372.68 385.52 1.5706 1.8464 3.1054 532.23 0.0054701 68.017 0.080700 435.00 0.0022989 372.68 385.52 1.5706 1.8464 3.1054 532.23 0.0054701 68.017 0.080700
68.375 860.13 undefined 374.52 388.16 1.5760 435.00 0.0022989 374.52 388.16 1.5760 1.8497 3.0953 535.17 0.0053137 68.037 0.080793 435.00 0.0022989 374.52 388.16 1.5760 1.8497 3.0953 535.17 0.0053137 68.037 0.080793
69.375 910.01 undefined 376.38 390.80 1.5814 435.00 0.0022989 376.38 390.80 1.5814 1.8531 3.0856 538.08 0.0051614 68.058 0.080887 435.00 0.0022989 376.38 390.80 1.5814 1.8531 3.0856 538.08 0.0051614 68.058 0.080887
70.375 959.94 undefined 378.23 393.45 1.5869 435.00 0.0022989 378.23 393.45 1.5869 1.8564 3.0763 540.94 0.0050131 68.078 0.080982 435.00 0.0022989 378.23 393.45 1.5869 1.8564 3.0763 540.94 0.0050131 68.078 0.080982
71.375 1009.9 undefined 380.09 396.10 1.5923 435.00 0.0022989 380.09 396.10 1.5923 1.8598 3.0675 543.76 0.0048684 68.099 0.081077 435.00 0.0022989 380.09 396.10 1.5923 1.8598 3.0675 543.76 0.0048684 68.099 0.081077
72.375 1060.0 undefined 381.95 398.75 1.5976 435.00 0.0022989 381.95 398.75 1.5976 1.8633 3.0590 546.54 0.0047274 68.119 0.081172 435.00 0.0022989 381.95 398.75 1.5976 1.8633 3.0590 546.54 0.0047274 68.119 0.081172
73.375 1110.1 undefined 383.81 401.41 1.6030 435.00 0.0022989 383.81 401.41 1.6030 1.8667 3.0508 549.29 0.0045898 68.140 0.081268 435.00 0.0022989 383.81 401.41 1.6030 1.8667 3.0508 549.29 0.0045898 68.140 0.081268
74.375 1160.2 undefined 385.68 404.07 1.6084 435.00 0.0022989 385.68 404.07 1.6084 1.8703 3.0430 552.00 0.0044555 68.160 0.081365 435.00 0.0022989 385.68 404.07 1.6084 1.8703 3.0430 552.00 0.0044555 68.160 0.081365
75.375 1210.4 undefined 387.56 406.74 1.6138 435.00 0.0022989 387.56 406.74 1.6138 1.8738 3.0355 554.68 0.0043244 68.181 0.081462 435.00 0.0022989 387.56 406.74 1.6138 1.8738 3.0355 554.68 0.0043244 68.181 0.081462
76.375 1260.6 undefined 389.43 409.41 1.6192 435.00 0.0022989 389.43 409.41 1.6192 1.8774 3.0284 557.32 0.0041963 68.201 0.081559 435.00 0.0022989 389.43 409.41 1.6192 1.8774 3.0284 557.32 0.0041963 68.201 0.081559
77.375 1310.8 undefined 391.31 412.09 1.6245 435.00 0.0022989 391.31 412.09 1.6245 1.8810 3.0215 559.94 0.0040712 68.222 0.081657 435.00 0.0022989 391.31 412.09 1.6245 1.8810 3.0215 559.94 0.0040712 68.222 0.081657
78.375 1361.1 undefined 393.19 414.77 1.6299 435.00 0.0022989 393.19 414.77 1.6299 1.8846 3.0149 562.52 0.0039489 68.243 0.081755 435.00 0.0022989 393.19 414.77 1.6299 1.8846 3.0149 562.52 0.0039489 68.243 0.081755
79.375 1411.5 undefined 395.08 417.45 1.6353 435.00 0.0022989 395.08 417.45 1.6353 1.8883 3.0086 565.08 0.0038294 68.263 0.081854 435.00 0.0022989 395.08 417.45 1.6353 1.8883 3.0086 565.08 0.0038294 68.263 0.081854
80.375 1461.8 undefined 396.97 420.14 1.6406 435.00 0.0022989 396.97 420.14 1.6406 1.8920 3.0026 567.60 0.0037125 68.284 0.081953 435.00 0.0022989 396.97 420.14 1.6406 1.8920 3.0026 567.60 0.0037125 68.284 0.081953
81.375 1512.2 undefined 398.86 422.83 1.6460 435.00 0.0022989 398.86 422.83 1.6460 1.8957 2.9968 570.10 0.0035981 68.305 0.082052 435.00 0.0022989 398.86 422.83 1.6460 1.8957 2.9968 570.10 0.0035981 68.305 0.082052
82.375 1562.7 undefined 400.76 425.53 1.6513 435.00 0.0022989 400.76 425.53 1.6513 1.8994 2.9912 572.58 0.0034862 68.325 0.082152 435.00 0.0022989 400.76 425.53 1.6513 1.8994 2.9912 572.58 0.0034862 68.325 0.082152
83.375 1613.1 undefined 402.66 428.23 1.6567 435.00 0.0022989 402.66 428.23 1.6567 1.9032 2.9859 575.03 0.0033767 68.346 0.082252 435.00 0.0022989 402.66 428.23 1.6567 1.9032 2.9859 575.03 0.0033767 68.346 0.082252
84.375 1663.6 undefined 404.57 430.94 1.6620 435.00 0.0022989 404.57 430.94 1.6620 1.9069 2.9808 577.45 0.0032694 68.367 0.082353 435.00 0.0022989 404.57 430.94 1.6620 1.9069 2.9808 577.45 0.0032694 68.367 0.082353
85.375 1714.1 undefined 406.48 433.65 1.6673 435.00 0.0022989 406.48 433.65 1.6673 1.9107 2.9759 579.85 0.0031644 68.388 0.082454 435.00 0.0022989 406.48 433.65 1.6673 1.9107 2.9759 579.85 0.0031644 68.388 0.082454
86.375 1764.7 undefined 408.39 436.36 1.6726 435.00 0.0022989 408.39 436.36 1.6726 1.9145 2.9713 582.23 0.0030616 68.408 0.082556 435.00 0.0022989 408.39 436.36 1.6726 1.9145 2.9713 582.23 0.0030616 68.408 0.082556
87.375 1815.2 undefined 410.31 439.08 1.6780 435.00 0.0022989 410.31 439.08 1.6780 1.9184 2.9668 584.58 0.0029608 68.429 0.082658 435.00 0.0022989 410.31 439.08 1.6780 1.9184 2.9668 584.58 0.0029608 68.429 0.082658
88.375 1865.8 undefined 412.23 441.80 1.6833 435.00 0.0022989 412.23 441.80 1.6833 1.9222 2.9625 586.91 0.0028621 68.450 0.082760 435.00 0.0022989 412.23 441.80 1.6833 1.9222 2.9625 586.91 0.0028621 68.450 0.082760
89.375 1916.4 undefined 414.15 444.53 1.6886 435.00 0.0022989 414.15 444.53 1.6886 1.9261 2.9584 589.23 0.0027653 68.471 0.082863 435.00 0.0022989 414.15 444.53 1.6886 1.9261 2.9584 589.23 0.0027653 68.471 0.082863
90.375 1967.1 undefined 416.08 447.26 1.6939 435.00 0.0022989 416.08 447.26 1.6939 1.9300 2.9545 591.52 0.0026705 68.491 0.082966 435.00 0.0022989 416.08 447.26 1.6939 1.9300 2.9545 591.52 0.0026705 68.491 0.082966
91.375 2017.7 undefined 418.01 449.99 1.6992 435.00 0.0022989 418.01 449.99 1.6992 1.9338 2.9508 593.79 0.0025775 68.512 0.083069 435.00 0.0022989 418.01 449.99 1.6992 1.9338 2.9508 593.79 0.0025775 68.512 0.083069
92.375 2068.4 undefined 419.95 452.73 1.7045 435.00 0.0022989 419.95 452.73 1.7045 1.9378 2.9472 596.05 0.0024863 68.533 0.083173 435.00 0.0022989 419.95 452.73 1.7045 1.9378 2.9472 596.05 0.0024863 68.533 0.083173
93.375 2119.1 undefined 421.88 455.47 1.7098 435.00 0.0022989 421.88 455.47 1.7098 1.9417 2.9438 598.28 0.0023969 68.554 0.083277 435.00 0.0022989 421.88 455.47 1.7098 1.9417 2.9438 598.28 0.0023969 68.554 0.083277
94.375 2169.8 undefined 423.83 458.22 1.7151 435.00 0.0022989 423.83 458.22 1.7151 1.9456 2.9405 600.50 0.0023091 68.575 0.083381 435.00 0.0022989 423.83 458.22 1.7151 1.9456 2.9405 600.50 0.0023091 68.575 0.083381
95.375 2220.5 undefined 425.78 460.97 1.7204 435.00 0.0022989 425.78 460.97 1.7204 1.9495 2.9374 602.70 0.0022230 68.596 0.083486 435.00 0.0022989 425.78 460.97 1.7204 1.9495 2.9374 602.70 0.0022230 68.596 0.083486
96.375 2271.2 undefined 427.73 463.73 1.7257 435.00 0.0022989 427.73 463.73 1.7257 1.9535 2.9345 604.88 0.0021386 68.617 0.083591 435.00 0.0022989 427.73 463.73 1.7257 1.9535 2.9345 604.88 0.0021386 68.617 0.083591
97.375 2321.9 undefined 429.68 466.49 1.7310 435.00 0.0022989 429.68 466.49 1.7310 1.9575 2.9317 607.04 0.0020557 68.637 0.083697 435.00 0.0022989 429.68 466.49 1.7310 1.9575 2.9317 607.04 0.0020557 68.637 0.083697
98.375 2372.7 undefined 431.64 469.25 1.7363 435.00 0.0022989 431.64 469.25 1.7363 1.9614 2.9290 609.19 0.0019743 68.658 0.083803 435.00 0.0022989 431.64 469.25 1.7363 1.9614 2.9290 609.19 0.0019743 68.658 0.083803
99.375 2423.4 undefined 433.61 472.02 1.7415 435.00 0.0022989 433.61 472.02 1.7415 1.9654 2.9265 611.33 0.0018944 68.679 0.083909 435.00 0.0022989 433.61 472.02 1.7415 1.9654 2.9265 611.33 0.0018944 68.679 0.083909
100.38 2474.2 undefined 435.57 474.79 1.7468 435.00 0.0022989 435.57 474.79 1.7468 1.9694 2.9240 613.45 0.0018160 68.700 0.084016 435.00 0.0022989 435.57 474.79 1.7468 1.9694 2.9240 613.45 0.0018160 68.700 0.084016
101.38 2525.0 undefined 437.54 477.57 1.7521 435.00 0.0022989 437.54 477.57 1.7521 1.9734 2.9218 615.55 0.0017390 68.721 0.084123 435.00 0.0022989 437.54 477.57 1.7521 1.9734 2.9218 615.55 0.0017390 68.721 0.084123
102.38 2575.8 undefined 439.52 480.35 1.7574 435.00 0.0022989 439.52 480.35 1.7574 1.9774 2.9196 617.64 0.0016633 68.742 0.084230 435.00 0.0022989 439.52 480.35 1.7574 1.9774 2.9196 617.64 0.0016633 68.742 0.084230
103.38 2626.6 undefined 441.50 483.13 1.7626 435.00 0.0022989 441.50 483.13 1.7626 1.9814 2.9175 619.71 0.0015890 68.763 0.084338 435.00 0.0022989 441.50 483.13 1.7626 1.9814 2.9175 619.71 0.0015890 68.763 0.084338
104.38 2677.4 undefined 443.48 485.92 1.7679 435.00 0.0022989 443.48 485.92 1.7679 1.9854 2.9156 621.78 0.0015161 68.784 0.084446 435.00 0.0022989 443.48 485.92 1.7679 1.9854 2.9156 621.78 0.0015161 68.784 0.084446
105.38 2728.2 undefined 445.47 488.71 1.7731 435.00 0.0022989 445.47 488.71 1.7731 1.9894 2.9138 623.82 0.0014444 68.805 0.084554 435.00 0.0022989 445.47 488.71 1.7731 1.9894 2.9138 623.82 0.0014444 68.805 0.084554
106.38 2779.0 undefined 447.46 491.51 1.7784 435.00 0.0022989 447.46 491.51 1.7784 1.9935 2.9120 625.86 0.0013739 68.826 0.084663 435.00 0.0022989 447.46 491.51 1.7784 1.9935 2.9120 625.86 0.0013739 68.826 0.084663
107.38 2829.9 undefined 449.46 494.31 1.7836 435.00 0.0022989 449.46 494.31 1.7836 1.9975 2.9104 627.88 0.0013047 68.847 0.084772 435.00 0.0022989 449.46 494.31 1.7836 1.9975 2.9104 627.88 0.0013047 68.847 0.084772
108.38 2880.7 undefined 451.46 497.12 1.7889 435.00 0.0022989 451.46 497.12 1.7889 2.0015 2.9089 629.88 0.0012366 68.868 0.084881 435.00 0.0022989 451.46 497.12 1.7889 2.0015 2.9089 629.88 0.0012366 68.868 0.084881
109.38 2931.5 undefined 453.46 499.93 1.7941 435.00 0.0022989 453.46 499.93 1.7941 2.0056 2.9075 631.88 0.0011697 68.889 0.084991 435.00 0.0022989 453.46 499.93 1.7941 2.0056 2.9075 631.88 0.0011697 68.889 0.084991
110.38 2982.4 undefined 455.47 502.74 1.7994 435.00 0.0022989 455.47 502.74 1.7994 2.0096 2.9062 633.86 0.0011040 68.910 0.085101 435.00 0.0022989 455.47 502.74 1.7994 2.0096 2.9062 633.86 0.0011040 68.910 0.085101
111.38 3033.2 undefined 457.48 505.56 1.8046 435.00 0.0022989 457.48 505.56 1.8046 2.0137 2.9049 635.83 0.0010394 68.931 0.085212 435.00 0.0022989 457.48 505.56 1.8046 2.0137 2.9049 635.83 0.0010394 68.931 0.085212
112.38 3084.1 undefined 459.50 508.38 1.8099 435.00 0.0022989 459.50 508.38 1.8099 2.0177 2.9038 637.79 0.00097580 68.952 0.085322 435.00 0.0022989 459.50 508.38 1.8099 2.0177 2.9038 637.79 0.00097580 68.952 0.085322
113.38 3134.9 undefined 461.52 511.20 1.8151 435.00 0.0022989 461.52 511.20 1.8151 2.0218 2.9027 639.74 0.00091331 68.973 0.085433 435.00 0.0022989 461.52 511.20 1.8151 2.0218 2.9027 639.74 0.00091331 68.973 0.085433
114.38 3185.8 undefined 463.54 514.03 1.8203 435.00 0.0022989 463.54 514.03 1.8203 2.0258 2.9017 641.68 0.00085185 68.994 0.085545 435.00 0.0022989 463.54 514.03 1.8203 2.0258 2.9017 641.68 0.00085185 68.994 0.085545
115.38 3236.6 undefined 465.57 516.87 1.8255 435.00 0.0022989 465.57 516.87 1.8255 2.0299 2.9009 643.60 0.00079140 69.015 0.085656 435.00 0.0022989 465.57 516.87 1.8255 2.0299 2.9009 643.60 0.00079140 69.015 0.085656
116.38 3287.5 undefined 467.60 519.71 1.8308 435.00 0.0022989 467.60 519.71 1.8308 2.0340 2.9000 645.52 0.00073195 69.036 0.085768 435.00 0.0022989 467.60 519.71 1.8308 2.0340 2.9000 645.52 0.00073195 69.036 0.085768
117.38 3338.4 undefined 469.63 522.55 1.8360 435.00 0.0022989 469.63 522.55 1.8360 2.0380 2.8993 647.42 0.00067346 69.057 0.085881 435.00 0.0022989 469.63 522.55 1.8360 2.0380 2.8993 647.42 0.00067346 69.057 0.085881
118.38 3389.2 undefined 471.67 525.39 1.8412 435.00 0.0022989 471.67 525.39 1.8412 2.0421 2.8987 649.32 0.00061593 69.078 0.085993 435.00 0.0022989 471.67 525.39 1.8412 2.0421 2.8987 649.32 0.00061593 69.078 0.085993
119.38 3440.1 undefined 473.72 528.24 1.8464 435.00 0.0022989 473.72 528.24 1.8464 2.0462 2.8981 651.20 0.00055932 69.099 0.086106 435.00 0.0022989 473.72 528.24 1.8464 2.0462 2.8981 651.20 0.00055932 69.099 0.086106
120.38 3490.9 undefined 475.77 531.10 1.8516 435.00 0.0022989 475.77 531.10 1.8516 2.0502 2.8976 653.07 0.00050361 69.120 0.086220 435.00 0.0022989 475.77 531.10 1.8516 2.0502 2.8976 653.07 0.00050361 69.120 0.086220
121.38 3541.8 undefined 477.82 533.96 1.8568 435.00 0.0022989 477.82 533.96 1.8568 2.0543 2.8971 654.93 0.00044880 69.141 0.086333 435.00 0.0022989 477.82 533.96 1.8568 2.0543 2.8971 654.93 0.00044880 69.141 0.086333
122.38 3592.7 undefined 479.88 536.82 1.8620 435.00 0.0022989 479.88 536.82 1.8620 2.0584 2.8968 656.79 0.00039486 69.163 0.086447 435.00 0.0022989 479.88 536.82 1.8620 2.0584 2.8968 656.79 0.00039486 69.163 0.086447
123.38 3643.5 undefined 481.94 539.69 1.8672 435.00 0.0022989 481.94 539.69 1.8672 2.0625 2.8964 658.63 0.00034176 69.184 0.086562 435.00 0.0022989 481.94 539.69 1.8672 2.0625 2.8964 658.63 0.00034176 69.184 0.086562
124.38 3694.4 undefined 484.00 542.56 1.8724 435.00 0.0022989 484.00 542.56 1.8724 2.0665 2.8962 660.47 0.00028950 69.205 0.086676 435.00 0.0022989 484.00 542.56 1.8724 2.0665 2.8962 660.47 0.00028950 69.205 0.086676
125.38 3745.2 undefined 486.07 545.43 1.8776 435.00 0.0022989 486.07 545.43 1.8776 2.0706 2.8960 662.29 0.00023806 69.226 0.086791 435.00 0.0022989 486.07 545.43 1.8776 2.0706 2.8960 662.29 0.00023806 69.226 0.086791
126.38 3796.1 undefined 488.14 548.31 1.8828 435.00 0.0022989 488.14 548.31 1.8828 2.0747 2.8959 664.11 0.00018741 69.247 0.086906 435.00 0.0022989 488.14 548.31 1.8828 2.0747 2.8959 664.11 0.00018741 69.247 0.086906
127.38 3846.9 undefined 490.22 551.19 1.8880 435.00 0.0022989 490.22 551.19 1.8880 2.0788 2.8959 665.91 0.00013755 69.268 0.087022 435.00 0.0022989 490.22 551.19 1.8880 2.0788 2.8959 665.91 0.00013755 69.268 0.087022
128.38 3897.7 undefined 492.30 554.08 1.8932 435.00 0.0022989 492.30 554.08 1.8932 2.0828 2.8959 667.71 8.8459e-05 69.289 0.087138 435.00 0.0022989 492.30 554.08 1.8932 2.0828 2.8959 667.71 8.8459e-05 69.289 0.087138
129.38 3948.6 undefined 494.38 556.97 1.8984 435.00 0.0022989 494.38 556.97 1.8984 2.0869 2.8959 669.50 4.0117e-05 69.310 0.087254 435.00 0.0022989 494.38 556.97 1.8984 2.0869 2.8959 669.50 4.0117e-05 69.310 0.087254
130.38 3999.4 undefined 496.47 559.86 1.9036 435.00 0.0022989 496.47 559.86 1.9036 2.0910 2.8960 671.28 -7.4891e-06 69.332 0.087370 435.00 0.0022989 496.47 559.86 1.9036 2.0910 2.8960 671.28 -7.4891e-06 69.332 0.087370
131.38 4050.2 undefined 498.57 562.76 1.9088 435.00 0.0022989 498.57 562.76 1.9088 2.0950 2.8962 673.05 -5.4373e-05 69.353 0.087487 435.00 0.0022989 498.57 562.76 1.9088 2.0950 2.8962 673.05 -5.4373e-05 69.353 0.087487
132.38 4101.1 undefined 500.66 565.67 1.9139 435.00 0.0022989 500.66 565.67 1.9139 2.0991 2.8964 674.82 -0.00010055 69.374 0.087604 435.00 0.0022989 500.66 565.67 1.9139 2.0991 2.8964 674.82 -0.00010055 69.374 0.087604
133.38 4151.9 undefined 502.76 568.57 1.9191 435.00 0.0022989 502.76 568.57 1.9191 2.1032 2.8967 676.57 -0.00014603 69.395 0.087722 435.00 0.0022989 502.76 568.57 1.9191 2.1032 2.8967 676.57 -0.00014603 69.395 0.087722
134.38 4202.7 undefined 504.87 571.48 1.9243 435.00 0.0022989 504.87 571.48 1.9243 2.1073 2.8970 678.32 -0.00019083 69.416 0.087839 435.00 0.0022989 504.87 571.48 1.9243 2.1073 2.8970 678.32 -0.00019083 69.416 0.087839
135.38 4253.5 undefined 506.98 574.40 1.9295 435.00 0.0022989 506.98 574.40 1.9295 2.1113 2.8974 680.06 -0.00023497 69.437 0.087957 435.00 0.0022989 506.98 574.40 1.9295 2.1113 2.8974 680.06 -0.00023497 69.437 0.087957
136.38 4304.3 undefined 509.09 577.32 1.9346 435.00 0.0022989 509.09 577.32 1.9346 2.1154 2.8978 681.79 -0.00027845 69.459 0.088076 435.00 0.0022989 509.09 577.32 1.9346 2.1154 2.8978 681.79 -0.00027845 69.459 0.088076
137.38 4355.1 undefined 511.21 580.24 1.9398 435.00 0.0022989 511.21 580.24 1.9398 2.1195 2.8982 683.51 -0.00032129 69.480 0.088194 435.00 0.0022989 511.21 580.24 1.9398 2.1195 2.8982 683.51 -0.00032129 69.480 0.088194
138.38 4405.9 undefined 513.33 583.16 1.9450 435.00 0.0022989 513.33 583.16 1.9450 2.1235 2.8988 685.23 -0.00036350 69.501 0.088313 435.00 0.0022989 513.33 583.16 1.9450 2.1235 2.8988 685.23 -0.00036350 69.501 0.088313
139.38 4456.7 undefined 515.46 586.10 1.9501 435.00 0.0022989 515.46 586.10 1.9501 2.1276 2.8993 686.94 -0.00040509 69.522 0.088433 435.00 0.0022989 515.46 586.10 1.9501 2.1276 2.8993 686.94 -0.00040509 69.522 0.088433
140.38 4507.4 undefined 517.59 589.03 1.9553 435.00 0.0022989 517.59 589.03 1.9553 2.1316 2.8999 688.64 -0.00044608 69.543 0.088552 435.00 0.0022989 517.59 589.03 1.9553 2.1316 2.8999 688.64 -0.00044608 69.543 0.088552
141.38 4558.2 undefined 519.72 591.97 1.9604 435.00 0.0022989 519.72 591.97 1.9604 2.1357 2.9005 690.33 -0.00048647 69.565 0.088672 435.00 0.0022989 519.72 591.97 1.9604 2.1357 2.9005 690.33 -0.00048647 69.565 0.088672
142.38 4609.0 undefined 521.86 594.91 1.9656 435.00 0.0022989 521.86 594.91 1.9656 2.1398 2.9012 692.02 -0.00052628 69.586 0.088792 435.00 0.0022989 521.86 594.91 1.9656 2.1398 2.9012 692.02 -0.00052628 69.586 0.088792
143.38 4659.7 undefined 524.00 597.86 1.9707 435.00 0.0022989 524.00 597.86 1.9707 2.1438 2.9019 693.69 -0.00056552 69.607 0.088913 435.00 0.0022989 524.00 597.86 1.9707 2.1438 2.9019 693.69 -0.00056552 69.607 0.088913
144.38 4710.5 undefined 526.15 600.81 1.9759 435.00 0.0022989 526.15 600.81 1.9759 2.1479 2.9027 695.37 -0.00060420 69.628 0.089034 435.00 0.0022989 526.15 600.81 1.9759 2.1479 2.9027 695.37 -0.00060420 69.628 0.089034
145.38 4761.2 undefined 528.30 603.76 1.9810 435.00 0.0022989 528.30 603.76 1.9810 2.1519 2.9035 697.03 -0.00064232 69.649 0.089155 435.00 0.0022989 528.30 603.76 1.9810 2.1519 2.9035 697.03 -0.00064232 69.649 0.089155
146.38 4811.9 undefined 530.45 606.72 1.9861 435.00 0.0022989 530.45 606.72 1.9861 2.1560 2.9043 698.69 -0.00067991 69.671 0.089276 435.00 0.0022989 530.45 606.72 1.9861 2.1560 2.9043 698.69 -0.00067991 69.671 0.089276
147.38 4862.7 undefined 532.61 609.68 1.9913 435.00 0.0022989 532.61 609.68 1.9913 2.1600 2.9052 700.34 -0.00071696 69.692 0.089398 435.00 0.0022989 532.61 609.68 1.9913 2.1600 2.9052 700.34 -0.00071696 69.692 0.089398
148.38 4913.4 undefined 534.77 612.65 1.9964 435.00 0.0022989 534.77 612.65 1.9964 2.1641 2.9061 701.98 -0.00075349 69.713 0.089520 435.00 0.0022989 534.77 612.65 1.9964 2.1641 2.9061 701.98 -0.00075349 69.713 0.089520
149.38 4964.1 undefined 536.94 615.62 2.0016 435.00 0.0022989 536.94 615.62 2.0016 2.1681 2.9071 703.62 -0.00078951 69.734 0.089642 435.00 0.0022989 536.94 615.62 2.0016 2.1681 2.9071 703.62 -0.00078951 69.734 0.089642
150.38 5014.8 undefined 539.11 618.59 2.0067 435.00 0.0022989 539.11 618.59 2.0067 2.1722 2.9080 705.25 -0.00082503 69.755 0.089765 435.00 0.0022989 539.11 618.59 2.0067 2.1722 2.9080 705.25 -0.00082503 69.755 0.089765
151.38 5065.5 undefined 541.28 621.57 2.0118 435.00 0.0022989 541.28 621.57 2.0118 2.1762 2.9090 706.87 -0.00086005 69.777 0.089888 435.00 0.0022989 541.28 621.57 2.0118 2.1762 2.9090 706.87 -0.00086005 69.777 0.089888
152.38 5116.1 undefined 543.46 624.55 2.0169 435.00 0.0022989 543.46 624.55 2.0169 2.1802 2.9101 708.49 -0.00089458 69.798 0.090011 435.00 0.0022989 543.46 624.55 2.0169 2.1802 2.9101 708.49 -0.00089458 69.798 0.090011
153.38 5166.8 undefined 545.64 627.53 2.0221 435.00 0.0022989 545.64 627.53 2.0221 2.1843 2.9112 710.10 -0.00092864 69.819 0.090135 435.00 0.0022989 545.64 627.53 2.0221 2.1843 2.9112 710.10 -0.00092864 69.819 0.090135
154.38 5217.5 undefined 547.83 630.52 2.0272 435.00 0.0022989 547.83 630.52 2.0272 2.1883 2.9123 711.71 -0.00096223 69.840 0.090258 435.00 0.0022989 547.83 630.52 2.0272 2.1883 2.9123 711.71 -0.00096223 69.840 0.090258
155.38 5268.1 undefined 550.02 633.52 2.0323 435.00 0.0022989 550.02 633.52 2.0323 2.1923 2.9134 713.31 -0.00099536 69.862 0.090383 435.00 0.0022989 550.02 633.52 2.0323 2.1923 2.9134 713.31 -0.00099536 69.862 0.090383
156.38 5318.7 undefined 552.21 636.51 2.0374 435.00 0.0022989 552.21 636.51 2.0374 2.1964 2.9146 714.90 -0.0010280 69.883 0.090507 435.00 0.0022989 552.21 636.51 2.0374 2.1964 2.9146 714.90 -0.0010280 69.883 0.090507
157.38 5369.4 undefined 554.41 639.51 2.0425 435.00 0.0022989 554.41 639.51 2.0425 2.2004 2.9158 716.48 -0.0010603 69.904 0.090632 435.00 0.0022989 554.41 639.51 2.0425 2.2004 2.9158 716.48 -0.0010603 69.904 0.090632
158.38 5420.0 undefined 556.61 642.52 2.0476 435.00 0.0022989 556.61 642.52 2.0476 2.2044 2.9170 718.07 -0.0010921 69.925 0.090757 435.00 0.0022989 556.61 642.52 2.0476 2.2044 2.9170 718.07 -0.0010921 69.925 0.090757
159.38 5470.6 undefined 558.82 645.53 2.0527 435.00 0.0022989 558.82 645.53 2.0527 2.2084 2.9182 719.64 -0.0011234 69.947 0.090882 435.00 0.0022989 558.82 645.53 2.0527 2.2084 2.9182 719.64 -0.0011234 69.947 0.090882
160.38 5521.2 undefined 561.03 648.54 2.0578 435.00 0.0022989 561.03 648.54 2.0578 2.2124 2.9195 721.21 -0.0011544 69.968 0.091008 435.00 0.0022989 561.03 648.54 2.0578 2.2124 2.9195 721.21 -0.0011544 69.968 0.091008
161.38 5571.8 undefined 563.24 651.56 2.0629 435.00 0.0022989 563.24 651.56 2.0629 2.2164 2.9208 722.77 -0.0011849 69.989 0.091134 435.00 0.0022989 563.24 651.56 2.0629 2.2164 2.9208 722.77 -0.0011849 69.989 0.091134
162.38 5622.3 undefined 565.46 654.58 2.0680 435.00 0.0022989 565.46 654.58 2.0680 2.2205 2.9222 724.33 -0.0012150 70.010 0.091260 435.00 0.0022989 565.46 654.58 2.0680 2.2205 2.9222 724.33 -0.0012150 70.010 0.091260
163.38 5672.9 undefined 567.68 657.60 2.0731 435.00 0.0022989 567.68 657.60 2.0731 2.2245 2.9235 725.88 -0.0012448 70.032 0.091386 435.00 0.0022989 567.68 657.60 2.0731 2.2245 2.9235 725.88 -0.0012448 70.032 0.091386
164.38 5723.4 undefined 569.91 660.63 2.0782 435.00 0.0022989 569.91 660.63 2.0782 2.2285 2.9249 727.42 -0.0012741 70.053 0.091513 435.00 0.0022989 569.91 660.63 2.0782 2.2285 2.9249 727.42 -0.0012741 70.053 0.091513
165.38 5774.0 undefined 572.14 663.66 2.0833 435.00 0.0022989 572.14 663.66 2.0833 2.2325 2.9263 728.96 -0.0013030 70.074 0.091640 435.00 0.0022989 572.14 663.66 2.0833 2.2325 2.9263 728.96 -0.0013030 70.074 0.091640
166.38 5824.5 undefined 574.38 666.69 2.0884 435.00 0.0022989 574.38 666.69 2.0884 2.2365 2.9277 730.50 -0.0013316 70.095 0.091768 435.00 0.0022989 574.38 666.69 2.0884 2.2365 2.9277 730.50 -0.0013316 70.095 0.091768
167.38 5875.0 undefined 576.61 669.73 2.0935 435.00 0.0022989 576.61 669.73 2.0935 2.2404 2.9292 732.03 -0.0013598 70.117 0.091896 435.00 0.0022989 576.61 669.73 2.0935 2.2404 2.9292 732.03 -0.0013598 70.117 0.091896
168.38 5925.5 undefined 578.86 672.78 2.0986 435.00 0.0022989 578.86 672.78 2.0986 2.2444 2.9307 733.55 -0.0013876 70.138 0.092024 435.00 0.0022989 578.86 672.78 2.0986 2.2444 2.9307 733.55 -0.0013876 70.138 0.092024
169.38 5976.0 undefined 581.10 675.82 2.1037 435.00 0.0022989 581.10 675.82 2.1037 2.2484 2.9322 735.07 -0.0014150 70.159 0.092152 435.00 0.0022989 581.10 675.82 2.1037 2.2484 2.9322 735.07 -0.0014150 70.159 0.092152
170.38 6026.5 undefined 583.35 678.87 2.1088 435.00 0.0022989 583.35 678.87 2.1088 2.2524 2.9337 736.58 -0.0014421 70.180 0.092280 435.00 0.0022989 583.35 678.87 2.1088 2.2524 2.9337 736.58 -0.0014421 70.180 0.092280
171.38 6076.9 undefined 585.61 681.93 2.1138 435.00 0.0022989 585.61 681.93 2.1138 2.2564 2.9353 738.09 -0.0014689 70.202 0.092409 435.00 0.0022989 585.61 681.93 2.1138 2.2564 2.9353 738.09 -0.0014689 70.202 0.092409
172.38 6127.4 undefined 587.87 684.99 2.1189 435.00 0.0022989 587.87 684.99 2.1189 2.2604 2.9368 739.59 -0.0014953 70.223 0.092539 435.00 0.0022989 587.87 684.99 2.1189 2.2604 2.9368 739.59 -0.0014953 70.223 0.092539
173.38 6177.8 undefined 590.13 688.05 2.1240 435.00 0.0022989 590.13 688.05 2.1240 2.2643 2.9384 741.09 -0.0015213 70.244 0.092668 435.00 0.0022989 590.13 688.05 2.1240 2.2643 2.9384 741.09 -0.0015213 70.244 0.092668
174.38 6228.2 undefined 592.39 691.11 2.1290 435.00 0.0022989 592.39 691.11 2.1290 2.2683 2.9400 742.58 -0.0015471 70.265 0.092798 435.00 0.0022989 592.39 691.11 2.1290 2.2683 2.9400 742.58 -0.0015471 70.265 0.092798
175.38 6278.6 undefined 594.67 694.18 2.1341 435.00 0.0022989 594.67 694.18 2.1341 2.2723 2.9416 744.07 -0.0015724 70.287 0.092928 435.00 0.0022989 594.67 694.18 2.1341 2.2723 2.9416 744.07 -0.0015724 70.287 0.092928
176.38 6329.0 undefined 596.94 697.25 2.1392 435.00 0.0022989 596.94 697.25 2.1392 2.2762 2.9433 745.55 -0.0015975 70.308 0.093058 435.00 0.0022989 596.94 697.25 2.1392 2.2762 2.9433 745.55 -0.0015975 70.308 0.093058
177.38 6379.4 undefined 599.22 700.33 2.1442 435.00 0.0022989 599.22 700.33 2.1442 2.2802 2.9450 747.03 -0.0016223 70.329 0.093189 435.00 0.0022989 599.22 700.33 2.1442 2.2802 2.9450 747.03 -0.0016223 70.329 0.093189
178.38 6429.8 undefined 601.50 703.41 2.1493 435.00 0.0022989 601.50 703.41 2.1493 2.2842 2.9466 748.50 -0.0016467 70.350 0.093320 435.00 0.0022989 601.50 703.41 2.1493 2.2842 2.9466 748.50 -0.0016467 70.350 0.093320
179.38 6480.1 undefined 603.79 706.50 2.1544 435.00 0.0022989 603.79 706.50 2.1544 2.2881 2.9483 749.96 -0.0016708 70.371 0.093451 435.00 0.0022989 603.79 706.50 2.1544 2.2881 2.9483 749.96 -0.0016708 70.371 0.093451
180.38 6530.5 undefined 606.08 709.58 2.1594 435.00 0.0022989 606.08 709.58 2.1594 2.2921 2.9501 751.43 -0.0016947 70.393 0.093583 435.00 0.0022989 606.08 709.58 2.1594 2.2921 2.9501 751.43 -0.0016947 70.393 0.093583
181.38 6580.8 undefined 608.37 712.68 2.1645 435.00 0.0022989 608.37 712.68 2.1645 2.2960 2.9518 752.88 -0.0017182 70.414 0.093715 435.00 0.0022989 608.37 712.68 2.1645 2.2960 2.9518 752.88 -0.0017182 70.414 0.093715
182.38 6631.1 undefined 610.67 715.77 2.1695 435.00 0.0022989 610.67 715.77 2.1695 2.2999 2.9536 754.34 -0.0017414 70.435 0.093847 435.00 0.0022989 610.67 715.77 2.1695 2.2999 2.9536 754.34 -0.0017414 70.435 0.093847
183.38 6681.4 undefined 612.97 718.87 2.1746 435.00 0.0022989 612.97 718.87 2.1746 2.3039 2.9553 755.79 -0.0017644 70.456 0.093979 435.00 0.0022989 612.97 718.87 2.1746 2.3039 2.9553 755.79 -0.0017644 70.456 0.093979
184.38 6731.7 undefined 615.28 721.97 2.1796 435.00 0.0022989 615.28 721.97 2.1796 2.3078 2.9571 757.23 -0.0017870 70.478 0.094112 435.00 0.0022989 615.28 721.97 2.1796 2.3078 2.9571 757.23 -0.0017870 70.478 0.094112
185.38 6782.0 undefined 617.59 725.08 2.1847 435.00 0.0022989 617.59 725.08 2.1847 2.3117 2.9589 758.67 -0.0018094 70.499 0.094245 435.00 0.0022989 617.59 725.08 2.1847 2.3117 2.9589 758.67 -0.0018094 70.499 0.094245
186.38 6832.2 undefined 619.90 728.19 2.1897 435.00 0.0022989 619.90 728.19 2.1897 2.3157 2.9608 760.10 -0.0018315 70.520 0.094378 435.00 0.0022989 619.90 728.19 2.1897 2.3157 2.9608 760.10 -0.0018315 70.520 0.094378
187.38 6882.5 undefined 622.22 731.30 2.1947 435.00 0.0022989 622.22 731.30 2.1947 2.3196 2.9626 761.53 -0.0018533 70.541 0.094512 435.00 0.0022989 622.22 731.30 2.1947 2.3196 2.9626 761.53 -0.0018533 70.541 0.094512
188.38 6932.7 undefined 624.54 734.42 2.1998 435.00 0.0022989 624.54 734.42 2.1998 2.3235 2.9644 762.96 -0.0018748 70.563 0.094646 435.00 0.0022989 624.54 734.42 2.1998 2.3235 2.9644 762.96 -0.0018748 70.563 0.094646
189.38 6982.9 undefined 626.86 737.54 2.2048 435.00 0.0022989 626.86 737.54 2.2048 2.3274 2.9663 764.38 -0.0018961 70.584 0.094780 435.00 0.0022989 626.86 737.54 2.2048 2.3274 2.9663 764.38 -0.0018961 70.584 0.094780
190.38 7033.1 undefined 629.19 740.67 2.2098 435.00 0.0022989 629.19 740.67 2.2098 2.3313 2.9682 765.80 -0.0019172 70.605 0.094914 435.00 0.0022989 629.19 740.67 2.2098 2.3313 2.9682 765.80 -0.0019172 70.605 0.094914
191.38 7083.3 undefined 631.53 743.80 2.2149 435.00 0.0022989 631.53 743.80 2.2149 2.3353 2.9701 767.21 -0.0019379 70.626 0.095049 435.00 0.0022989 631.53 743.80 2.2149 2.3353 2.9701 767.21 -0.0019379 70.626 0.095049
192.38 7133.5 undefined 633.86 746.93 2.2199 435.00 0.0022989 633.86 746.93 2.2199 2.3392 2.9720 768.62 -0.0019584 70.647 0.095184 435.00 0.0022989 633.86 746.93 2.2199 2.3392 2.9720 768.62 -0.0019584 70.647 0.095184
193.38 7183.6 undefined 636.20 750.07 2.2249 435.00 0.0022989 636.20 750.07 2.2249 2.3431 2.9739 770.02 -0.0019787 70.669 0.095319 435.00 0.0022989 636.20 750.07 2.2249 2.3431 2.9739 770.02 -0.0019787 70.669 0.095319
194.38 7233.8 undefined 638.55 753.21 2.2299 435.00 0.0022989 638.55 753.21 2.2299 2.3470 2.9759 771.42 -0.0019987 70.690 0.095455 435.00 0.0022989 638.55 753.21 2.2299 2.3470 2.9759 771.42 -0.0019987 70.690 0.095455
195.38 7283.9 undefined 640.90 756.35 2.2349 435.00 0.0022989 640.90 756.35 2.2349 2.3508 2.9778 772.81 -0.0020185 70.711 0.095591 435.00 0.0022989 640.90 756.35 2.2349 2.3508 2.9778 772.81 -0.0020185 70.711 0.095591
196.38 7334.0 undefined 643.25 759.50 2.2400 435.00 0.0022989 643.25 759.50 2.2400 2.3547 2.9798 774.20 -0.0020380 70.732 0.095727 435.00 0.0022989 643.25 759.50 2.2400 2.3547 2.9798 774.20 -0.0020380 70.732 0.095727
197.38 7384.1 undefined 645.61 762.65 2.2450 435.00 0.0022989 645.61 762.65 2.2450 2.3586 2.9818 775.59 -0.0020573 70.753 0.095863 435.00 0.0022989 645.61 762.65 2.2450 2.3586 2.9818 775.59 -0.0020573 70.753 0.095863
198.38 7434.2 undefined 647.97 765.80 2.2500 435.00 0.0022989 647.97 765.80 2.2500 2.3625 2.9838 776.97 -0.0020764 70.775 0.096000 435.00 0.0022989 647.97 765.80 2.2500 2.3625 2.9838 776.97 -0.0020764 70.775 0.096000
199.38 7484.2 undefined 650.33 768.96 2.2550 435.00 0.0022989 650.33 768.96 2.2550 2.3664 2.9858 778.35 -0.0020952 70.796 0.096137 435.00 0.0022989 650.33 768.96 2.2550 2.3664 2.9858 778.35 -0.0020952 70.796 0.096137
200.38 7534.3 undefined 652.70 772.12 2.2600 435.00 0.0022989 652.70 772.12 2.2600 2.3702 2.9878 779.73 -0.0021139 70.817 0.096274 435.00 0.0022989 652.70 772.12 2.2600 2.3702 2.9878 779.73 -0.0021139 70.817 0.096274
201.38 7584.3 undefined 655.07 775.29 2.2650 435.00 0.0022989 655.07 775.29 2.2650 2.3741 2.9898 781.10 -0.0021323 70.838 0.096412 435.00 0.0022989 655.07 775.29 2.2650 2.3741 2.9898 781.10 -0.0021323 70.838 0.096412
202.38 7634.3 undefined 657.45 778.45 2.2700 435.00 0.0022989 657.45 778.45 2.2700 2.3780 2.9918 782.47 -0.0021504 70.859 0.096550 435.00 0.0022989 657.45 778.45 2.2700 2.3780 2.9918 782.47 -0.0021504 70.859 0.096550
203.38 7684.3 undefined 659.83 781.63 2.2750 435.00 0.0022989 659.83 781.63 2.2750 2.3818 2.9939 783.83 -0.0021684 70.881 0.096690 435.00 0.0022989 659.83 781.63 2.2750 2.3818 2.9939 783.83 -0.0021684 70.881 0.096690
204.38 7734.3 undefined 662.21 784.80 2.2800 435.00 0.0022989 662.21 784.80 2.2800 2.3857 2.9959 785.19 -0.0021861 70.902 0.096832 435.00 0.0022989 662.21 784.80 2.2800 2.3857 2.9959 785.19 -0.0021861 70.902 0.096832
205.38 7784.3 undefined 664.60 787.98 2.2850 435.00 0.0022989 664.60 787.98 2.2850 2.3896 2.9980 786.54 -0.0022037 70.923 0.096974 435.00 0.0022989 664.60 787.98 2.2850 2.3896 2.9980 786.54 -0.0022037 70.923 0.096974
206.38 7834.2 undefined 666.99 791.16 2.2900 435.00 0.0022989 666.99 791.16 2.2900 2.3934 3.0001 787.89 -0.0022210 70.944 0.097116 435.00 0.0022989 666.99 791.16 2.2900 2.3934 3.0001 787.89 -0.0022210 70.944 0.097116
207.38 7884.1 undefined 669.39 794.35 2.2950 435.00 0.0022989 669.39 794.35 2.2950 2.3972 3.0022 789.24 -0.0022381 70.965 0.097259 435.00 0.0022989 669.39 794.35 2.2950 2.3972 3.0022 789.24 -0.0022381 70.965 0.097259
208.38 7934.1 undefined 671.79 797.54 2.3000 435.00 0.0022989 671.79 797.54 2.3000 2.4011 3.0043 790.58 -0.0022550 70.986 0.097402 435.00 0.0022989 671.79 797.54 2.3000 2.4011 3.0043 790.58 -0.0022550 70.986 0.097402
209.38 7984.0 undefined 674.19 800.74 2.3050 435.00 0.0022989 674.19 800.74 2.3050 2.4049 3.0064 791.92 -0.0022718 71.008 0.097545 435.00 0.0022989 674.19 800.74 2.3050 2.4049 3.0064 791.92 -0.0022718 71.008 0.097545
210.38 8033.8 undefined 676.60 803.93 2.3099 435.00 0.0022989 676.60 803.93 2.3099 2.4087 3.0085 793.26 -0.0022883 71.029 0.097688 435.00 0.0022989 676.60 803.93 2.3099 2.4087 3.0085 793.26 -0.0022883 71.029 0.097688
211.38 8083.7 undefined 679.01 807.13 2.3149 435.00 0.0022989 679.01 807.13 2.3149 2.4126 3.0107 794.59 -0.0023046 71.050 0.097832 435.00 0.0022989 679.01 807.13 2.3149 2.4126 3.0107 794.59 -0.0023046 71.050 0.097832
212.38 8133.6 undefined 681.42 810.34 2.3199 435.00 0.0022989 681.42 810.34 2.3199 2.4164 3.0128 795.92 -0.0023208 71.071 0.097976 435.00 0.0022989 681.42 810.34 2.3199 2.4164 3.0128 795.92 -0.0023208 71.071 0.097976
213.38 8183.4 undefined 683.84 813.55 2.3249 435.00 0.0022989 683.84 813.55 2.3249 2.4202 3.0149 797.25 -0.0023367 71.092 0.098120 435.00 0.0022989 683.84 813.55 2.3249 2.4202 3.0149 797.25 -0.0023367 71.092 0.098120
214.38 8233.2 undefined 686.26 816.76 2.3298 435.00 0.0022989 686.26 816.76 2.3298 2.4240 3.0171 798.57 -0.0023525 71.113 0.098265 435.00 0.0022989 686.26 816.76 2.3298 2.4240 3.0171 798.57 -0.0023525 71.113 0.098265
215.38 8283.0 undefined 688.69 819.97 2.3348 435.00 0.0022989 688.69 819.97 2.3348 2.4278 3.0193 799.89 -0.0023681 71.134 0.098410 435.00 0.0022989 688.69 819.97 2.3348 2.4278 3.0193 799.89 -0.0023681 71.134 0.098410
216.38 8332.8 undefined 691.12 823.19 2.3398 435.00 0.0022989 691.12 823.19 2.3398 2.4316 3.0214 801.20 -0.0023835 71.155 0.098555 435.00 0.0022989 691.12 823.19 2.3398 2.4316 3.0214 801.20 -0.0023835 71.155 0.098555
217.38 8382.6 undefined 693.55 826.42 2.3448 435.00 0.0022989 693.55 826.42 2.3448 2.4354 3.0236 802.51 -0.0023987 71.177 0.098701 435.00 0.0022989 693.55 826.42 2.3448 2.4354 3.0236 802.51 -0.0023987 71.177 0.098701
218.38 8432.3 undefined 695.99 829.64 2.3497 435.00 0.0022989 695.99 829.64 2.3497 2.4392 3.0258 803.82 -0.0024138 71.198 0.098846 435.00 0.0022989 695.99 829.64 2.3497 2.4392 3.0258 803.82 -0.0024138 71.198 0.098846
219.38 8482.0 undefined 698.43 832.87 2.3547 435.00 0.0022989 698.43 832.87 2.3547 2.4430 3.0280 805.12 -0.0024287 71.219 0.098992 435.00 0.0022989 698.43 832.87 2.3547 2.4430 3.0280 805.12 -0.0024287 71.219 0.098992
220.38 8531.8 undefined 700.88 836.10 2.3596 435.00 0.0022989 700.88 836.10 2.3596 2.4468 3.0302 806.43 -0.0024434 71.240 0.099139 435.00 0.0022989 700.88 836.10 2.3596 2.4468 3.0302 806.43 -0.0024434 71.240 0.099139
221.38 8581.5 undefined 703.32 839.34 2.3646 435.00 0.0022989 703.32 839.34 2.3646 2.4506 3.0325 807.72 -0.0024579 71.261 0.099285 435.00 0.0022989 703.32 839.34 2.3646 2.4506 3.0325 807.72 -0.0024579 71.261 0.099285
222.38 8631.1 undefined 705.78 842.58 2.3696 435.00 0.0022989 705.78 842.58 2.3696 2.4544 3.0347 809.02 -0.0024723 71.282 0.099432 435.00 0.0022989 705.78 842.58 2.3696 2.4544 3.0347 809.02 -0.0024723 71.282 0.099432
223.38 8680.8 undefined 708.23 845.82 2.3745 435.00 0.0022989 708.23 845.82 2.3745 2.4582 3.0369 810.31 -0.0024865 71.303 0.099580 435.00 0.0022989 708.23 845.82 2.3745 2.4582 3.0369 810.31 -0.0024865 71.303 0.099580
224.38 8730.5 undefined 710.69 849.07 2.3795 435.00 0.0022989 710.69 849.07 2.3795 2.4619 3.0392 811.59 -0.0025006 71.324 0.099727 435.00 0.0022989 710.69 849.07 2.3795 2.4619 3.0392 811.59 -0.0025006 71.324 0.099727
225.38 8780.1 undefined 713.16 852.32 2.3844 435.00 0.0022989 713.16 852.32 2.3844 2.4657 3.0414 812.88 -0.0025145 71.345 0.099875 435.00 0.0022989 713.16 852.32 2.3844 2.4657 3.0414 812.88 -0.0025145 71.345 0.099875
226.38 8829.7 undefined 715.62 855.58 2.3893 435.00 0.0022989 715.62 855.58 2.3893 2.4695 3.0437 814.16 -0.0025282 71.366 0.10002 435.00 0.0022989 715.62 855.58 2.3893 2.4695 3.0437 814.16 -0.0025282 71.366 0.10002
227.38 8879.3 undefined 718.10 858.83 2.3943 435.00 0.0022989 718.10 858.83 2.3943 2.4732 3.0459 815.44 -0.0025418 71.387 0.10017 435.00 0.0022989 718.10 858.83 2.3943 2.4732 3.0459 815.44 -0.0025418 71.387 0.10017
228.38 8928.9 undefined 720.57 862.09 2.3992 435.00 0.0022989 720.57 862.09 2.3992 2.4770 3.0482 816.71 -0.0025552 71.408 0.10032 435.00 0.0022989 720.57 862.09 2.3992 2.4770 3.0482 816.71 -0.0025552 71.408 0.10032
229.38 8978.4 undefined 723.05 865.36 2.4042 435.00 0.0022989 723.05 865.36 2.4042 2.4807 3.0505 817.98 -0.0025685 71.429 0.10047 435.00 0.0022989 723.05 865.36 2.4042 2.4807 3.0505 817.98 -0.0025685 71.429 0.10047
230.38 9028.0 undefined 725.53 868.63 2.4091 435.00 0.0022989 725.53 868.63 2.4091 2.4845 3.0527 819.25 -0.0025816 71.450 0.10062 435.00 0.0022989 725.53 868.63 2.4091 2.4845 3.0527 819.25 -0.0025816 71.450 0.10062
231.38 9077.5 undefined 728.02 871.90 2.4140 435.00 0.0022989 728.02 871.90 2.4140 2.4882 3.0550 820.51 -0.0025946 71.472 0.10077 435.00 0.0022989 728.02 871.90 2.4140 2.4882 3.0550 820.51 -0.0025946 71.472 0.10077
232.38 9127.0 undefined 730.51 875.17 2.4190 435.00 0.0022989 730.51 875.17 2.4190 2.4920 3.0573 821.78 -0.0026074 71.493 0.10092 435.00 0.0022989 730.51 875.17 2.4190 2.4920 3.0573 821.78 -0.0026074 71.493 0.10092
233.38 9176.5 undefined 733.00 878.45 2.4239 435.00 0.0022989 733.00 878.45 2.4239 2.4957 3.0596 823.03 -0.0026201 71.514 0.10107 435.00 0.0022989 733.00 878.45 2.4239 2.4957 3.0596 823.03 -0.0026201 71.514 0.10107
234.38 9226.0 undefined 735.50 881.73 2.4288 435.00 0.0022989 735.50 881.73 2.4288 2.4994 3.0619 824.29 -0.0026326 71.535 0.10122 435.00 0.0022989 735.50 881.73 2.4288 2.4994 3.0619 824.29 -0.0026326 71.535 0.10122
235.38 9275.5 undefined 738.00 885.02 2.4337 435.00 0.0022989 738.00 885.02 2.4337 2.5031 3.0642 825.54 -0.0026450 71.556 0.10137 435.00 0.0022989 738.00 885.02 2.4337 2.5031 3.0642 825.54 -0.0026450 71.556 0.10137
236.38 9324.9 undefined 740.51 888.31 2.4387 435.00 0.0022989 740.51 888.31 2.4387 2.5069 3.0666 826.79 -0.0026573 71.577 0.10152 435.00 0.0022989 740.51 888.31 2.4387 2.5069 3.0666 826.79 -0.0026573 71.577 0.10152
237.38 9374.3 undefined 743.01 891.60 2.4436 435.00 0.0022989 743.01 891.60 2.4436 2.5106 3.0689 828.04 -0.0026694 71.598 0.10167 435.00 0.0022989 743.01 891.60 2.4436 2.5106 3.0689 828.04 -0.0026694 71.598 0.10167
238.38 9423.7 undefined 745.53 894.89 2.4485 435.00 0.0022989 745.53 894.89 2.4485 2.5143 3.0712 829.28 -0.0026814 71.619 0.10182 435.00 0.0022989 745.53 894.89 2.4485 2.5143 3.0712 829.28 -0.0026814 71.619 0.10182
239.38 9473.1 undefined 748.04 898.19 2.4534 435.00 0.0022989 748.04 898.19 2.4534 2.5180 3.0736 830.52 -0.0026933 71.640 0.10198 435.00 0.0022989 748.04 898.19 2.4534 2.5180 3.0736 830.52 -0.0026933 71.640 0.10198
240.38 9522.5 undefined 750.56 901.49 2.4583 435.00 0.0022989 750.56 901.49 2.4583 2.5217 3.0759 831.76 -0.0027050 71.660 0.10213 435.00 0.0022989 750.56 901.49 2.4583 2.5217 3.0759 831.76 -0.0027050 71.660 0.10213
241.38 9571.8 undefined 753.09 904.80 2.4632 435.00 0.0022989 753.09 904.80 2.4632 2.5254 3.0782 832.99 -0.0027166 71.681 0.10228 435.00 0.0022989 753.09 904.80 2.4632 2.5254 3.0782 832.99 -0.0027166 71.681 0.10228
242.38 9621.2 undefined 755.61 908.11 2.4681 435.00 0.0022989 755.61 908.11 2.4681 2.5291 3.0806 834.22 -0.0027281 71.702 0.10243 435.00 0.0022989 755.61 908.11 2.4681 2.5291 3.0806 834.22 -0.0027281 71.702 0.10243
243.38 9670.5 undefined 758.14 911.42 2.4730 435.00 0.0022989 758.14 911.42 2.4730 2.5328 3.0829 835.45 -0.0027394 71.723 0.10259 435.00 0.0022989 758.14 911.42 2.4730 2.5328 3.0829 835.45 -0.0027394 71.723 0.10259
244.38 9719.8 undefined 760.68 914.74 2.4779 435.00 0.0022989 760.68 914.74 2.4779 2.5364 3.0853 836.68 -0.0027506 71.744 0.10274 435.00 0.0022989 760.68 914.74 2.4779 2.5364 3.0853 836.68 -0.0027506 71.744 0.10274
245.38 9769.1 undefined 763.22 918.06 2.4828 435.00 0.0022989 763.22 918.06 2.4828 2.5401 3.0877 837.90 -0.0027617 71.765 0.10289 435.00 0.0022989 763.22 918.06 2.4828 2.5401 3.0877 837.90 -0.0027617 71.765 0.10289
246.38 9818.3 undefined 765.76 921.38 2.4877 435.00 0.0022989 765.76 921.38 2.4877 2.5438 3.0900 839.12 -0.0027727 71.786 0.10305 435.00 0.0022989 765.76 921.38 2.4877 2.5438 3.0900 839.12 -0.0027727 71.786 0.10305
247.38 9867.6 undefined 768.31 924.71 2.4926 435.00 0.0022989 768.31 924.71 2.4926 2.5475 3.0924 840.34 -0.0027835 71.807 0.10320 435.00 0.0022989 768.31 924.71 2.4926 2.5475 3.0924 840.34 -0.0027835 71.807 0.10320
248.38 9916.8 undefined 770.85 928.04 2.4975 435.00 0.0022989 770.85 928.04 2.4975 2.5511 3.0948 841.55 -0.0027942 71.828 0.10336 435.00 0.0022989 770.85 928.04 2.4975 2.5511 3.0948 841.55 -0.0027942 71.828 0.10336
249.38 9966.0 undefined 773.41 931.37 2.5024 435.00 0.0022989 773.41 931.37 2.5024 2.5548 3.0972 842.76 -0.0028049 71.849 0.10351 435.00 0.0022989 773.41 931.37 2.5024 2.5548 3.0972 842.76 -0.0028049 71.849 0.10351
250.38 10015. undefined 775.96 934.71 2.5073 435.00 0.0022989 775.96 934.71 2.5073 2.5584 3.0996 843.97 -0.0028153 71.870 0.10367 435.00 0.0022989 775.96 934.71 2.5073 2.5584 3.0996 843.97 -0.0028153 71.870 0.10367
251.38 10064. undefined 778.52 938.04 2.5122 435.00 0.0022989 778.52 938.04 2.5122 2.5621 3.1019 845.18 -0.0028257 71.891 0.10382 435.00 0.0022989 778.52 938.04 2.5122 2.5621 3.1019 845.18 -0.0028257 71.891 0.10382
252.38 10114. undefined 781.09 941.39 2.5171 435.00 0.0022989 781.09 941.39 2.5171 2.5657 3.1043 846.38 -0.0028360 71.911 0.10398 435.00 0.0022989 781.09 941.39 2.5171 2.5657 3.1043 846.38 -0.0028360 71.911 0.10398
253.38 10163. undefined 783.66 944.73 2.5220 435.00 0.0022989 783.66 944.73 2.5220 2.5694 3.1067 847.58 -0.0028461 71.932 0.10413 435.00 0.0022989 783.66 944.73 2.5220 2.5694 3.1067 847.58 -0.0028461 71.932 0.10413
254.38 10212. undefined 786.23 948.08 2.5268 435.00 0.0022989 786.23 948.08 2.5268 2.5730 3.1091 848.78 -0.0028562 71.953 0.10429 435.00 0.0022989 786.23 948.08 2.5268 2.5730 3.1091 848.78 -0.0028562 71.953 0.10429
255.38 10261. undefined 788.80 951.44 2.5317 435.00 0.0022989 788.80 951.44 2.5317 2.5767 3.1115 849.97 -0.0028661 71.974 0.10445 435.00 0.0022989 788.80 951.44 2.5317 2.5767 3.1115 849.97 -0.0028661 71.974 0.10445
256.38 10310. undefined 791.38 954.79 2.5366 435.00 0.0022989 791.38 954.79 2.5366 2.5803 3.1140 851.16 -0.0028759 71.995 0.10460 435.00 0.0022989 791.38 954.79 2.5366 2.5803 3.1140 851.16 -0.0028759 71.995 0.10460
257.38 10359. undefined 793.96 958.15 2.5415 435.00 0.0022989 793.96 958.15 2.5415 2.5839 3.1164 852.35 -0.0028857 72.016 0.10476 435.00 0.0022989 793.96 958.15 2.5415 2.5839 3.1164 852.35 -0.0028857 72.016 0.10476
258.38 10408. undefined 796.55 961.52 2.5463 435.00 0.0022989 796.55 961.52 2.5463 2.5875 3.1188 853.54 -0.0028953 72.037 0.10492 435.00 0.0022989 796.55 961.52 2.5463 2.5875 3.1188 853.54 -0.0028953 72.037 0.10492
259.38 10457. undefined 799.14 964.88 2.5512 435.00 0.0022989 799.14 964.88 2.5512 2.5911 3.1212 854.72 -0.0029048 72.057 0.10508 435.00 0.0022989 799.14 964.88 2.5512 2.5911 3.1212 854.72 -0.0029048 72.057 0.10508
260.38 10506. undefined 801.73 968.25 2.5561 435.00 0.0022989 801.73 968.25 2.5561 2.5948 3.1236 855.91 -0.0029142 72.078 0.10523 435.00 0.0022989 801.73 968.25 2.5561 2.5948 3.1236 855.91 -0.0029142 72.078 0.10523
261.38 10555. undefined 804.33 971.63 2.5609 435.00 0.0022989 804.33 971.63 2.5609 2.5984 3.1261 857.08 -0.0029235 72.099 0.10539 435.00 0.0022989 804.33 971.63 2.5609 2.5984 3.1261 857.08 -0.0029235 72.099 0.10539
262.38 10604. undefined 806.93 975.00 2.5658 435.00 0.0022989 806.93 975.00 2.5658 2.6020 3.1285 858.26 -0.0029327 72.120 0.10555 435.00 0.0022989 806.93 975.00 2.5658 2.6020 3.1285 858.26 -0.0029327 72.120 0.10555
263.38 10653. undefined 809.53 978.38 2.5706 435.00 0.0022989 809.53 978.38 2.5706 2.6056 3.1309 859.44 -0.0029418 72.141 0.10571 435.00 0.0022989 809.53 978.38 2.5706 2.6056 3.1309 859.44 -0.0029418 72.141 0.10571
264.38 10702. undefined 812.14 981.77 2.5755 435.00 0.0022989 812.14 981.77 2.5755 2.6092 3.1334 860.61 -0.0029508 72.161 0.10587 435.00 0.0022989 812.14 981.77 2.5755 2.6092 3.1334 860.61 -0.0029508 72.161 0.10587
265.38 10751. undefined 814.75 985.15 2.5804 435.00 0.0022989 814.75 985.15 2.5804 2.6127 3.1358 861.78 -0.0029597 72.182 0.10603 435.00 0.0022989 814.75 985.15 2.5804 2.6127 3.1358 861.78 -0.0029597 72.182 0.10603
266.38 10800. undefined 817.36 988.54 2.5852 435.00 0.0022989 817.36 988.54 2.5852 2.6163 3.1382 862.94 -0.0029685 72.203 0.10619 435.00 0.0022989 817.36 988.54 2.5852 2.6163 3.1382 862.94 -0.0029685 72.203 0.10619
267.38 10849. undefined 819.98 991.93 2.5900 435.00 0.0022989 819.98 991.93 2.5900 2.6199 3.1407 864.11 -0.0029772 72.224 0.10635 435.00 0.0022989 819.98 991.93 2.5900 2.6199 3.1407 864.11 -0.0029772 72.224 0.10635
268.38 10898. undefined 822.60 995.33 2.5949 435.00 0.0022989 822.60 995.33 2.5949 2.6235 3.1431 865.27 -0.0029858 72.244 0.10651 435.00 0.0022989 822.60 995.33 2.5949 2.6235 3.1431 865.27 -0.0029858 72.244 0.10651
269.38 10946. undefined 825.23 998.73 2.5997 435.00 0.0022989 825.23 998.73 2.5997 2.6271 3.1456 866.43 -0.0029944 72.265 0.10667 435.00 0.0022989 825.23 998.73 2.5997 2.6271 3.1456 866.43 -0.0029944 72.265 0.10667
270.38 10995. undefined 827.86 1002.1 2.6046 435.00 0.0022989 827.86 1002.1 2.6046 2.6306 3.1480 867.58 -0.0030028 72.286 0.10683 435.00 0.0022989 827.86 1002.1 2.6046 2.6306 3.1480 867.58 -0.0030028 72.286 0.10683
271.38 11044. undefined 830.49 1005.5 2.6094 435.00 0.0022989 830.49 1005.5 2.6094 2.6342 3.1505 868.74 -0.0030111 72.306 0.10699 435.00 0.0022989 830.49 1005.5 2.6094 2.6342 3.1505 868.74 -0.0030111 72.306 0.10699
272.38 11093. undefined 833.13 1008.9 2.6143 435.00 0.0022989 833.13 1008.9 2.6143 2.6377 3.1529 869.89 -0.0030194 72.327 0.10715 435.00 0.0022989 833.13 1008.9 2.6143 2.6377 3.1529 869.89 -0.0030194 72.327 0.10715
273.38 11142. undefined 835.77 1012.4 2.6191 435.00 0.0022989 835.77 1012.4 2.6191 2.6413 3.1554 871.04 -0.0030276 72.348 0.10732 435.00 0.0022989 835.77 1012.4 2.6191 2.6413 3.1554 871.04 -0.0030276 72.348 0.10732
274.38 11190. undefined 838.41 1015.8 2.6239 435.00 0.0022989 838.41 1015.8 2.6239 2.6448 3.1579 872.18 -0.0030356 72.369 0.10748 435.00 0.0022989 838.41 1015.8 2.6239 2.6448 3.1579 872.18 -0.0030356 72.369 0.10748
275.38 11239. undefined 841.06 1019.2 2.6287 435.00 0.0022989 841.06 1019.2 2.6287 2.6484 3.1603 873.33 -0.0030436 72.389 0.10764 435.00 0.0022989 841.06 1019.2 2.6287 2.6484 3.1603 873.33 -0.0030436 72.389 0.10764
276.38 11288. undefined 843.71 1022.6 2.6336 435.00 0.0022989 843.71 1022.6 2.6336 2.6519 3.1628 874.47 -0.0030515 72.410 0.10780 435.00 0.0022989 843.71 1022.6 2.6336 2.6519 3.1628 874.47 -0.0030515 72.410 0.10780
277.38 11337. undefined 846.36 1026.0 2.6384 435.00 0.0022989 846.36 1026.0 2.6384 2.6554 3.1653 875.61 -0.0030594 72.430 0.10797 435.00 0.0022989 846.36 1026.0 2.6384 2.6554 3.1653 875.61 -0.0030594 72.430 0.10797
278.38 11385. undefined 849.02 1029.5 2.6432 435.00 0.0022989 849.02 1029.5 2.6432 2.6590 3.1677 876.75 -0.0030671 72.451 0.10813 435.00 0.0022989 849.02 1029.5 2.6432 2.6590 3.1677 876.75 -0.0030671 72.451 0.10813
279.38 11434. undefined 851.68 1032.9 2.6480 435.00 0.0022989 851.68 1032.9 2.6480 2.6625 3.1702 877.88 -0.0030748 72.472 0.10829 435.00 0.0022989 851.68 1032.9 2.6480 2.6625 3.1702 877.88 -0.0030748 72.472 0.10829
280.38 11483. undefined 854.34 1036.3 2.6529 435.00 0.0022989 854.34 1036.3 2.6529 2.6660 3.1727 879.01 -0.0030823 72.492 0.10846 435.00 0.0022989 854.34 1036.3 2.6529 2.6660 3.1727 879.01 -0.0030823 72.492 0.10846
281.38 11531. undefined 857.01 1039.8 2.6577 435.00 0.0022989 857.01 1039.8 2.6577 2.6695 3.1752 880.15 -0.0030898 72.513 0.10862 435.00 0.0022989 857.01 1039.8 2.6577 2.6695 3.1752 880.15 -0.0030898 72.513 0.10862
282.38 11580. undefined 859.68 1043.2 2.6625 435.00 0.0022989 859.68 1043.2 2.6625 2.6730 3.1776 881.27 -0.0030972 72.534 0.10838 435.00 0.0022989 859.68 1043.2 2.6625 2.6730 3.1776 881.27 -0.0030972 72.534 0.10838
283.38 11628. undefined 862.36 1046.7 2.6673 435.00 0.0022989 862.36 1046.7 2.6673 2.6766 3.1801 882.40 -0.0031046 72.554 0.10855 435.00 0.0022989 862.36 1046.7 2.6673 2.6766 3.1801 882.40 -0.0031046 72.554 0.10855
284.38 11677. undefined 865.03 1050.1 2.6721 435.00 0.0022989 865.03 1050.1 2.6721 2.6801 3.1826 883.52 -0.0031118 72.575 0.10871 435.00 0.0022989 865.03 1050.1 2.6721 2.6801 3.1826 883.52 -0.0031118 72.575 0.10871
285.38 11725. undefined 867.72 1053.6 2.6769 435.00 0.0022989 867.72 1053.6 2.6769 2.6835 3.1851 884.64 -0.0031190 72.595 0.10888 435.00 0.0022989 867.72 1053.6 2.6769 2.6835 3.1851 884.64 -0.0031190 72.595 0.10888
286.38 11774. undefined 870.40 1057.0 2.6817 435.00 0.0022989 870.40 1057.0 2.6817 2.6870 3.1876 885.76 -0.0031261 72.616 0.10904 435.00 0.0022989 870.40 1057.0 2.6817 2.6870 3.1876 885.76 -0.0031261 72.616 0.10904
287.38 11823. undefined 873.09 1060.5 2.6865 435.00 0.0022989 873.09 1060.5 2.6865 2.6905 3.1901 886.88 -0.0031331 72.636 0.10921 435.00 0.0022989 873.09 1060.5 2.6865 2.6905 3.1901 886.88 -0.0031331 72.636 0.10921
288.38 11871. undefined 875.78 1063.9 2.6913 435.00 0.0022989 875.78 1063.9 2.6913 2.6940 3.1925 887.99 -0.0031401 72.657 0.10937 435.00 0.0022989 875.78 1063.9 2.6913 2.6940 3.1925 887.99 -0.0031401 72.657 0.10937
289.38 11920. undefined 878.48 1067.4 2.6961 435.00 0.0022989 878.48 1067.4 2.6961 2.6975 3.1950 889.11 -0.0031470 72.677 0.10954 435.00 0.0022989 878.48 1067.4 2.6961 2.6975 3.1950 889.11 -0.0031470 72.677 0.10954
290.38 11968. undefined 881.18 1070.9 2.7009 435.00 0.0022989 881.18 1070.9 2.7009 2.7010 3.1975 890.22 -0.0031538 72.698 0.10970 435.00 0.0022989 881.18 1070.9 2.7009 2.7010 3.1975 890.22 -0.0031538 72.698 0.10970
291.38 12016. undefined 883.88 1074.3 2.7057 435.00 0.0022989 883.88 1074.3 2.7057 2.7044 3.2000 891.32 -0.0031605 72.718 0.10987 435.00 0.0022989 883.88 1074.3 2.7057 2.7044 3.2000 891.32 -0.0031605 72.718 0.10987
292.38 12065. undefined 886.59 1077.8 2.7105 435.00 0.0022989 886.59 1077.8 2.7105 2.7079 3.2025 892.43 -0.0031672 72.739 0.11004 435.00 0.0022989 886.59 1077.8 2.7105 2.7079 3.2025 892.43 -0.0031672 72.739 0.11004
293.38 12113. undefined 889.30 1081.3 2.7153 435.00 0.0022989 889.30 1081.3 2.7153 2.7114 3.2050 893.53 -0.0031737 72.759 0.11020 435.00 0.0022989 889.30 1081.3 2.7153 2.7114 3.2050 893.53 -0.0031737 72.759 0.11020
294.38 12162. undefined 892.01 1084.8 2.7201 435.00 0.0022989 892.01 1084.8 2.7201 2.7148 3.2075 894.64 -0.0031803 72.780 0.11037 435.00 0.0022989 892.01 1084.8 2.7201 2.7148 3.2075 894.64 -0.0031803 72.780 0.11037
295.38 12210. undefined 894.73 1088.3 2.7248 435.00 0.0022989 894.73 1088.3 2.7248 2.7183 3.2100 895.73 -0.0031867 72.800 0.11054 435.00 0.0022989 894.73 1088.3 2.7248 2.7183 3.2100 895.73 -0.0031867 72.800 0.11054
296.38 12258. undefined 897.45 1091.7 2.7296 435.00 0.0022989 897.45 1091.7 2.7296 2.7217 3.2125 896.83 -0.0031931 72.821 0.11070 435.00 0.0022989 897.45 1091.7 2.7296 2.7217 3.2125 896.83 -0.0031931 72.821 0.11070
297.38 12307. undefined 900.17 1095.2 2.7344 435.00 0.0022989 900.17 1095.2 2.7344 2.7252 3.2150 897.93 -0.0031994 72.841 0.11087 435.00 0.0022989 900.17 1095.2 2.7344 2.7252 3.2150 897.93 -0.0031994 72.841 0.11087
298.38 12355. undefined 902.90 1098.7 2.7392 435.00 0.0022989 902.90 1098.7 2.7392 2.7286 3.2175 899.02 -0.0032057 72.862 0.11104 435.00 0.0022989 902.90 1098.7 2.7392 2.7286 3.2175 899.02 -0.0032057 72.862 0.11104
299.38 12403. undefined 905.63 1102.2 2.7440 435.00 0.0022989 905.63 1102.2 2.7440 2.7320 3.2200 900.11 -0.0032118 72.882 0.11121 435.00 0.0022989 905.63 1102.2 2.7440 2.7320 3.2200 900.11 -0.0032118 72.882 0.11121
300.38 12452. undefined 908.36 1105.7 2.7487 435.00 0.0022989 908.36 1105.7 2.7487 2.7355 3.2225 901.20 -0.0032179 72.903 0.11138 435.00 0.0022989 908.36 1105.7 2.7487 2.7355 3.2225 901.20 -0.0032179 72.903 0.11138