Temperature (C) Pressure (psia) Quality (l+v) Internal Energy (l+v, kJ/kg) Enthalpy (l+v, kJ/kg) Entropy (l+v, J/g*K) Density (l, kg/m3) Volume (l, m3/kg) Internal Energy (l, kJ/kg) Enthalpy (l, kJ/kg) Entropy (l, J/g*K) Cv (l, J/g*K) Cp (l, J/g*K) Sound Spd. (l, m/s) Joule-Thomson (l, F/psia) Viscosity (l, uPa*s) Therm. Cond. (l, W/m*K) Density (v, kg/m3) Volume (v, m3/kg) Internal Energy (v, kJ/kg) Enthalpy (v, kJ/kg) Entropy (v, J/g*K) Cv (v, J/g*K) Cp (v, J/g*K) Sound Spd. (v, m/s) Joule-Thomson (v, F/psia) Viscosity (v, uPa*s) Therm. Cond. (v, W/m*K)
-187.62 2.4953e-08 8.8954e-12 -196.64 -196.64 -1.3959 733.13 0.0013640 -196.64 -196.64 -1.3959 1.3553 1.9158 2136.4 -0.0077592 10960. 0.20792 1.0669e-08 9.3732e+07 350.13 366.26 5.1858 0.69067 0.87923 143.28 6.1051 2.3259 0.0017061
-186.62 3.7339e-08 1.3126e-11 -194.73 -194.73 -1.3736 732.08 0.0013660 -194.73 -194.73 -1.3736 1.3539 1.9166 2129.6 -0.0077546 10073. 0.20765 1.5780e-08 6.3371e+07 350.82 367.14 5.1200 0.69462 0.88317 144.03 5.9178 2.3534 0.0017533
-185.62 5.5322e-08 1.9181e-11 -192.81 -192.81 -1.3516 731.04 0.0013679 -192.81 -192.81 -1.3516 1.3525 1.9174 2122.9 -0.0077498 9276.1 0.20737 2.3112e-08 4.3267e+07 351.52 368.02 5.0561 0.69857 0.88713 144.77 5.7383 2.3808 0.0018007
-184.62 8.1182e-08 2.7763e-11 -190.89 -190.89 -1.3298 730.00 0.0013699 -190.89 -190.89 -1.3298 1.3513 1.9182 2116.1 -0.0077448 8557.8 0.20708 3.3533e-08 2.9821e+07 352.22 368.91 4.9939 0.70253 0.89108 145.51 5.5662 2.4083 0.0018485
-183.62 1.1803e-07 3.9821e-11 -188.97 -188.97 -1.3083 728.96 0.0013718 -188.97 -188.97 -1.3083 1.3501 1.9191 2109.3 -0.0077395 7909.8 0.20678 4.8211e-08 2.0742e+07 352.92 369.81 4.9333 0.70648 0.89504 146.24 5.4011 2.4357 0.0018965
-182.62 1.7009e-07 5.6614e-11 -187.05 -187.05 -1.2869 727.92 0.0013738 -187.05 -187.05 -1.2869 1.3490 1.9201 2102.5 -0.0077340 7324.3 0.20647 6.8704e-08 1.4555e+07 353.63 370.70 4.8744 0.71043 0.89899 146.97 5.2426 2.4632 0.0019448
-181.62 2.4299e-07 7.9805e-11 -185.13 -185.13 -1.2658 726.88 0.0013757 -185.13 -185.13 -1.2658 1.3480 1.9210 2095.7 -0.0077283 6794.5 0.20616 9.7079e-08 1.0301e+07 354.35 371.60 4.8170 0.71438 0.90294 147.69 5.0904 2.4906 0.0019934
-180.62 3.4425e-07 1.1157e-10 -183.21 -183.21 -1.2450 725.85 0.0013777 -183.21 -183.21 -1.2450 1.3470 1.9220 2088.9 -0.0077225 6314.4 0.20584 1.3605e-07 7.3504e+06 355.06 372.51 4.7612 0.71833 0.90688 148.41 4.9442 2.5181 0.0020423
-179.62 4.8378e-07 1.5475e-10 -181.29 -181.29 -1.2243 724.81 0.0013797 -181.29 -181.29 -1.2243 1.3461 1.9231 2082.0 -0.0077164 5878.8 0.20551 1.8915e-07 5.2868e+06 355.78 373.42 4.7068 0.72227 0.91082 149.13 4.8038 2.5456 0.0020915
-178.62 6.7459e-07 2.1299e-10 -179.37 -179.37 -1.2038 723.78 0.0013816 -179.37 -179.37 -1.2038 1.3453 1.9241 2075.2 -0.0077102 5482.9 0.20517 2.6096e-07 3.8320e+06 356.51 374.33 4.6538 0.72620 0.91475 149.84 4.6688 2.5731 0.0021410
-177.62 9.3358e-07 2.9097e-10 -177.44 -177.44 -1.1836 722.75 0.0013836 -177.44 -177.44 -1.1836 1.3445 1.9252 2068.4 -0.0077039 5122.6 0.20483 3.5737e-07 2.7982e+06 357.23 375.25 4.6022 0.73012 0.91867 150.54 4.5390 2.6005 0.0021907
-176.62 1.2826e-06 3.9464e-10 -175.52 -175.52 -1.1635 721.72 0.0013856 -175.52 -175.52 -1.1635 1.3437 1.9263 2061.5 -0.0076973 4794.1 0.20447 4.8588e-07 2.0581e+06 357.97 376.17 4.5519 0.73403 0.92258 151.25 4.4142 2.6280 0.0022408
-175.62 1.7496e-06 5.3153e-10 -173.59 -173.59 -1.1437 720.69 0.0013876 -173.59 -173.59 -1.1437 1.3430 1.9274 2054.7 -0.0076907 4494.3 0.20411 6.5601e-07 1.5244e+06 358.70 377.09 4.5029 0.73792 0.92648 151.95 4.2941 2.6555 0.0022912
-174.62 2.3705e-06 7.1108e-10 -171.66 -171.66 -1.1240 719.66 0.0013895 -171.66 -171.66 -1.1240 1.3423 1.9286 2047.9 -0.0076838 4220.2 0.20375 8.7976e-07 1.1367e+06 359.44 378.02 4.4551 0.74181 0.93036 152.64 4.1784 2.6830 0.0023418
-173.62 3.1903e-06 9.4507e-10 -169.73 -169.73 -1.1045 718.64 0.0013915 -169.73 -169.73 -1.1045 1.3417 1.9298 2041.0 -0.0076769 3969.3 0.20338 1.1721e-06 8.5314e+05 360.19 378.95 4.4085 0.74568 0.93423 153.33 4.0671 2.7105 0.0023928
-172.62 4.2661e-06 1.2481e-09 -167.80 -167.80 -1.0852 717.61 0.0013935 -167.80 -167.80 -1.0852 1.3411 1.9310 2034.2 -0.0076698 3739.3 0.20300 1.5518e-06 6.4441e+05 360.93 379.89 4.3631 0.74953 0.93809 154.02 3.9599 2.7379 0.0024440
-171.62 5.6692e-06 1.6382e-09 -165.87 -165.87 -1.0661 716.58 0.0013955 -165.87 -165.87 -1.0661 1.3405 1.9322 2027.3 -0.0076625 3528.0 0.20261 2.0419e-06 4.8974e+05 361.69 380.83 4.3188 0.75337 0.94193 154.71 3.8566 2.7654 0.0024955
-170.62 7.4884e-06 2.1374e-09 -163.94 -163.94 -1.0472 715.56 0.0013975 -163.94 -163.94 -1.0472 1.3400 1.9334 2020.5 -0.0076552 3333.8 0.20222 2.6708e-06 3.7442e+05 362.44 381.77 4.2755 0.75720 0.94575 155.39 3.7570 2.7929 0.0025473
-169.62 9.8334e-06 2.7727e-09 -162.00 -162.00 -1.0284 714.54 0.0013995 -162.00 -162.00 -1.0284 1.3395 1.9347 2013.6 -0.0076477 3154.9 0.20182 3.4733e-06 2.8791e+05 363.20 382.72 4.2334 0.76100 0.94956 156.07 3.6609 2.8204 0.0025994
-168.62 1.2839e-05 3.5767e-09 -160.07 -160.07 -1.0098 713.52 0.0014015 -160.07 -160.07 -1.0098 1.3390 1.9359 2006.8 -0.0076401 2989.9 0.20141 4.4917e-06 2.2263e+05 363.96 383.67 4.1922 0.76479 0.95335 156.74 3.5683 2.8479 0.0026518
-167.62 1.6672e-05 4.5887e-09 -158.13 -158.13 -0.99134 712.49 0.0014035 -158.13 -158.13 -0.99134 1.3386 1.9372 2000.0 -0.0076323 2837.5 0.20100 5.7771e-06 1.7310e+05 364.73 384.63 4.1521 0.76856 0.95712 157.41 3.4790 2.8754 0.0027045
-166.62 2.1533e-05 5.8560e-09 -156.19 -156.19 -0.97306 711.47 0.0014055 -156.19 -156.19 -0.97306 1.3382 1.9385 1993.1 -0.0076245 2696.5 0.20058 7.3914e-06 1.3529e+05 365.50 385.59 4.1129 0.77232 0.96087 158.08 3.3927 2.9029 0.0027575
-165.62 2.7666e-05 7.4350e-09 -154.25 -154.25 -0.95494 710.45 0.0014075 -154.25 -154.25 -0.95494 1.3378 1.9398 1986.3 -0.0076165 2566.0 0.20016 9.4084e-06 1.0629e+05 366.27 386.55 4.0746 0.77605 0.96460 158.75 3.3095 2.9304 0.0028108
-164.62 3.5367e-05 9.3929e-09 -152.31 -152.31 -0.93698 709.44 0.0014096 -152.31 -152.31 -0.93698 1.3375 1.9411 1979.4 -0.0076084 2444.9 0.19973 1.1916e-05 83918. 367.05 387.52 4.0372 0.77976 0.96832 159.41 3.2291 2.9579 0.0028643
-163.62 4.4989e-05 1.1809e-08 -150.37 -150.37 -0.91917 708.42 0.0014116 -150.37 -150.37 -0.91917 1.3371 1.9424 1972.6 -0.0076002 2332.3 0.19930 1.5020e-05 66577. 367.83 388.49 4.0008 0.78346 0.97201 160.07 3.1514 2.9854 0.0029182
-162.62 5.6956e-05 1.4777e-08 -148.43 -148.43 -0.90151 707.40 0.0014136 -148.43 -148.43 -0.90151 1.3368 1.9437 1965.8 -0.0075919 2227.7 0.19886 1.8844e-05 53068. 368.62 389.46 3.9651 0.78713 0.97569 160.72 3.0764 3.0129 0.0029723
-161.62 7.1773e-05 1.8406e-08 -146.48 -146.48 -0.88400 706.38 0.0014157 -146.48 -146.48 -0.88400 1.3365 1.9451 1959.0 -0.0075834 2130.2 0.19841 2.3533e-05 42494. 369.41 390.44 3.9304 0.79079 0.97935 161.38 3.0038 3.0404 0.0030268
-160.62 9.0036e-05 2.2825e-08 -144.54 -144.54 -0.86663 705.37 0.0014177 -144.54 -144.54 -0.86663 1.3363 1.9465 1952.1 -0.0075748 2039.2 0.19796 2.9258e-05 34178. 370.20 391.42 3.8964 0.79443 0.98298 162.03 2.9337 3.0679 0.0030815
-159.62 0.00011245 2.8182e-08 -142.59 -142.59 -0.84940 704.35 0.0014197 -142.59 -142.59 -0.84940 1.3360 1.9478 1945.3 -0.0075661 1954.2 0.19751 3.6221e-05 27609. 371.00 392.40 3.8632 0.79805 0.98660 162.68 2.8658 3.0955 0.0031365
-158.62 0.00013985 3.4650e-08 -140.64 -140.64 -0.83231 703.34 0.0014218 -140.64 -140.64 -0.83231 1.3358 1.9492 1938.5 -0.0075573 1874.8 0.19705 4.4652e-05 22395. 371.80 393.39 3.8307 0.80164 0.99020 163.32 2.8002 3.1230 0.0031918
-157.62 0.00017320 4.2430e-08 -138.69 -138.69 -0.81536 702.32 0.0014238 -138.69 -138.69 -0.81536 1.3356 1.9506 1931.7 -0.0075484 1800.3 0.19658 5.4822e-05 18241. 372.60 394.38 3.7990 0.80522 0.99378 163.96 2.7367 3.1505 0.0032474
-156.62 0.00021364 5.1749e-08 -136.74 -136.74 -0.79854 701.31 0.0014259 -136.74 -136.74 -0.79854 1.3354 1.9520 1924.9 -0.0075393 1730.5 0.19611 6.7040e-05 14916. 373.41 395.38 3.7680 0.80878 0.99734 164.60 2.6752 3.1780 0.0033033
-155.62 0.00026248 6.2870e-08 -134.79 -134.79 -0.78185 700.30 0.0014280 -134.79 -134.79 -0.78185 1.3352 1.9534 1918.1 -0.0075302 1664.9 0.19564 8.1666e-05 12245. 374.22 396.38 3.7377 0.81232 1.0009 165.24 2.6157 3.2055 0.0033595
-154.62 0.00032125 7.6093e-08 -132.83 -132.83 -0.76530 699.29 0.0014300 -132.83 -132.83 -0.76530 1.3350 1.9548 1911.3 -0.0075209 1603.3 0.19516 9.9109e-05 10090. 375.03 397.38 3.7081 0.81585 1.0044 165.87 2.5580 3.2330 0.0034160
-153.62 0.00039171 9.1760e-08 -130.88 -130.88 -0.74887 698.27 0.0014321 -130.88 -130.88 -0.74887 1.3349 1.9563 1904.5 -0.0075114 1545.3 0.19468 0.00011984 8344.6 375.85 398.39 3.6792 0.81935 1.0079 166.50 2.5022 3.2606 0.0034727
-152.62 0.00047590 1.1026e-07 -128.92 -128.92 -0.73256 697.26 0.0014342 -128.92 -128.92 -0.73256 1.3348 1.9577 1897.8 -0.0075019 1490.6 0.19419 0.00014439 6925.9 376.67 399.40 3.6509 0.82284 1.0114 167.13 2.4481 3.2881 0.0035298
-151.62 0.00057613 1.3202e-07 -126.96 -126.96 -0.71638 696.25 0.0014363 -126.96 -126.96 -0.71638 1.3346 1.9592 1891.0 -0.0074922 1438.9 0.19370 0.00017336 5768.4 377.49 400.41 3.6232 0.82631 1.0149 167.76 2.3957 3.3156 0.0035872
-150.62 0.00069507 1.5754e-07 -125.00 -125.00 -0.70032 695.24 0.0014384 -125.00 -125.00 -0.70032 1.3345 1.9606 1884.2 -0.0074824 1390.2 0.19320 0.00020744 4820.7 378.32 401.42 3.5962 0.82976 1.0183 168.38 2.3448 3.3431 0.0036448
-149.62 0.00083574 1.8737e-07 -123.04 -123.04 -0.68438 694.23 0.0014404 -123.04 -123.04 -0.68438 1.3345 1.9621 1877.4 -0.0074724 1344.0 0.19270 0.00024740 4042.0 379.15 402.44 3.5697 0.83319 1.0218 169.00 2.2956 3.3706 0.0037027
-148.62 0.0010016 2.2213e-07 -121.08 -121.08 -0.66855 693.22 0.0014425 -121.08 -121.08 -0.66855 1.3344 1.9636 1870.7 -0.0074623 1300.3 0.19220 0.00029412 3400.0 379.99 403.47 3.5438 0.83661 1.0252 169.62 2.2478 3.3982 0.0037610
-147.62 0.0011965 2.6252e-07 -119.11 -119.11 -0.65284 692.21 0.0014447 -119.11 -119.11 -0.65284 1.3343 1.9651 1863.9 -0.0074521 1258.9 0.19169 0.00034856 2869.0 380.83 404.49 3.5185 0.84001 1.0286 170.24 2.2014 3.4257 0.0038195
-146.62 0.0014249 3.0929e-07 -117.15 -117.15 -0.63724 691.20 0.0014468 -117.15 -117.15 -0.63724 1.3343 1.9666 1857.2 -0.0074417 1219.6 0.19117 0.00041181 2428.3 381.67 405.52 3.4938 0.84340 1.0320 170.85 2.1565 3.4532 0.0038783
-145.62 0.0016917 3.6330e-07 -115.18 -115.18 -0.62175 690.19 0.0014489 -115.18 -115.18 -0.62175 1.3343 1.9682 1850.4 -0.0074312 1182.3 0.19066 0.00048510 2061.4 382.51 406.56 3.4695 0.84677 1.0353 171.46 2.1128 3.4807 0.0039374
-144.62 0.0020026 4.2550e-07 -113.21 -113.21 -0.60637 689.18 0.0014510 -113.21 -113.21 -0.60637 1.3343 1.9697 1843.7 -0.0074206 1146.8 0.19014 0.00056976 1755.1 383.36 407.59 3.4458 0.85012 1.0387 172.07 2.0705 3.5082 0.0039967
-143.62 0.0023637 4.9692e-07 -111.24 -111.24 -0.59110 688.17 0.0014531 -111.24 -111.24 -0.59110 1.3343 1.9713 1836.9 -0.0074098 1113.0 0.18962 0.00066731 1498.6 384.21 408.63 3.4226 0.85346 1.0420 172.68 2.0294 3.5358 0.0040564
-142.62 0.0027820 5.7872e-07 -109.27 -109.27 -0.57593 687.16 0.0014553 -109.27 -109.27 -0.57593 1.3343 1.9728 1830.2 -0.0073988 1080.8 0.18909 0.00077939 1283.1 385.07 409.68 3.3999 0.85679 1.0454 173.28 1.9896 3.5633 0.0041164
-141.62 0.0032653 6.7216e-07 -107.30 -107.30 -0.56087 686.15 0.0014574 -107.30 -107.30 -0.56087 1.3343 1.9744 1823.5 -0.0073878 1050.1 0.18856 0.00090784 1101.5 385.93 410.72 3.3777 0.86011 1.0487 173.88 1.9508 3.5908 0.0041766
-140.62 0.0038222 7.7860e-07 -105.32 -105.32 -0.54590 685.14 0.0014596 -105.32 -105.32 -0.54591 1.3344 1.9760 1816.7 -0.0073765 1020.7 0.18803 0.0010547 948.16 386.79 411.77 3.3560 0.86341 1.0520 174.48 1.9133 3.6183 0.0042372
-139.62 0.0044623 8.9957e-07 -103.34 -103.34 -0.53104 684.13 0.0014617 -103.34 -103.34 -0.53105 1.3344 1.9776 1810.0 -0.0073651 992.74 0.18749 0.0012221 818.26 387.65 412.83 3.3347 0.86670 1.0553 175.08 1.8768 3.6459 0.0042980
-138.62 0.0051963 1.0367e-06 -101.37 -101.37 -0.51628 683.12 0.0014639 -101.37 -101.37 -0.51629 1.3345 1.9792 1803.3 -0.0073536 965.97 0.18695 0.0014125 707.94 388.52 413.88 3.3139 0.86998 1.0586 175.67 1.8413 3.6734 0.0043592
-137.62 0.0060358 1.1918e-06 -99.386 -99.385 -0.50162 682.11 0.0014660 -99.386 -99.386 -0.50162 1.3346 1.9808 1796.6 -0.0073419 940.35 0.18641 0.0016287 614.00 389.39 414.94 3.2935 0.87325 1.0619 176.26 1.8069 3.7009 0.0044206
-136.62 0.0069938 1.3668e-06 -97.404 -97.404 -0.48705 681.10 0.0014682 -97.404 -97.404 -0.48705 1.3347 1.9825 1789.9 -0.0073301 915.81 0.18586 0.0018733 533.80 390.26 416.00 3.2735 0.87650 1.0651 176.85 1.7734 3.7284 0.0044823
-135.62 0.0080843 1.5637e-06 -95.420 -95.420 -0.47257 680.09 0.0014704 -95.421 -95.421 -0.47258 1.3348 1.9841 1783.2 -0.0073180 892.30 0.18531 0.0021497 465.17 391.14 417.07 3.2540 0.87975 1.0684 177.44 1.7409 3.7559 0.0045443
-134.62 0.0093230 1.7850e-06 -93.435 -93.435 -0.45819 679.08 0.0014726 -93.436 -93.436 -0.45820 1.3350 1.9858 1776.5 -0.0073059 869.75 0.18476 0.0024613 406.30 392.02 418.14 3.2348 0.88299 1.0716 178.02 1.7093 3.7834 0.0046066
-133.62 0.010727 2.0329e-06 -91.449 -91.448 -0.44390 678.07 0.0014748 -91.450 -91.449 -0.44391 1.3351 1.9875 1769.8 -0.0072935 848.11 0.18421 0.0028116 355.67 392.91 419.21 3.2161 0.88622 1.0749 178.61 1.6786 3.8109 0.0046691
-132.62 0.012315 2.3101e-06 -89.460 -89.460 -0.42970 677.06 0.0014770 -89.461 -89.461 -0.42971 1.3353 1.9892 1763.1 -0.0072810 827.32 0.18365 0.0032049 312.03 393.79 420.29 3.1977 0.88944 1.0781 179.19 1.6488 3.8385 0.0047320
-131.62 0.014106 2.6195e-06 -87.470 -87.470 -0.41559 676.04 0.0014792 -87.471 -87.471 -0.41560 1.3354 1.9909 1756.4 -0.0072684 807.34 0.18309 0.0036453 274.33 394.68 421.36 3.1798 0.89266 1.0813 179.76 1.6197 3.8660 0.0047951
-130.62 0.016124 2.9641e-06 -85.478 -85.478 -0.40156 675.03 0.0014814 -85.479 -85.479 -0.40157 1.3356 1.9926 1749.7 -0.0072555 788.12 0.18253 0.0041375 241.69 395.58 422.44 3.1622 0.89586 1.0846 180.34 1.5915 3.8935 0.0048586
-129.62 0.018392 3.3471e-06 -83.484 -83.484 -0.38762 674.02 0.0014836 -83.486 -83.486 -0.38763 1.3358 1.9944 1743.0 -0.0072425 769.63 0.18196 0.0046867 213.37 396.47 423.53 3.1450 0.89906 1.0878 180.91 1.5641 3.9210 0.0049223
-128.62 0.020935 3.7719e-06 -81.489 -81.489 -0.37377 673.01 0.0014859 -81.491 -81.490 -0.37378 1.3360 1.9961 1736.3 -0.0072294 751.83 0.18140 0.0052981 188.75 397.37 424.62 3.1281 0.90226 1.0910 181.48 1.5374 3.9485 0.0049863
-127.62 0.023783 4.2423e-06 -79.492 -79.491 -0.36000 672.00 0.0014881 -79.494 -79.493 -0.36001 1.3363 1.9979 1729.6 -0.0072160 734.67 0.18083 0.0059776 167.29 398.27 425.71 3.1116 0.90545 1.0942 182.05 1.5114 3.9760 0.0050506
-126.62 0.026966 4.7621e-06 -77.493 -77.492 -0.34631 670.98 0.0014904 -77.495 -77.495 -0.34632 1.3365 1.9997 1722.9 -0.0072025 718.14 0.18025 0.0067313 148.56 399.18 426.80 3.0954 0.90863 1.0974 182.62 1.4861 4.0035 0.0051152
-125.62 0.030515 5.3355e-06 -75.492 -75.491 -0.33270 669.97 0.0014926 -75.494 -75.494 -0.33272 1.3368 2.0015 1716.2 -0.0071888 702.18 0.17968 0.0075660 132.17 400.09 427.89 3.0795 0.91181 1.1006 183.18 1.4615 4.0310 0.0051800
-124.62 0.034467 5.9669e-06 -73.489 -73.489 -0.31917 668.95 0.0014949 -73.492 -73.492 -0.31919 1.3371 2.0033 1709.5 -0.0071749 686.79 0.17910 0.0084885 117.81 401.00 428.99 3.0640 0.91499 1.1038 183.74 1.4375 4.0584 0.0052452
-123.62 0.038859 6.6609e-06 -71.485 -71.484 -0.30572 667.94 0.0014971 -71.488 -71.487 -0.30574 1.3374 2.0051 1702.8 -0.0071609 671.93 0.17852 0.0095065 105.19 401.91 430.10 3.0488 0.91816 1.1070 184.30 1.4141 4.0859 0.0053106
-122.62 0.043731 7.4224e-06 -69.478 -69.477 -0.29234 666.92 0.0014994 -69.482 -69.481 -0.29237 1.3377 2.0070 1696.2 -0.0071466 657.57 0.17794 0.010628 94.092 402.83 431.20 3.0339 0.92134 1.1102 184.86 1.3913 4.1134 0.0053764
-121.62 0.049128 8.2567e-06 -67.470 -67.469 -0.27905 665.91 0.0015017 -67.474 -67.473 -0.27907 1.3380 2.0089 1689.5 -0.0071322 643.70 0.17736 0.011861 84.309 403.75 432.31 3.0193 0.92451 1.1134 185.41 1.3691 4.1409 0.0054424
-120.62 0.055096 9.1690e-06 -65.460 -65.459 -0.26582 664.89 0.0015040 -65.464 -65.463 -0.26585 1.3384 2.0107 1682.8 -0.0071176 630.28 0.17678 0.013215 75.669 404.67 433.42 3.0050 0.92767 1.1166 185.96 1.3475 4.1683 0.0055087
-119.62 0.061684 1.0165e-05 -63.447 -63.447 -0.25267 663.87 0.0015063 -63.452 -63.452 -0.25271 1.3387 2.0126 1676.1 -0.0071028 617.30 0.17619 0.014700 68.027 405.60 434.53 2.9909 0.93084 1.1198 186.51 1.3264 4.1958 0.0055752
-118.62 0.068946 1.1251e-05 -61.433 -61.432 -0.23960 662.86 0.0015086 -61.439 -61.438 -0.23963 1.3391 2.0146 1669.4 -0.0070878 604.74 0.17560 0.016325 61.255 406.53 435.64 2.9772 0.93401 1.1231 187.06 1.3058 4.2233 0.0056421
-117.62 0.076937 1.2433e-05 -59.417 -59.416 -0.22659 661.84 0.0015109 -59.423 -59.422 -0.22663 1.3395 2.0165 1662.8 -0.0070726 592.58 0.17501 0.018101 55.245 407.46 436.76 2.9638 0.93718 1.1263 187.60 1.2857 4.2507 0.0057092
-116.62 0.085718 1.3718e-05 -57.399 -57.398 -0.21366 660.82 0.0015133 -57.406 -57.405 -0.21370 1.3400 2.0184 1656.1 -0.0070573 580.80 0.17442 0.020040 49.901 408.39 437.88 2.9506 0.94035 1.1295 188.14 1.2660 4.2782 0.0057767
-115.62 0.095353 1.5112e-05 -55.379 -55.378 -0.20079 659.80 0.0015156 -55.386 -55.385 -0.20084 1.3404 2.0204 1649.4 -0.0070417 569.38 0.17383 0.022152 45.142 409.33 439.01 2.9377 0.94352 1.1327 188.68 1.2468 4.3056 0.0058444
-114.62 0.10591 1.6623e-05 -53.357 -53.356 -0.18800 658.78 0.0015180 -53.365 -53.364 -0.18805 1.3409 2.0224 1642.7 -0.0070260 558.32 0.17323 0.024451 40.898 410.27 440.13 2.9250 0.94669 1.1360 189.22 1.2281 4.3330 0.0059123
-113.62 0.11746 1.8259e-05 -51.333 -51.331 -0.17527 657.76 0.0015203 -51.342 -51.340 -0.17533 1.3413 2.0244 1636.0 -0.0070100 547.59 0.17264 0.026949 37.107 411.21 441.26 2.9126 0.94987 1.1392 189.75 1.2097 4.3604 0.0059806
-112.62 0.13008 2.0025e-05 -49.307 -49.305 -0.16261 656.73 0.0015227 -49.316 -49.315 -0.16267 1.3418 2.0264 1629.3 -0.0069938 537.18 0.17204 0.029661 33.715 412.16 442.39 2.9005 0.95305 1.1424 190.28 1.1918 4.3879 0.0060491
-111.62 0.14384 2.1932e-05 -47.279 -47.276 -0.15001 655.71 0.0015251 -47.289 -47.287 -0.15008 1.3424 2.0285 1622.7 -0.0069774 527.08 0.17144 0.032600 30.675 413.10 443.53 2.8885 0.95623 1.1457 190.81 1.1742 4.4153 0.0061180
-110.62 0.15884 2.3987e-05 -45.248 -45.246 -0.13748 654.69 0.0015274 -45.259 -45.258 -0.13755 1.3429 2.0305 1616.0 -0.0069609 517.28 0.17084 0.035781 27.948 414.06 444.66 2.8769 0.95942 1.1490 191.34 1.1570 4.4427 0.0061871
-109.62 0.17516 2.6199e-05 -43.216 -43.213 -0.12501 653.66 0.0015298 -43.228 -43.226 -0.12509 1.3435 2.0326 1609.3 -0.0069441 507.76 0.17024 0.039220 25.497 415.01 445.80 2.8654 0.96261 1.1522 191.86 1.1402 4.4701 0.0062564
-108.62 0.19290 2.8576e-05 -41.181 -41.178 -0.11261 652.64 0.0015322 -41.194 -41.192 -0.11269 1.3441 2.0347 1602.6 -0.0069271 498.51 0.16964 0.042933 23.292 415.96 446.94 2.8542 0.96581 1.1555 192.38 1.1236 4.4974 0.0063261
-107.62 0.21215 3.1128e-05 -39.144 -39.141 -0.10027 651.61 0.0015347 -39.158 -39.156 -0.10036 1.3447 2.0369 1595.9 -0.0069098 489.52 0.16903 0.046937 21.305 416.92 448.09 2.8433 0.96901 1.1588 192.90 1.1075 4.5248 0.0063960
-106.62 0.23301 3.3864e-05 -37.105 -37.102 -0.087984 650.58 0.0015371 -37.120 -37.118 -0.088082 1.3453 2.0390 1589.2 -0.0068924 480.79 0.16843 0.051250 19.512 417.88 449.23 2.8325 0.97222 1.1621 193.41 1.0916 4.5522 0.0064662
-105.62 0.25561 3.6795e-05 -35.064 -35.060 -0.075762 649.55 0.0015395 -35.080 -35.078 -0.075868 1.3460 2.0412 1582.6 -0.0068747 472.30 0.16782 0.055891 17.892 418.85 450.38 2.8220 0.97544 1.1655 193.93 1.0760 4.5795 0.0065367
-104.62 0.28004 3.9929e-05 -33.020 -33.016 -0.063599 648.52 0.0015420 -33.038 -33.035 -0.063714 1.3467 2.0434 1575.9 -0.0068569 464.04 0.16721 0.060878 16.426 419.81 451.53 2.8116 0.97867 1.1688 194.44 1.0608 4.6069 0.0066074
-103.62 0.30643 4.3278e-05 -30.974 -30.970 -0.051495 647.49 0.0015444 -30.994 -30.991 -0.051619 1.3474 2.0456 1569.2 -0.0068387 456.00 0.16660 0.066231 15.099 420.78 452.68 2.8015 0.98191 1.1722 194.94 1.0458 4.6342 0.0066785
-102.62 0.33490 4.6852e-05 -28.926 -28.921 -0.039449 646.46 0.0015469 -28.947 -28.944 -0.039582 1.3481 2.0478 1562.5 -0.0068204 448.18 0.16600 0.071971 13.894 421.75 453.84 2.7916 0.98516 1.1755 195.44 1.0310 4.6615 0.0067498
-101.62 0.36558 5.0662e-05 -26.876 -26.870 -0.027459 645.43 0.0015494 -26.898 -26.894 -0.027602 1.3489 2.0501 1555.8 -0.0068018 440.57 0.16539 0.078120 12.801 422.73 454.99 2.7818 0.98841 1.1789 195.95 1.0166 4.6888 0.0068213
-100.62 0.39862 5.4718e-05 -24.823 -24.817 -0.015526 644.39 0.0015519 -24.847 -24.843 -0.015678 1.3497 2.0524 1549.1 -0.0067830 433.16 0.16478 0.084699 11.807 423.70 456.15 2.7723 0.99168 1.1823 196.44 1.0024 4.7161 0.0068932
-99.625 0.43414 5.9033e-05 -22.767 -22.761 -0.0036469 643.36 0.0015544 -22.794 -22.789 -0.0038103 1.3505 2.0547 1542.4 -0.0067639 425.95 0.16416 0.091731 10.901 424.68 457.31 2.7630 0.99496 1.1858 196.94 0.98838 4.7434 0.0069653
-98.625 0.47230 6.3617e-05 -20.710 -20.702 0.0081774 642.32 0.0015569 -20.738 -20.733 0.0080027 1.3514 2.0570 1535.7 -0.0067447 418.92 0.16355 0.099240 10.077 425.66 458.48 2.7538 0.99825 1.1892 197.43 0.97464 4.7707 0.0070377
-97.625 0.51325 6.8483e-05 -18.649 -18.642 0.019948 641.28 0.0015594 -18.680 -18.674 0.019762 1.3522 2.0594 1529.0 -0.0067251 412.07 0.16294 0.10725 9.3239 426.65 459.64 2.7448 1.0016 1.1927 197.92 0.96112 4.7979 0.0071103
-96.625 0.55714 7.3642e-05 -16.587 -16.578 0.031666 640.24 0.0015619 -16.620 -16.614 0.031467 1.3531 2.0618 1522.3 -0.0067053 405.39 0.16233 0.11579 8.6365 427.63 460.81 2.7360 1.0049 1.1962 198.40 0.94783 4.8251 0.0071832
-95.625 0.60416 7.9107e-05 -14.522 -14.512 0.043332 639.20 0.0015645 -14.557 -14.550 0.043120 1.3540 2.0642 1515.7 -0.0066853 398.88 0.16171 0.12488 8.0078 428.62 461.98 2.7274 1.0082 1.1997 198.88 0.93475 4.8524 0.0072564
-94.625 0.65446 8.4889e-05 -12.454 -12.444 0.054947 638.16 0.0015670 -12.491 -12.484 0.054721 1.3550 2.0667 1509.0 -0.0066650 392.53 0.16110 0.13455 7.4323 429.61 463.15 2.7189 1.0116 1.2032 199.36 0.92188 4.8796 0.0073299
-93.625 0.70822 9.1003e-05 -10.384 -10.373 0.066512 637.12 0.0015696 -10.424 -10.416 0.066271 1.3560 2.0691 1502.3 -0.0066444 386.34 0.16048 0.14482 6.9050 430.60 464.32 2.7107 1.0149 1.2068 199.83 0.90921 4.9068 0.0074036
-92.625 0.76564 9.7459e-05 -8.3106 -8.2990 0.078026 636.07 0.0015722 -8.3535 -8.3452 0.077771 1.3570 2.0716 1495.6 -0.0066236 380.31 0.15987 0.15573 6.4212 431.60 465.49 2.7025 1.0183 1.2104 200.30 0.89673 4.9340 0.0074776
-91.625 0.82689 0.00010427 -6.2351 -6.2226 0.089492 635.02 0.0015747 -6.2808 -6.2719 0.089220 1.3580 2.0742 1488.9 -0.0066025 374.41 0.15925 0.16731 5.9769 432.59 466.67 2.6946 1.0217 1.2140 200.77 0.88445 4.9611 0.0075518
-90.625 0.89218 0.00011145 -4.1568 -4.1433 0.10091 633.98 0.0015773 -4.2056 -4.1959 0.10062 1.3591 2.0767 1482.2 -0.0065811 368.66 0.15864 0.17958 5.5685 433.59 467.84 2.6868 1.0251 1.2177 201.24 0.87236 4.9883 0.0076263
-89.625 0.96172 0.00011902 -2.0759 -2.0613 0.11228 632.93 0.0015800 -2.1279 -2.1174 0.11197 1.3602 2.0793 1475.5 -0.0065595 363.05 0.15802 0.19258 5.1928 434.59 469.02 2.6791 1.0285 1.2213 201.70 0.86045 5.0154 0.0077011
-88.625 1.0357 0.00012698 0.0078007 0.023495 0.12360 631.88 0.0015826 -0.047516 -0.036215 0.12328 1.3613 2.0819 1468.8 -0.0065375 357.56 0.15740 0.20633 4.8466 435.59 470.20 2.6717 1.0320 1.2250 202.15 0.84873 5.0425 0.0077761
-87.625 1.1144 0.00013535 2.0943 2.1112 0.13488 630.83 0.0015852 2.0355 2.0476 0.13454 1.3625 2.0846 1462.1 -0.0065153 352.21 0.15679 0.22087 4.5276 436.60 471.39 2.6643 1.0354 1.2288 202.61 0.83718 5.0696 0.0078514
-86.625 1.1979 0.00014414 4.1835 4.2017 0.14611 629.77 0.0015879 4.1211 4.1342 0.14575 1.3637 2.0873 1455.4 -0.0064928 346.98 0.15617 0.23623 4.2331 437.61 472.57 2.6571 1.0389 1.2325 203.06 0.82580 5.0967 0.0079270
-85.625 1.2866 0.00015337 6.2757 6.2952 0.15730 628.72 0.0015905 6.2094 6.2235 0.15691 1.3649 2.0900 1448.8 -0.0064701 341.87 0.15555 0.25245 3.9612 438.61 473.75 2.6501 1.0424 1.2363 203.50 0.81460 5.1237 0.0080028
-84.625 1.3806 0.00016304 8.3707 8.3916 0.16844 627.66 0.0015932 8.3004 8.3155 0.16803 1.3661 2.0927 1442.1 -0.0064470 336.87 0.15494 0.26956 3.7097 439.63 474.94 2.6432 1.0460 1.2402 203.95 0.80356 5.1508 0.0080789
-83.625 1.4803 0.00017318 10.469 10.491 0.17954 626.60 0.0015959 10.394 10.410 0.17911 1.3674 2.0955 1435.4 -0.0064236 331.99 0.15432 0.28760 3.4771 440.64 476.13 2.6364 1.0495 1.2440 204.38 0.79269 5.1778 0.0081553
-82.625 1.5858 0.00018380 12.569 12.594 0.19059 625.54 0.0015986 12.491 12.508 0.19014 1.3687 2.0983 1428.7 -0.0063999 327.22 0.15370 0.30659 3.2616 441.65 477.31 2.6298 1.0531 1.2479 204.82 0.78199 5.2048 0.0082319
-81.625 1.6975 0.00019491 14.673 14.699 0.20161 624.48 0.0016013 14.590 14.609 0.20113 1.3700 2.1012 1422.0 -0.0063759 322.55 0.15309 0.32659 3.0619 442.67 478.50 2.6233 1.0567 1.2519 205.25 0.77144 5.2318 0.0083088
-80.625 1.8155 0.00020652 16.780 16.808 0.21258 623.42 0.0016041 16.692 16.712 0.21208 1.3714 2.1041 1415.4 -0.0063516 317.99 0.15247 0.34763 2.8766 443.69 479.70 2.6169 1.0603 1.2558 205.67 0.76106 5.2587 0.0083860
-79.625 1.9402 0.00021865 18.890 18.920 0.22351 622.36 0.0016068 18.797 18.819 0.22299 1.3728 2.1070 1408.7 -0.0063270 313.52 0.15186 0.36974 2.7046 444.71 480.89 2.6106 1.0639 1.2598 206.10 0.75083 5.2857 0.0084634
-78.625 2.0718 0.00023131 21.003 21.035 0.23440 621.29 0.0016096 20.905 20.928 0.23385 1.3742 2.1099 1402.0 -0.0063021 309.15 0.15124 0.39296 2.5448 445.73 482.08 2.6045 1.0676 1.2639 206.51 0.74076 5.3126 0.0085411
-77.625 2.2107 0.00024451 23.119 23.153 0.24525 620.22 0.0016123 23.016 23.040 0.24468 1.3757 2.1129 1395.3 -0.0062768 304.88 0.15062 0.41735 2.3961 446.75 483.27 2.5985 1.0712 1.2680 206.93 0.73084 5.3395 0.0086190
-76.625 2.3571 0.00025827 25.239 25.275 0.25606 619.15 0.0016151 25.130 25.156 0.25546 1.3772 2.1159 1388.7 -0.0062512 300.69 0.15001 0.44292 2.2577 447.78 484.47 2.5926 1.0749 1.2721 207.34 0.72107 5.3664 0.0086972
-75.625 2.5113 0.00027260 27.361 27.399 0.26684 618.08 0.0016179 27.247 27.275 0.26620 1.3787 2.1190 1382.0 -0.0062253 296.59 0.14939 0.46974 2.1288 448.81 485.67 2.5869 1.0787 1.2762 207.74 0.71146 5.3933 0.0087757
-74.625 2.6736 0.00028752 29.487 29.528 0.27757 617.01 0.0016207 29.366 29.396 0.27691 1.3802 2.1221 1375.4 -0.0061990 292.58 0.14878 0.49783 2.0087 449.83 486.86 2.5812 1.0824 1.2804 208.14 0.70200 5.4201 0.0088544
-73.625 2.8444 0.00030303 31.616 31.660 0.28827 615.93 0.0016236 31.489 31.521 0.28758 1.3818 2.1252 1368.7 -0.0061724 288.65 0.14816 0.52725 1.8966 450.86 488.06 2.5757 1.0862 1.2847 208.54 0.69268 5.4469 0.0089334
-72.625 3.0240 0.00031916 33.749 33.795 0.29893 614.85 0.0016264 33.615 33.649 0.29821 1.3834 2.1284 1362.0 -0.0061454 284.81 0.14755 0.55804 1.7920 451.90 489.26 2.5703 1.0900 1.2889 208.93 0.68351 5.4737 0.0090126
-71.625 3.2127 0.00033590 35.885 35.933 0.30956 613.78 0.0016293 35.745 35.781 0.30880 1.3851 2.1316 1355.4 -0.0061181 281.03 0.14694 0.59024 1.6942 452.93 490.46 2.5650 1.0938 1.2932 209.32 0.67448 5.5005 0.0090922
-70.625 3.4108 0.00035328 38.024 38.076 0.32014 612.69 0.0016321 37.877 37.915 0.31935 1.3867 2.1349 1348.7 -0.0060904 277.34 0.14632 0.62390 1.6028 453.96 491.66 2.5598 1.0976 1.2976 209.70 0.66560 5.5273 0.0091720
-69.625 3.6187 0.00037130 40.167 40.222 0.33070 611.61 0.0016350 40.013 40.053 0.32987 1.3884 2.1382 1342.1 -0.0060624 273.72 0.14571 0.65906 1.5173 455.00 492.86 2.5547 1.1015 1.3020 210.08 0.65687 5.5540 0.0092520
-68.625 3.8367 0.00038999 42.313 42.371 0.34122 610.53 0.0016379 42.152 42.195 0.34036 1.3902 2.1415 1335.5 -0.0060339 270.17 0.14510 0.69577 1.4372 456.04 494.06 2.5497 1.1054 1.3064 210.45 0.64827 5.5807 0.0093324
-67.625 4.0652 0.00040934 44.463 44.524 0.35170 609.44 0.0016409 44.294 44.340 0.35080 1.3919 2.1449 1328.8 -0.0060051 266.69 0.14449 0.73408 1.3622 457.08 495.26 2.5448 1.1093 1.3109 210.82 0.63981 5.6074 0.0094130
-66.625 4.3046 0.00042937 46.616 46.681 0.36215 608.35 0.0016438 46.439 46.488 0.36122 1.3937 2.1483 1322.2 -0.0059760 263.28 0.14388 0.77404 1.2919 458.12 496.46 2.5400 1.1133 1.3154 211.18 0.63150 5.6341 0.0094939
-65.625 4.5551 0.00045010 48.773 48.842 0.37257 607.26 0.0016467 48.588 48.640 0.37160 1.3955 2.1518 1315.6 -0.0059464 259.93 0.14327 0.81570 1.2259 459.16 497.67 2.5353 1.1172 1.3200 211.54 0.62332 5.6608 0.0095750
-64.625 4.8173 0.00047153 50.933 51.006 0.38296 606.16 0.0016497 50.740 50.795 0.38195 1.3974 2.1553 1308.9 -0.0059164 256.65 0.14266 0.85910 1.1640 460.21 498.87 2.5307 1.1212 1.3246 211.89 0.61527 5.6874 0.0096564
-63.625 5.0915 0.00049367 53.098 53.175 0.39331 605.07 0.0016527 52.896 52.954 0.39226 1.3993 2.1588 1302.3 -0.0058861 253.42 0.14205 0.90429 1.1058 461.25 500.07 2.5262 1.1252 1.3293 212.24 0.60736 5.7140 0.0097382
-62.625 5.3781 0.00051653 55.266 55.347 0.40364 603.97 0.0016557 55.055 55.117 0.40254 1.4012 2.1624 1295.7 -0.0058553 250.26 0.14144 0.95134 1.0511 462.30 501.28 2.5218 1.1293 1.3340 212.58 0.59958 5.7406 0.0098201
-61.625 5.6774 0.00054012 57.438 57.524 0.41393 602.87 0.0016587 57.218 57.283 0.41279 1.4031 2.1660 1289.1 -0.0058241 247.16 0.14084 1.0003 0.99972 463.35 502.48 2.5175 1.1333 1.3387 212.92 0.59194 5.7672 0.0099024
-60.625 5.9899 0.00056445 59.613 59.704 0.42419 601.77 0.0016618 59.385 59.453 0.42301 1.4051 2.1697 1282.5 -0.0057925 244.12 0.14023 1.0512 0.95131 464.40 503.68 2.5133 1.1374 1.3435 213.26 0.58442 5.7938 0.0099850
-59.625 6.3160 0.00058953 61.793 61.888 0.43442 600.66 0.0016648 61.554 61.627 0.43320 1.4071 2.1734 1275.9 -0.0057605 241.13 0.13962 1.1041 0.90573 465.45 504.89 2.5091 1.1415 1.3483 213.58 0.57704 5.8203 0.010068
-58.625 6.6561 0.00061537 63.976 64.077 0.44462 599.55 0.0016679 63.728 63.805 0.44335 1.4091 2.1772 1269.3 -0.0057280 238.19 0.13902 1.1591 0.86277 466.50 506.09 2.5051 1.1457 1.3532 213.90 0.56978 5.8468 0.010151
-57.625 7.0107 0.00064197 66.163 66.269 0.45479 598.44 0.0016710 65.905 65.986 0.45348 1.4111 2.1810 1262.7 -0.0056951 235.31 0.13842 1.2161 0.82228 467.55 507.30 2.5011 1.1498 1.3581 214.22 0.56265 5.8733 0.010234
-56.625 7.3801 0.00066934 68.355 68.466 0.46494 597.33 0.0016741 68.086 68.172 0.46358 1.4132 2.1848 1256.1 -0.0056617 232.48 0.13781 1.2754 0.78408 468.60 508.50 2.4972 1.1540 1.3631 214.53 0.55564 5.8998 0.010318
-55.625 7.7648 0.00069749 70.550 70.667 0.47505 596.22 0.0016772 70.271 70.361 0.47364 1.4153 2.1887 1249.5 -0.0056279 229.69 0.13721 1.3369 0.74802 469.66 509.71 2.4934 1.1582 1.3681 214.84 0.54875 5.9263 0.010402
-54.625 8.1652 0.00072641 72.749 72.873 0.48514 595.10 0.0016804 72.460 72.554 0.48368 1.4174 2.1927 1242.9 -0.0055937 226.96 0.13661 1.4006 0.71396 470.72 510.91 2.4897 1.1624 1.3731 215.14 0.54199 5.9527 0.010486
-53.625 8.5819 0.00075613 74.953 75.083 0.49520 593.98 0.0016836 74.652 74.752 0.49369 1.4196 2.1967 1236.3 -0.0055589 224.27 0.13601 1.4667 0.68178 471.77 512.11 2.4860 1.1667 1.3782 215.43 0.53535 5.9792 0.010571
-52.625 9.0151 0.00078663 77.160 77.297 0.50523 592.86 0.0016867 76.849 76.954 0.50368 1.4218 2.2007 1229.8 -0.0055237 221.63 0.13541 1.5353 0.65136 472.83 513.32 2.4824 1.1710 1.3834 215.72 0.52882 6.0056 0.010656
-51.625 9.4655 0.00081793 79.372 79.515 0.51524 591.73 0.0016900 79.049 79.159 0.51363 1.4240 2.2048 1223.2 -0.0054880 219.04 0.13482 1.6062 0.62258 473.89 514.52 2.4789 1.1752 1.3886 216.00 0.52241 6.0320 0.010741
-50.625 9.9335 0.00085003 81.588 81.739 0.52522 590.60 0.0016932 81.253 81.369 0.52356 1.4262 2.2089 1216.6 -0.0054519 216.48 0.13422 1.6797 0.59534 474.95 515.73 2.4755 1.1796 1.3938 216.28 0.51612 6.0584 0.010827
-49.625 10.419 0.00088293 83.808 83.966 0.53518 589.47 0.0016964 83.462 83.584 0.53347 1.4285 2.2131 1210.1 -0.0054152 213.98 0.13363 1.7558 0.56954 476.01 516.93 2.4722 1.1839 1.3991 216.55 0.50994 6.0848 0.010913
-48.625 10.924 0.00091663 86.033 86.198 0.54511 588.34 0.0016997 85.674 85.802 0.54334 1.4308 2.2173 1203.5 -0.0053780 211.51 0.13303 1.8345 0.54510 477.07 518.13 2.4689 1.1883 1.4044 216.82 0.50387 6.1112 0.010999
-47.625 11.448 0.00095113 88.262 88.435 0.55501 587.20 0.0017030 87.891 88.025 0.55319 1.4331 2.2216 1196.9 -0.0053403 209.08 0.13244 1.9159 0.52194 478.14 519.33 2.4657 1.1927 1.4098 217.08 0.49792 6.1375 0.011085
-46.625 11.991 0.00098643 90.495 90.677 0.56489 586.06 0.0017063 90.111 90.252 0.56302 1.4354 2.2259 1190.4 -0.0053020 206.69 0.13185 2.0001 0.49997 479.20 520.53 2.4625 1.1971 1.4153 217.33 0.49207 6.1639 0.011172
-45.625 12.554 0.0010225 92.733 92.923 0.57475 584.92 0.0017096 92.336 92.484 0.57282 1.4378 2.2303 1183.8 -0.0052633 204.34 0.13126 2.0872 0.47912 480.27 521.74 2.4594 1.2015 1.4207 217.58 0.48633 6.1902 0.011259
-44.625 13.137 0.0010594 94.975 95.174 0.58458 583.77 0.0017130 94.565 94.720 0.58260 1.4402 2.2347 1177.3 -0.0052240 202.03 0.13067 2.1771 0.45933 481.33 522.94 2.4564 1.2060 1.4263 217.82 0.48069 6.2165 0.011347
-43.625 13.741 0.0010971 97.222 97.430 0.59439 582.62 0.0017164 96.799 96.961 0.59235 1.4426 2.2392 1170.7 -0.0051841 199.75 0.13008 2.2700 0.44053 482.40 524.14 2.4535 1.2104 1.4319 218.05 0.47516 6.2429 0.011435
-42.625 14.367 0.0011356 99.473 99.691 0.60418 581.47 0.0017198 99.036 99.207 0.60208 1.4450 2.2437 1164.2 -0.0051437 197.51 0.12949 2.3659 0.42267 483.46 525.33 2.4506 1.2149 1.4375 218.28 0.46973 6.2692 0.011523
-41.625 15.015 0.0011749 101.73 101.96 0.61394 580.32 0.0017232 101.28 101.46 0.61179 1.4475 2.2483 1157.7 -0.0051027 195.30 0.12891 2.4649 0.40569 484.53 526.53 2.4478 1.2195 1.4432 218.50 0.46440 6.2955 0.011612
-40.625 15.686 0.0012149 103.99 104.23 0.62369 579.16 0.0017266 103.52 103.71 0.62147 1.4500 2.2529 1151.1 -0.0050611 193.13 0.12832 2.5671 0.38954 485.60 527.73 2.4450 1.2240 1.4489 218.72 0.45917 6.3218 0.011701
-39.625 16.380 0.0012557 106.25 106.50 0.63341 578.00 0.0017301 105.78 105.97 0.63113 1.4525 2.2576 1144.6 -0.0050189 190.99 0.12774 2.6725 0.37418 486.67 528.93 2.4423 1.2286 1.4547 218.93 0.45403 6.3481 0.011790
-38.625 17.097 0.0012973 108.52 108.78 0.64311 576.83 0.0017336 108.03 108.24 0.64077 1.4550 2.2623 1138.0 -0.0049761 188.88 0.12716 2.7813 0.35955 487.74 530.12 2.4397 1.2332 1.4606 219.13 0.44900 6.3744 0.011880
-37.625 17.838 0.0013397 110.80 111.07 0.65278 575.66 0.0017371 110.29 110.51 0.65039 1.4576 2.2671 1131.5 -0.0049327 186.81 0.12658 2.8934 0.34562 488.81 531.32 2.4371 1.2378 1.4665 219.33 0.44405 6.4007 0.011970
-36.625 18.604 0.0013827 113.08 113.36 0.66244 574.49 0.0017407 112.56 112.78 0.65999 1.4602 2.2719 1125.0 -0.0048887 184.76 0.12600 3.0089 0.33235 489.88 532.51 2.4346 1.2424 1.4724 219.52 0.43920 6.4270 0.012060
-35.625 19.395 0.0014265 115.36 115.66 0.67208 573.32 0.0017442 114.83 115.06 0.66956 1.4628 2.2768 1118.5 -0.0048440 182.75 0.12542 3.1280 0.31969 490.95 533.70 2.4321 1.2471 1.4784 219.70 0.43444 6.4533 0.012151
-34.625 20.212 0.0014711 117.65 117.96 0.68169 572.14 0.0017478 117.10 117.34 0.67912 1.4654 2.2818 1111.9 -0.0047987 180.76 0.12485 3.2506 0.30763 492.02 534.89 2.4297 1.2517 1.4845 219.88 0.42977 6.4797 0.012243
-33.625 21.056 0.0015163 119.94 120.26 0.69129 570.96 0.0017514 119.38 119.63 0.68865 1.4681 2.2868 1105.4 -0.0047527 178.80 0.12427 3.3770 0.29612 493.09 536.08 2.4273 1.2564 1.4906 220.05 0.42519 6.5060 0.012334
-32.625 21.926 0.0015622 122.24 122.58 0.70087 569.77 0.0017551 121.66 121.93 0.69817 1.4708 2.2918 1098.9 -0.0047061 176.87 0.12370 3.5071 0.28514 494.17 537.27 2.4250 1.2611 1.4968 220.21 0.42070 6.5323 0.012426
-31.625 22.823 0.0016088 124.55 124.89 0.71042 568.58 0.0017588 123.95 124.23 0.70767 1.4735 2.2970 1092.3 -0.0046587 174.97 0.12313 3.6410 0.27465 495.24 538.46 2.4227 1.2659 1.5031 220.36 0.41629 6.5587 0.012519
-30.625 23.749 0.0016561 126.86 127.22 0.71996 567.39 0.0017625 126.24 126.53 0.71714 1.4762 2.3021 1085.8 -0.0046107 173.09 0.12256 3.7787 0.26464 496.31 539.64 2.4205 1.2706 1.5094 220.51 0.41196 6.5850 0.012612
-29.625 24.703 0.0017039 129.17 129.54 0.72948 566.19 0.0017662 128.54 128.84 0.72660 1.4790 2.3074 1079.3 -0.0045619 171.24 0.12200 3.9205 0.25507 497.38 540.83 2.4184 1.2754 1.5157 220.65 0.40772 6.6114 0.012706
-28.625 25.687 0.0017524 131.49 131.88 0.73899 564.99 0.0017699 130.84 131.16 0.73604 1.4818 2.3126 1072.8 -0.0045124 169.42 0.12143 4.0663 0.24592 498.46 542.01 2.4162 1.2802 1.5222 220.79 0.40356 6.6378 0.012800
-27.625 26.700 0.0018015 133.81 134.22 0.74847 563.78 0.0017737 133.15 133.48 0.74547 1.4846 2.3180 1066.2 -0.0044621 167.62 0.12087 4.2163 0.23717 499.53 543.19 2.4142 1.2850 1.5286 220.91 0.39947 6.6642 0.012894
-26.625 27.743 0.0018511 136.14 136.56 0.75794 562.57 0.0017775 135.47 135.81 0.75487 1.4874 2.3234 1059.7 -0.0044111 165.84 0.12031 4.3705 0.22881 500.60 544.37 2.4122 1.2899 1.5352 221.03 0.39547 6.6906 0.012989
-25.625 28.817 0.0019012 138.48 138.91 0.76739 561.36 0.0017814 137.78 138.14 0.76426 1.4902 2.3289 1053.2 -0.0043593 164.09 0.11975 4.5290 0.22080 501.68 545.55 2.4102 1.2947 1.5418 221.14 0.39154 6.7171 0.013084
-24.625 29.923 0.0019519 140.82 141.27 0.77682 560.14 0.0017853 140.11 140.48 0.77363 1.4931 2.3344 1046.7 -0.0043067 162.36 0.11919 4.6918 0.21314 502.75 546.72 2.4083 1.2996 1.5485 221.25 0.38768 6.7436 0.013180
-23.625 31.061 0.0020030 143.16 143.63 0.78624 558.92 0.0017892 142.44 142.82 0.78298 1.4960 2.3400 1040.1 -0.0042533 160.65 0.11863 4.8592 0.20580 503.82 547.90 2.4064 1.3045 1.5552 221.35 0.38391 6.7701 0.013277
-22.625 32.232 0.0020546 145.51 146.00 0.79563 557.69 0.0017931 144.77 145.17 0.79232 1.4990 2.3457 1033.6 -0.0041990 158.97 0.11807 5.0311 0.19877 504.90 549.07 2.4045 1.3095 1.5621 221.44 0.38020 6.7967 0.013374
-21.625 33.435 0.0021066 147.87 148.37 0.80502 556.46 0.0017971 147.11 147.52 0.80164 1.5019 2.3514 1027.1 -0.0041439 157.30 0.11752 5.2076 0.19203 505.97 550.24 2.4027 1.3144 1.5690 221.52 0.37656 6.8232 0.013471
-20.625 34.673 0.0021589 150.23 150.75 0.81438 555.23 0.0018011 149.45 149.88 0.81095 1.5049 2.3572 1020.6 -0.0040879 155.66 0.11697 5.3889 0.18557 507.04 551.40 2.4010 1.3194 1.5759 221.59 0.37300 6.8499 0.013569
-19.625 35.946 0.0022116 152.59 153.14 0.82374 553.99 0.0018051 151.80 152.25 0.82024 1.5079 2.3630 1014.0 -0.0040311 154.04 0.11642 5.5750 0.17937 508.11 552.57 2.3992 1.3244 1.5829 221.66 0.36950 6.8765 0.013668
-18.625 37.253 0.0022645 154.96 155.53 0.83307 552.74 0.0018092 154.16 154.62 0.82952 1.5109 2.3689 1007.5 -0.0039733 152.44 0.11587 5.7660 0.17343 509.19 553.73 2.3976 1.3294 1.5901 221.72 0.36608 6.9032 0.013767
-17.625 38.596 0.0023177 157.34 157.93 0.84239 551.49 0.0018133 156.52 157.00 0.83878 1.5140 2.3749 1001.0 -0.0039145 150.86 0.11532 5.9621 0.16773 510.26 554.89 2.3959 1.3345 1.5972 221.77 0.36272 6.9300 0.013867
-16.625 39.976 0.0023711 159.72 160.33 0.85170 550.24 0.0018174 158.89 159.39 0.84803 1.5171 2.3810 994.44 -0.0038549 149.29 0.11478 6.1632 0.16225 511.33 556.05 2.3943 1.3395 1.6045 221.81 0.35942 6.9568 0.013968
-15.625 41.392 0.0024246 162.11 162.74 0.86099 548.98 0.0018216 161.26 161.78 0.85726 1.5202 2.3871 987.91 -0.0037942 147.75 0.11423 6.3696 0.15700 512.40 557.20 2.3927 1.3446 1.6119 221.85 0.35619 6.9836 0.014069
-14.625 42.846 0.0024782 164.50 165.15 0.87026 547.71 0.0018258 163.64 164.18 0.86649 1.5233 2.3933 981.37 -0.0037325 146.22 0.11369 6.5812 0.15195 513.47 558.36 2.3912 1.3497 1.6193 221.87 0.35302 7.0105 0.014170
-13.625 44.338 0.0025318 166.90 167.58 0.87953 546.44 0.0018300 166.02 166.58 0.87569 1.5264 2.3996 974.83 -0.0036698 144.72 0.11315 6.7983 0.14710 514.54 559.51 2.3897 1.3549 1.6268 221.89 0.34992 7.0375 0.014273
-12.625 45.870 0.0025854 169.31 170.00 0.88877 545.17 0.0018343 168.41 168.99 0.88489 1.5296 2.4059 968.29 -0.0036061 143.23 0.11261 7.0208 0.14243 515.61 560.65 2.3883 1.3600 1.6344 221.90 0.34688 7.0646 0.014376
-11.625 47.440 0.0026390 171.72 172.44 0.89801 543.89 0.0018386 170.81 171.41 0.89407 1.5328 2.4124 961.75 -0.0035413 141.76 0.11208 7.2490 0.13795 516.68 561.80 2.3868 1.3652 1.6421 221.91 0.34389 7.0917 0.014479
-10.625 49.051 0.0026924 174.13 174.88 0.90723 542.60 0.0018430 173.21 173.83 0.90324 1.5360 2.4189 955.20 -0.0034753 140.30 0.11154 7.4829 0.13364 517.75 562.94 2.3854 1.3704 1.6498 221.90 0.34097 7.1188 0.014584
-9.6250 50.703 0.0027455 176.56 177.33 0.91644 541.31 0.0018474 175.61 176.26 0.91240 1.5393 2.4255 948.65 -0.0034082 138.86 0.11101 7.7226 0.12949 518.81 564.08 2.3841 1.3757 1.6577 221.88 0.33810 7.1461 0.014689
-8.6250 52.396 0.0027984 178.98 179.78 0.92563 540.02 0.0018518 178.03 178.70 0.92154 1.5426 2.4321 942.10 -0.0033400 137.44 0.11048 7.9683 0.12550 519.88 565.21 2.3827 1.3809 1.6657 221.86 0.33529 7.1734 0.014795
-7.6250 54.131 0.0028509 181.42 182.24 0.93482 538.72 0.0018563 180.45 181.14 0.93068 1.5459 2.4389 935.55 -0.0032705 136.03 0.10995 8.2200 0.12165 520.94 566.35 2.3814 1.3862 1.6737 221.83 0.33254 7.2008 0.014902
-6.6250 55.909 0.0029030 183.86 184.70 0.94399 537.41 0.0018608 182.87 183.59 0.93980 1.5492 2.4457 928.99 -0.0031998 134.64 0.10942 8.4779 0.11795 522.01 567.48 2.3801 1.3915 1.6819 221.79 0.32984 7.2284 0.015009
-5.6250 57.730 0.0029546 186.30 187.18 0.95314 536.10 0.0018653 185.30 186.05 0.94892 1.5525 2.4526 922.43 -0.0031279 133.27 0.10889 8.7420 0.11439 523.07 568.60 2.3789 1.3969 1.6902 221.74 0.32720 7.2560 0.015117
-4.6250 59.595 0.0030055 188.75 189.66 0.96229 534.78 0.0018699 187.74 188.51 0.95802 1.5559 2.4596 915.87 -0.0030546 131.91 0.10837 9.0126 0.11096 524.13 569.72 2.3777 1.4022 1.6985 221.68 0.32461 7.2837 0.015226
-3.6250 61.505 0.0030557 191.21 192.14 0.97142 533.45 0.0018746 190.19 190.98 0.96711 1.5593 2.4667 909.30 -0.0029800 130.56 0.10785 9.2896 0.10765 525.19 570.84 2.3765 1.4076 1.7070 221.62 0.32207 7.3115 0.015336
-2.6250 63.461 0.0031052 193.67 194.64 0.98054 532.12 0.0018793 192.64 193.46 0.97620 1.5627 2.4739 902.73 -0.0029041 129.23 0.10733 9.5733 0.10446 526.25 571.96 2.3753 1.4131 1.7156 221.54 0.31958 7.3394 0.015447
-1.6250 65.462 0.0031537 196.14 197.13 0.98965 530.78 0.0018840 195.10 195.95 0.98527 1.5662 2.4811 896.16 -0.0028267 127.91 0.10681 9.8638 0.10138 527.31 573.07 2.3742 1.4185 1.7243 221.45 0.31715 7.3674 0.015559
-0.62500 67.510 0.0032013 198.62 199.64 0.99875 529.44 0.0018888 197.56 198.44 0.99434 1.5696 2.4885 889.58 -0.0027478 126.61 0.10629 10.161 0.098414 528.37 574.18 2.3731 1.4240 1.7331 221.36 0.31476 7.3956 0.015671
0.37500 69.606 0.0032477 201.10 202.15 1.0078 528.09 0.0018936 200.03 200.94 1.0034 1.5731 2.4960 883.00 -0.0026675 125.32 0.10578 10.466 0.095552 529.42 575.28 2.3720 1.4295 1.7421 221.26 0.31242 7.4239 0.015785
1.3750 71.749 0.0032929 203.59 204.67 1.0169 526.73 0.0018985 202.51 203.45 1.0124 1.5767 2.5035 876.42 -0.0025856 124.04 0.10527 10.777 0.092790 530.48 576.38 2.3709 1.4350 1.7512 221.14 0.31013 7.4523 0.015899
2.3750 73.941 0.0033367 206.08 207.20 1.0260 525.37 0.0019034 204.99 205.96 1.0215 1.5802 2.5112 869.83 -0.0025022 122.78 0.10476 11.096 0.090123 531.53 577.47 2.3699 1.4406 1.7604 221.02 0.30789 7.4808 0.016015
3.3750 76.183 0.0033791 208.58 209.73 1.0350 523.99 0.0019084 207.48 208.48 1.0305 1.5838 2.5190 863.24 -0.0024171 121.53 0.10425 11.422 0.087549 532.58 578.56 2.3688 1.4462 1.7697 220.89 0.30569 7.5095 0.016131
4.3750 78.475 0.0034198 211.09 212.28 1.0441 522.62 0.0019134 209.98 211.01 1.0395 1.5874 2.5268 856.64 -0.0023303 120.29 0.10374 11.756 0.085062 533.63 579.65 2.3678 1.4518 1.7792 220.75 0.30354 7.5384 0.016249
5.3750 80.817 0.0034588 213.60 214.82 1.0531 521.23 0.0019185 212.48 213.55 1.0486 1.5910 2.5348 850.04 -0.0022417 119.06 0.10324 12.098 0.082660 534.67 580.73 2.3669 1.4575 1.7888 220.60 0.30144 7.5674 0.016368
6.3750 83.211 0.0034958 216.12 217.38 1.0621 519.84 0.0019237 215.00 216.10 1.0576 1.5946 2.5429 843.43 -0.0021514 117.85 0.10273 12.447 0.080340 535.72 581.81 2.3659 1.4632 1.7986 220.44 0.29938 7.5966 0.016487
7.3750 85.657 0.0035308 218.64 219.94 1.0712 518.44 0.0019289 217.51 218.65 1.0666 1.5983 2.5511 836.82 -0.0020593 116.65 0.10223 12.805 0.078096 536.76 582.88 2.3650 1.4689 1.8085 220.27 0.29736 7.6259 0.016608
8.3750 88.156 0.0035636 221.17 222.51 1.0802 517.03 0.0019341 220.04 221.22 1.0756 1.6020 2.5595 830.20 -0.0019652 115.46 0.10173 13.170 0.075928 537.80 583.95 2.3640 1.4746 1.8186 220.08 0.29538 7.6555 0.016730
9.3750 90.708 0.0035940 223.71 225.08 1.0892 515.62 0.0019394 222.57 223.79 1.0846 1.6057 2.5679 823.58 -0.0018691 114.28 0.10124 13.545 0.073830 538.84 585.01 2.3631 1.4804 1.8288 219.89 0.29345 7.6852 0.016853
10.375 93.315 0.0036218 226.25 227.67 1.0982 514.19 0.0019448 225.11 226.37 1.0936 1.6095 2.5765 816.96 -0.0017710 113.11 0.10074 13.927 0.071802 539.87 586.07 2.3622 1.4863 1.8392 219.69 0.29156 7.7151 0.016978
11.375 95.977 0.0036468 228.80 230.26 1.1071 512.76 0.0019502 227.66 228.95 1.1025 1.6132 2.5852 810.32 -0.0016708 111.95 0.10025 14.319 0.069840 540.90 587.12 2.3614 1.4921 1.8498 219.48 0.28971 7.7452 0.017103
12.375 98.694 0.0036688 231.36 232.86 1.1161 511.32 0.0019557 230.22 231.55 1.1115 1.6170 2.5940 803.68 -0.0015685 110.80 0.099756 14.719 0.067941 541.93 588.17 2.3605 1.4980 1.8605 219.26 0.28790 7.7756 0.017230
13.375 101.47 0.0036877 233.93 235.46 1.1251 509.87 0.0019613 232.78 234.15 1.1205 1.6208 2.6030 797.04 -0.0014639 109.67 0.099267 15.128 0.066103 542.96 589.21 2.3597 1.5040 1.8715 219.03 0.28612 7.8061 0.017359
14.375 104.30 0.0037032 236.50 238.08 1.1340 508.42 0.0019669 235.35 236.77 1.1295 1.6247 2.6121 790.39 -0.0013569 108.54 0.098779 15.547 0.064323 543.99 590.24 2.3588 1.5099 1.8826 218.79 0.28439 7.8369 0.017488
15.375 107.19 0.0037150 239.07 240.70 1.1430 506.95 0.0019726 237.93 239.39 1.1384 1.6286 2.6214 783.73 -0.0012476 107.43 0.098294 15.974 0.062600 545.01 591.27 2.3580 1.5159 1.8940 218.53 0.28270 7.8680 0.017619
16.375 110.13 0.0037230 241.66 243.32 1.1519 505.48 0.0019783 240.52 242.02 1.1474 1.6324 2.6308 777.07 -0.0011357 106.32 0.097810 16.412 0.060931 546.03 592.29 2.3572 1.5220 1.9055 218.27 0.28104 7.8993 0.017752
17.375 113.14 0.0037268 244.25 245.96 1.1608 504.00 0.0019841 243.11 244.66 1.1564 1.6364 2.6403 770.40 -0.0010213 105.22 0.097328 16.859 0.059314 547.04 593.31 2.3564 1.5281 1.9172 217.99 0.27942 7.9308 0.017886
18.375 116.21 0.0037262 246.84 248.60 1.1698 502.50 0.0019900 245.72 247.31 1.1653 1.6403 2.6501 763.72 -0.00090422 104.14 0.096848 17.317 0.057747 548.05 594.32 2.3557 1.5342 1.9292 217.71 0.27783 7.9626 0.018021
19.375 119.33 0.0037210 249.45 251.25 1.1787 501.00 0.0019960 248.33 249.97 1.1743 1.6443 2.6599 757.04 -0.00078435 103.06 0.096371 17.785 0.056228 549.06 595.33 2.3549 1.5404 1.9414 217.41 0.27628 7.9947 0.018159
20.375 122.52 0.0037107 252.06 253.91 1.1876 499.49 0.0020020 250.95 252.64 1.1832 1.6483 2.6700 750.35 -0.00066161 101.99 0.095895 18.263 0.054756 550.07 596.32 2.3541 1.5466 1.9538 217.10 0.27477 8.0272 0.018297
21.375 125.77 0.0036952 254.67 256.58 1.1965 497.97 0.0020082 253.57 255.32 1.1922 1.6523 2.6802 743.64 -0.00053589 100.93 0.095420 18.752 0.053328 551.07 597.31 2.3534 1.5528 1.9665 216.78 0.27329 8.0599 0.018438
22.375 129.08 0.0036740 257.30 259.25 1.2054 496.43 0.0020144 256.21 258.00 1.2012 1.6563 2.6906 736.94 -0.00040708 99.877 0.094948 19.252 0.051943 552.07 598.30 2.3526 1.5591 1.9795 216.45 0.27184 8.0929 0.018580
23.375 132.46 0.0036468 259.93 261.94 1.2143 494.89 0.0020206 258.86 260.70 1.2101 1.6604 2.7012 730.22 -0.00027505 98.834 0.094478 19.763 0.050600 553.06 599.27 2.3519 1.5655 1.9927 216.11 0.27043 8.1263 0.018724
24.375 135.90 0.0036133 262.57 264.63 1.2231 493.34 0.0020270 261.51 263.41 1.2191 1.6645 2.7120 723.49 -0.00013968 97.800 0.094009 20.285 0.049297 554.05 600.24 2.3512 1.5718 2.0061 215.75 0.26906 8.1600 0.018870
25.375 139.41 0.0035730 265.21 267.32 1.2320 491.77 0.0020335 264.17 266.13 1.2280 1.6686 2.7230 716.76 -8.3775e-07 96.773 0.093543 20.820 0.048032 555.03 601.20 2.3504 1.5783 2.0199 215.39 0.26771 8.1941 0.019017
26.375 142.98 0.0035256 267.86 270.03 1.2409 490.20 0.0020400 266.84 268.85 1.2370 1.6728 2.7342 710.01 0.00014161 95.755 0.093078 21.366 0.046804 556.01 602.15 2.3497 1.5847 2.0340 215.01 0.26640 8.2286 0.019167
27.375 146.62 0.0034705 270.52 272.74 1.2498 488.61 0.0020466 269.52 271.59 1.2459 1.6770 2.7456 703.26 0.00028782 94.745 0.092615 21.924 0.045612 556.99 603.10 2.3490 1.5913 2.0484 214.62 0.26512 8.2634 0.019319
28.375 150.33 0.0034074 273.19 275.47 1.2586 487.01 0.0020533 272.21 274.34 1.2549 1.6812 2.7573 696.49 0.00043793 93.742 0.092154 22.495 0.044454 557.96 604.03 2.3483 1.5978 2.0631 214.21 0.26387 8.2987 0.019472
29.375 154.10 0.0033357 275.86 278.20 1.2675 485.40 0.0020601 274.91 277.10 1.2638 1.6854 2.7691 689.72 0.00059212 92.747 0.091695 23.079 0.043329 558.92 604.96 2.3476 1.6044 2.0781 213.80 0.26265 8.3344 0.019628
30.375 157.94 0.0032550 278.54 280.93 1.2763 483.78 0.0020671 277.62 279.87 1.2728 1.6897 2.7813 682.93 0.00075055 91.760 0.091238 23.676 0.042237 559.88 605.88 2.3469 1.6111 2.0935 213.37 0.26147 8.3705 0.019786
31.375 161.86 0.0031646 281.23 283.68 1.2851 482.15 0.0020741 280.34 282.66 1.2818 1.6939 2.7936 676.13 0.00091340 90.779 0.090782 24.287 0.041175 560.84 606.79 2.3462 1.6178 2.1092 212.93 0.26031 8.4071 0.019947
32.375 165.84 0.0030640 283.92 286.44 1.2940 480.50 0.0020812 283.07 285.45 1.2908 1.6983 2.8063 669.32 0.0010809 89.806 0.090328 24.911 0.040143 561.79 607.69 2.3455 1.6246 2.1254 212.48 0.25919 8.4442 0.020110
33.375 169.90 0.0029526 286.63 289.20 1.3028 478.83 0.0020884 285.81 288.26 1.2997 1.7026 2.8192 662.50 0.0012532 88.840 0.089876 25.549 0.039140 562.73 608.58 2.3448 1.6314 2.1419 212.01 0.25809 8.4818 0.020275
34.375 174.02 0.0028298 289.34 291.97 1.3116 477.16 0.0020957 288.56 291.07 1.3087 1.7070 2.8324 655.67 0.0014305 87.880 0.089426 26.202 0.038164 563.67 609.46 2.3440 1.6383 2.1589 211.53 0.25702 8.5199 0.020443
35.375 178.22 0.0026947 292.05 294.75 1.3205 475.47 0.0021032 291.32 293.90 1.3177 1.7114 2.8459 648.82 0.0016131 86.927 0.088977 26.870 0.037216 564.60 610.33 2.3433 1.6452 2.1763 211.04 0.25599 8.5586 0.020613
36.375 182.50 0.0025467 294.78 297.54 1.3293 473.77 0.0021107 294.09 296.74 1.3267 1.7158 2.8597 641.96 0.0018012 85.980 0.088531 27.553 0.036293 565.52 611.19 2.3426 1.6522 2.1942 210.53 0.25498 8.5978 0.020786
37.375 186.84 0.0023851 297.51 300.34 1.3381 472.05 0.0021184 296.87 299.60 1.3357 1.7203 2.8739 635.08 0.0019950 85.040 0.088085 28.252 0.035395 566.44 612.04 2.3419 1.6592 2.2125 210.01 0.25400 8.6376 0.020962
38.375 191.27 0.0022088 300.25 303.15 1.3469 470.31 0.0021262 299.66 302.46 1.3447 1.7248 2.8884 628.19 0.0021949 84.105 0.087642 28.967 0.034522 567.35 612.88 2.3411 1.6663 2.2314 209.47 0.25305 8.6780 0.021141
39.375 195.77 0.0020172 303.00 305.96 1.3557 468.56 0.0021342 302.46 305.34 1.3537 1.7293 2.9033 621.29 0.0024011 83.177 0.087200 29.699 0.033671 568.26 613.70 2.3404 1.6734 2.2508 208.92 0.25213 8.7190 0.021323
40.375 200.34 0.0018091 305.75 308.79 1.3645 466.80 0.0021423 305.27 308.23 1.3627 1.7339 2.9185 614.37 0.0026140 82.254 0.086760 30.447 0.032844 569.15 614.52 2.3396 1.6806 2.2708 208.36 0.25123 8.7608 0.021508
41.375 205.00 0.0015836 308.52 311.62 1.3733 465.01 0.0021505 308.10 311.14 1.3718 1.7385 2.9342 607.43 0.0028338 81.338 0.086322 31.214 0.032037 570.04 615.32 2.3389 1.6879 2.2913 207.78 0.25037 8.8032 0.021696
42.375 209.73 0.0013396 311.29 314.46 1.3821 463.21 0.0021588 310.94 314.06 1.3808 1.7432 2.9502 600.47 0.0030609 80.426 0.085885 31.998 0.031252 570.92 616.11 2.3381 1.6952 2.3125 207.19 0.24953 8.8463 0.021888
43.375 214.54 0.0010760 314.06 317.32 1.3909 461.40 0.0021673 313.79 316.99 1.3899 1.7478 2.9667 593.50 0.0032957 79.520 0.085449 32.800 0.030488 571.79 616.88 2.3373 1.7027 2.3344 206.58 0.24871 8.8902 0.022084
44.375 219.43 0.00079136 316.85 320.18 1.3997 459.56 0.0021760 316.65 319.94 1.3989 1.7525 2.9837 586.51 0.0035386 78.619 0.085015 33.622 0.029742 572.65 617.65 2.3365 1.7101 2.3569 205.96 0.24793 8.9349 0.022283
45.375 224.41 0.00048447 319.64 323.05 1.4085 457.71 0.0021848 319.52 322.90 1.4080 1.7573 3.0012 579.50 0.0037900 77.723 0.084583 34.463 0.029016 573.50 618.40 2.3357 1.7177 2.3802 205.32 0.24717 8.9805 0.022485
46.375 229.46 0.00015388 322.45 325.92 1.4173 455.83 0.0021938 322.41 325.88 1.4171 1.7621 3.0192 572.46 0.0040504 76.832 0.084152 35.325 0.028308 574.34 619.13 2.3349 1.7253 2.4042 204.67 0.24644 9.0269 0.022692
47.375 263.57 undefined 324.67 328.67 1.4242 455.00 0.0021978 324.67 328.67 1.4242 1.7660 3.0211 571.25 0.0040832 76.450 0.084013 455.00 0.0021978 324.67 328.67 1.4242 1.7660 3.0211 571.25 0.0040832 76.450 0.084013
48.375 320.64 undefined 326.44 331.30 1.4297 455.00 0.0021978 326.44 331.30 1.4297 1.7691 3.0105 574.61 0.0039345 76.468 0.084105 455.00 0.0021978 326.44 331.30 1.4297 1.7691 3.0105 574.61 0.0039345 76.468 0.084105
49.375 377.80 undefined 328.21 333.94 1.4352 455.00 0.0021978 328.21 333.94 1.4352 1.7723 3.0003 577.90 0.0037901 76.486 0.084197 455.00 0.0021978 328.21 333.94 1.4352 1.7723 3.0003 577.90 0.0037901 76.486 0.084197
50.375 435.03 undefined 329.98 336.58 1.4407 455.00 0.0021978 329.98 336.58 1.4407 1.7755 2.9906 581.15 0.0036499 76.504 0.084290 455.00 0.0021978 329.98 336.58 1.4407 1.7755 2.9906 581.15 0.0036499 76.504 0.084290
51.375 492.33 undefined 331.76 339.22 1.4462 455.00 0.0021978 331.76 339.22 1.4462 1.7788 2.9814 584.34 0.0035135 76.522 0.084383 455.00 0.0021978 331.76 339.22 1.4462 1.7788 2.9814 584.34 0.0035135 76.522 0.084383
52.375 549.71 undefined 333.54 341.87 1.4517 455.00 0.0021978 333.54 341.87 1.4517 1.7821 2.9725 587.48 0.0033810 76.540 0.084477 455.00 0.0021978 333.54 341.87 1.4517 1.7821 2.9725 587.48 0.0033810 76.540 0.084477
53.375 607.14 undefined 335.33 344.53 1.4571 455.00 0.0021978 335.33 344.53 1.4571 1.7855 2.9641 590.57 0.0032520 76.558 0.084571 455.00 0.0021978 335.33 344.53 1.4571 1.7855 2.9641 590.57 0.0032520 76.558 0.084571
54.375 664.64 undefined 337.11 347.18 1.4626 455.00 0.0021978 337.11 347.18 1.4626 1.7889 2.9560 593.62 0.0031264 76.576 0.084665 455.00 0.0021978 337.11 347.18 1.4626 1.7889 2.9560 593.62 0.0031264 76.576 0.084665
55.375 722.19 undefined 338.90 349.85 1.4681 455.00 0.0021978 338.90 349.85 1.4681 1.7923 2.9482 596.62 0.0030040 76.594 0.084760 455.00 0.0021978 338.90 349.85 1.4681 1.7923 2.9482 596.62 0.0030040 76.594 0.084760
56.375 779.81 undefined 340.70 352.51 1.4735 455.00 0.0021978 340.70 352.51 1.4735 1.7958 2.9408 599.58 0.0028848 76.612 0.084856 455.00 0.0021978 340.70 352.51 1.4735 1.7958 2.9408 599.58 0.0028848 76.612 0.084856
57.375 837.47 undefined 342.50 355.19 1.4790 455.00 0.0021978 342.50 355.19 1.4790 1.7993 2.9338 602.50 0.0027685 76.630 0.084952 455.00 0.0021978 342.50 355.19 1.4790 1.7993 2.9338 602.50 0.0027685 76.630 0.084952
58.375 895.18 undefined 344.30 357.86 1.4844 455.00 0.0021978 344.30 357.86 1.4844 1.8028 2.9270 605.38 0.0026551 76.648 0.085048 455.00 0.0021978 344.30 357.86 1.4844 1.8028 2.9270 605.38 0.0026551 76.648 0.085048
59.375 952.94 undefined 346.10 360.54 1.4898 455.00 0.0021978 346.10 360.54 1.4898 1.8064 2.9205 608.22 0.0025445 76.666 0.085145 455.00 0.0021978 346.10 360.54 1.4898 1.8064 2.9205 608.22 0.0025445 76.666 0.085145
60.375 1010.7 undefined 347.91 363.23 1.4953 455.00 0.0021978 347.91 363.23 1.4953 1.8100 2.9143 611.03 0.0024365 76.685 0.085242 455.00 0.0021978 347.91 363.23 1.4953 1.8100 2.9143 611.03 0.0024365 76.685 0.085242
61.375 1068.6 undefined 349.72 365.91 1.5007 455.00 0.0021978 349.72 365.91 1.5007 1.8136 2.9084 613.80 0.0023310 76.703 0.085339 455.00 0.0021978 349.72 365.91 1.5007 1.8136 2.9084 613.80 0.0023310 76.703 0.085339
62.375 1126.5 undefined 351.54 368.61 1.5061 455.00 0.0021978 351.54 368.61 1.5061 1.8173 2.9027 616.53 0.0022279 76.721 0.085437 455.00 0.0021978 351.54 368.61 1.5061 1.8173 2.9027 616.53 0.0022279 76.721 0.085437
63.375 1184.4 undefined 353.36 371.30 1.5115 455.00 0.0021978 353.36 371.30 1.5115 1.8210 2.8973 619.23 0.0021272 76.739 0.085536 455.00 0.0021978 353.36 371.30 1.5115 1.8210 2.8973 619.23 0.0021272 76.739 0.085536
64.375 1242.3 undefined 355.18 374.00 1.5169 455.00 0.0021978 355.18 374.00 1.5169 1.8247 2.8921 621.90 0.0020288 76.758 0.085634 455.00 0.0021978 355.18 374.00 1.5169 1.8247 2.8921 621.90 0.0020288 76.758 0.085634
65.375 1300.3 undefined 357.01 376.71 1.5223 455.00 0.0021978 357.01 376.71 1.5223 1.8284 2.8872 624.54 0.0019326 76.776 0.085733 455.00 0.0021978 357.01 376.71 1.5223 1.8284 2.8872 624.54 0.0019326 76.776 0.085733
66.375 1358.4 undefined 358.84 379.42 1.5277 455.00 0.0021978 358.84 379.42 1.5277 1.8322 2.8824 627.15 0.0018384 76.794 0.085833 455.00 0.0021978 358.84 379.42 1.5277 1.8322 2.8824 627.15 0.0018384 76.794 0.085833
67.375 1416.4 undefined 360.67 382.13 1.5331 455.00 0.0021978 360.67 382.13 1.5331 1.8359 2.8779 629.73 0.0017463 76.813 0.085933 455.00 0.0021978 360.67 382.13 1.5331 1.8359 2.8779 629.73 0.0017463 76.813 0.085933
68.375 1474.5 undefined 362.51 384.85 1.5385 455.00 0.0021978 362.51 384.85 1.5385 1.8398 2.8736 632.29 0.0016562 76.831 0.086033 455.00 0.0021978 362.51 384.85 1.5385 1.8398 2.8736 632.29 0.0016562 76.831 0.086033
69.375 1532.6 undefined 364.35 387.57 1.5439 455.00 0.0021978 364.35 387.57 1.5439 1.8436 2.8694 634.81 0.0015680 76.850 0.086134 455.00 0.0021978 364.35 387.57 1.5439 1.8436 2.8694 634.81 0.0015680 76.850 0.086134
70.375 1590.7 undefined 366.19 390.30 1.5493 455.00 0.0021978 366.19 390.30 1.5493 1.8474 2.8655 637.31 0.0014816 76.868 0.086235 455.00 0.0021978 366.19 390.30 1.5493 1.8474 2.8655 637.31 0.0014816 76.868 0.086235
71.375 1648.8 undefined 368.04 393.03 1.5547 455.00 0.0021978 368.04 393.03 1.5547 1.8513 2.8617 639.79 0.0013970 76.887 0.086336 455.00 0.0021978 368.04 393.03 1.5547 1.8513 2.8617 639.79 0.0013970 76.887 0.086336
72.375 1707.0 undefined 369.90 395.76 1.5600 455.00 0.0021978 369.90 395.76 1.5600 1.8552 2.8581 642.24 0.0013141 76.905 0.086438 455.00 0.0021978 369.90 395.76 1.5600 1.8552 2.8581 642.24 0.0013141 76.905 0.086438
73.375 1765.2 undefined 371.75 398.50 1.5654 455.00 0.0021978 371.75 398.50 1.5654 1.8591 2.8547 644.67 0.0012329 76.924 0.086540 455.00 0.0021978 371.75 398.50 1.5654 1.8591 2.8547 644.67 0.0012329 76.924 0.086540
74.375 1823.4 undefined 373.62 401.25 1.5708 455.00 0.0021978 373.62 401.25 1.5708 1.8630 2.8514 647.07 0.0011534 76.942 0.086642 455.00 0.0021978 373.62 401.25 1.5708 1.8630 2.8514 647.07 0.0011534 76.942 0.086642
75.375 1881.6 undefined 375.48 403.99 1.5761 455.00 0.0021978 375.48 403.99 1.5761 1.8669 2.8483 649.46 0.0010754 76.961 0.086745 455.00 0.0021978 375.48 403.99 1.5761 1.8669 2.8483 649.46 0.0010754 76.961 0.086745
76.375 1939.9 undefined 377.35 406.74 1.5815 455.00 0.0021978 377.35 406.74 1.5815 1.8709 2.8454 651.82 0.00099899 76.980 0.086848 455.00 0.0021978 377.35 406.74 1.5815 1.8709 2.8454 651.82 0.00099899 76.980 0.086848
77.375 1998.1 undefined 379.22 409.50 1.5868 455.00 0.0021978 379.22 409.50 1.5868 1.8749 2.8426 654.16 0.00092406 76.998 0.086952 455.00 0.0021978 379.22 409.50 1.5868 1.8749 2.8426 654.16 0.00092406 76.998 0.086952
78.375 2056.4 undefined 381.10 412.26 1.5922 455.00 0.0021978 381.10 412.26 1.5922 1.8788 2.8399 656.48 0.00085057 77.017 0.087056 455.00 0.0021978 381.10 412.26 1.5922 1.8788 2.8399 656.48 0.00085057 77.017 0.087056
79.375 2114.6 undefined 382.98 415.02 1.5975 455.00 0.0021978 382.98 415.02 1.5975 1.8828 2.8374 658.78 0.00077849 77.036 0.087160 455.00 0.0021978 382.98 415.02 1.5975 1.8828 2.8374 658.78 0.00077849 77.036 0.087160
80.375 2172.9 undefined 384.86 417.79 1.6028 455.00 0.0021978 384.86 417.79 1.6028 1.8868 2.8350 661.06 0.00070779 77.055 0.087264 455.00 0.0021978 384.86 417.79 1.6028 1.8868 2.8350 661.06 0.00070779 77.055 0.087264
81.375 2231.2 undefined 386.75 420.56 1.6082 455.00 0.0021978 386.75 420.56 1.6082 1.8909 2.8328 663.33 0.00063843 77.073 0.087369 455.00 0.0021978 386.75 420.56 1.6082 1.8909 2.8328 663.33 0.00063843 77.073 0.087369
82.375 2289.5 undefined 388.65 423.34 1.6135 455.00 0.0021978 388.65 423.34 1.6135 1.8949 2.8306 665.57 0.00057037 77.092 0.087474 455.00 0.0021978 388.65 423.34 1.6135 1.8949 2.8306 665.57 0.00057037 77.092 0.087474
83.375 2347.8 undefined 390.54 426.12 1.6188 455.00 0.0021978 390.54 426.12 1.6188 1.8989 2.8286 667.80 0.00050358 77.111 0.087580 455.00 0.0021978 390.54 426.12 1.6188 1.8989 2.8286 667.80 0.00050358 77.111 0.087580
84.375 2406.1 undefined 392.44 428.90 1.6242 455.00 0.0021978 392.44 428.90 1.6242 1.9030 2.8267 670.01 0.00043803 77.130 0.087686 455.00 0.0021978 392.44 428.90 1.6242 1.9030 2.8267 670.01 0.00043803 77.130 0.087686
85.375 2464.4 undefined 394.35 431.69 1.6295 455.00 0.0021978 394.35 431.69 1.6295 1.9070 2.8250 672.21 0.00037368 77.149 0.087792 455.00 0.0021978 394.35 431.69 1.6295 1.9070 2.8250 672.21 0.00037368 77.149 0.087792
86.375 2522.8 undefined 396.26 434.49 1.6348 455.00 0.0021978 396.26 434.49 1.6348 1.9111 2.8233 674.39 0.00031050 77.168 0.087899 455.00 0.0021978 396.26 434.49 1.6348 1.9111 2.8233 674.39 0.00031050 77.168 0.087899
87.375 2581.1 undefined 398.17 437.28 1.6401 455.00 0.0021978 398.17 437.28 1.6401 1.9152 2.8217 676.55 0.00024848 77.186 0.088006 455.00 0.0021978 398.17 437.28 1.6401 1.9152 2.8217 676.55 0.00024848 77.186 0.088006
88.375 2639.4 undefined 400.09 440.08 1.6454 455.00 0.0021978 400.09 440.08 1.6454 1.9193 2.8203 678.70 0.00018757 77.205 0.088113 455.00 0.0021978 400.09 440.08 1.6454 1.9193 2.8203 678.70 0.00018757 77.205 0.088113
89.375 2697.7 undefined 402.01 442.89 1.6507 455.00 0.0021978 402.01 442.89 1.6507 1.9233 2.8189 680.83 0.00012775 77.224 0.088220 455.00 0.0021978 402.01 442.89 1.6507 1.9233 2.8189 680.83 0.00012775 77.224 0.088220
90.375 2756.1 undefined 403.94 445.70 1.6560 455.00 0.0021978 403.94 445.70 1.6560 1.9274 2.8177 682.95 6.8991e-05 77.243 0.088328 455.00 0.0021978 403.94 445.70 1.6560 1.9274 2.8177 682.95 6.8991e-05 77.243 0.088328
91.375 2814.4 undefined 405.86 448.51 1.6613 455.00 0.0021978 405.86 448.51 1.6613 1.9316 2.8165 685.05 1.1276e-05 77.262 0.088437 455.00 0.0021978 405.86 448.51 1.6613 1.9316 2.8165 685.05 1.1276e-05 77.262 0.088437
92.375 2872.7 undefined 407.80 451.33 1.6666 455.00 0.0021978 407.80 451.33 1.6666 1.9357 2.8155 687.14 -4.5424e-05 77.281 0.088545 455.00 0.0021978 407.80 451.33 1.6666 1.9357 2.8155 687.14 -4.5424e-05 77.281 0.088545
93.375 2931.1 undefined 409.74 454.15 1.6719 455.00 0.0021978 409.74 454.15 1.6719 1.9398 2.8145 689.22 -0.00010113 77.300 0.088654 455.00 0.0021978 409.74 454.15 1.6719 1.9398 2.8145 689.22 -0.00010113 77.300 0.088654
94.375 2989.4 undefined 411.68 456.98 1.6772 455.00 0.0021978 411.68 456.98 1.6772 1.9439 2.8136 691.28 -0.00015587 77.319 0.088763 455.00 0.0021978 411.68 456.98 1.6772 1.9439 2.8136 691.28 -0.00015587 77.319 0.088763
95.375 3047.7 undefined 413.62 459.81 1.6825 455.00 0.0021978 413.62 459.81 1.6825 1.9480 2.8128 693.33 -0.00020967 77.338 0.088873 455.00 0.0021978 413.62 459.81 1.6825 1.9480 2.8128 693.33 -0.00020967 77.338 0.088873
96.375 3106.1 undefined 415.57 462.64 1.6878 455.00 0.0021978 415.57 462.64 1.6878 1.9522 2.8121 695.37 -0.00026253 77.358 0.088983 455.00 0.0021978 415.57 462.64 1.6878 1.9522 2.8121 695.37 -0.00026253 77.358 0.088983
97.375 3164.4 undefined 417.53 465.48 1.6931 455.00 0.0021978 417.53 465.48 1.6931 1.9563 2.8114 697.39 -0.00031450 77.377 0.089093 455.00 0.0021978 417.53 465.48 1.6931 1.9563 2.8114 697.39 -0.00031450 77.377 0.089093
98.375 3222.7 undefined 419.49 468.32 1.6984 455.00 0.0021978 419.49 468.32 1.6984 1.9604 2.8109 699.41 -0.00036557 77.396 0.089203 455.00 0.0021978 419.49 468.32 1.6984 1.9604 2.8109 699.41 -0.00036557 77.396 0.089203
99.375 3281.0 undefined 421.45 471.17 1.7036 455.00 0.0021978 421.45 471.17 1.7036 1.9646 2.8104 701.41 -0.00041579 77.415 0.089314 455.00 0.0021978 421.45 471.17 1.7036 1.9646 2.8104 701.41 -0.00041579 77.415 0.089314
100.38 3339.3 undefined 423.42 474.02 1.7089 455.00 0.0021978 423.42 474.02 1.7089 1.9687 2.8100 703.40 -0.00046516 77.434 0.089425 455.00 0.0021978 423.42 474.02 1.7089 1.9687 2.8100 703.40 -0.00046516 77.434 0.089425
101.38 3397.6 undefined 425.39 476.87 1.7142 455.00 0.0021978 425.39 476.87 1.7142 1.9729 2.8096 705.37 -0.00051369 77.453 0.089537 455.00 0.0021978 425.39 476.87 1.7142 1.9729 2.8096 705.37 -0.00051369 77.453 0.089537
102.38 3455.9 undefined 427.36 479.73 1.7194 455.00 0.0021978 427.36 479.73 1.7194 1.9770 2.8094 707.34 -0.00056142 77.472 0.089648 455.00 0.0021978 427.36 479.73 1.7194 1.9770 2.8094 707.34 -0.00056142 77.472 0.089648
103.38 3514.2 undefined 429.34 482.59 1.7247 455.00 0.0021978 429.34 482.59 1.7247 1.9812 2.8092 709.30 -0.00060836 77.492 0.089760 455.00 0.0021978 429.34 482.59 1.7247 1.9812 2.8092 709.30 -0.00060836 77.492 0.089760
104.38 3572.5 undefined 431.32 485.46 1.7300 455.00 0.0021978 431.32 485.46 1.7300 1.9854 2.8090 711.24 -0.00065452 77.511 0.089873 455.00 0.0021978 431.32 485.46 1.7300 1.9854 2.8090 711.24 -0.00065452 77.511 0.089873
105.38 3630.8 undefined 433.31 488.33 1.7352 455.00 0.0021978 433.31 488.33 1.7352 1.9895 2.8090 713.17 -0.00069993 77.530 0.089986 455.00 0.0021978 433.31 488.33 1.7352 1.9895 2.8090 713.17 -0.00069993 77.530 0.089986
106.38 3689.1 undefined 435.30 491.20 1.7405 455.00 0.0021978 435.30 491.20 1.7405 1.9937 2.8090 715.10 -0.00074459 77.549 0.090099 455.00 0.0021978 435.30 491.20 1.7405 1.9937 2.8090 715.10 -0.00074459 77.549 0.090099
107.38 3747.3 undefined 437.30 494.08 1.7457 455.00 0.0021978 437.30 494.08 1.7457 1.9978 2.8090 717.01 -0.00078852 77.569 0.090212 455.00 0.0021978 437.30 494.08 1.7457 1.9978 2.8090 717.01 -0.00078852 77.569 0.090212
108.38 3805.6 undefined 439.30 496.97 1.7510 455.00 0.0021978 439.30 496.97 1.7510 2.0020 2.8091 718.91 -0.00083174 77.588 0.090326 455.00 0.0021978 439.30 496.97 1.7510 2.0020 2.8091 718.91 -0.00083174 77.588 0.090326
109.38 3863.8 undefined 441.30 499.85 1.7562 455.00 0.0021978 441.30 499.85 1.7562 2.0062 2.8093 720.81 -0.00087426 77.607 0.090440 455.00 0.0021978 441.30 499.85 1.7562 2.0062 2.8093 720.81 -0.00087426 77.607 0.090440
110.38 3922.1 undefined 443.31 502.74 1.7615 455.00 0.0021978 443.31 502.74 1.7615 2.0103 2.8095 722.69 -0.00091609 77.627 0.090554 455.00 0.0021978 443.31 502.74 1.7615 2.0103 2.8095 722.69 -0.00091609 77.627 0.090554
111.38 3980.3 undefined 445.32 505.64 1.7667 455.00 0.0021978 445.32 505.64 1.7667 2.0145 2.8098 724.56 -0.00095726 77.646 0.090668 455.00 0.0021978 445.32 505.64 1.7667 2.0145 2.8098 724.56 -0.00095726 77.646 0.090668
112.38 4038.5 undefined 447.34 508.54 1.7719 455.00 0.0021978 447.34 508.54 1.7719 2.0187 2.8102 726.43 -0.00099777 77.666 0.090783 455.00 0.0021978 447.34 508.54 1.7719 2.0187 2.8102 726.43 -0.00099777 77.666 0.090783
113.38 4096.7 undefined 449.36 511.44 1.7772 455.00 0.0021978 449.36 511.44 1.7772 2.0228 2.8106 728.28 -0.0010376 77.685 0.090898 455.00 0.0021978 449.36 511.44 1.7772 2.0228 2.8106 728.28 -0.0010376 77.685 0.090898
114.38 4154.9 undefined 451.39 514.35 1.7824 455.00 0.0021978 451.39 514.35 1.7824 2.0270 2.8110 730.13 -0.0010769 77.704 0.091014 455.00 0.0021978 451.39 514.35 1.7824 2.0270 2.8110 730.13 -0.0010769 77.704 0.091014
115.38 4213.1 undefined 453.41 517.26 1.7876 455.00 0.0021978 453.41 517.26 1.7876 2.0312 2.8115 731.97 -0.0011155 77.724 0.091130 455.00 0.0021978 453.41 517.26 1.7876 2.0312 2.8115 731.97 -0.0011155 77.724 0.091130
116.38 4271.3 undefined 455.45 520.17 1.7929 455.00 0.0021978 455.45 520.17 1.7929 2.0353 2.8120 733.79 -0.0011535 77.743 0.091246 455.00 0.0021978 455.45 520.17 1.7929 2.0353 2.8120 733.79 -0.0011535 77.743 0.091246
117.38 4329.5 undefined 457.49 523.09 1.7981 455.00 0.0021978 457.49 523.09 1.7981 2.0395 2.8126 735.61 -0.0011909 77.763 0.091362 455.00 0.0021978 457.49 523.09 1.7981 2.0395 2.8126 735.61 -0.0011909 77.763 0.091362
118.38 4387.6 undefined 459.53 526.01 1.8033 455.00 0.0021978 459.53 526.01 1.8033 2.0437 2.8133 737.42 -0.0012278 77.782 0.091479 455.00 0.0021978 459.53 526.01 1.8033 2.0437 2.8133 737.42 -0.0012278 77.782 0.091479
119.38 4445.8 undefined 461.57 528.94 1.8085 455.00 0.0021978 461.57 528.94 1.8085 2.0478 2.8140 739.23 -0.0012640 77.802 0.091596 455.00 0.0021978 461.57 528.94 1.8085 2.0478 2.8140 739.23 -0.0012640 77.802 0.091596
120.38 4503.9 undefined 463.62 531.87 1.8137 455.00 0.0021978 463.62 531.87 1.8137 2.0520 2.8147 741.02 -0.0012997 77.821 0.091713 455.00 0.0021978 463.62 531.87 1.8137 2.0520 2.8147 741.02 -0.0012997 77.821 0.091713
121.38 4562.0 undefined 465.68 534.81 1.8190 455.00 0.0021978 465.68 534.81 1.8190 2.0562 2.8155 742.81 -0.0013349 77.841 0.091831 455.00 0.0021978 465.68 534.81 1.8190 2.0562 2.8155 742.81 -0.0013349 77.841 0.091831
122.38 4620.2 undefined 467.73 537.75 1.8242 455.00 0.0021978 467.73 537.75 1.8242 2.0603 2.8163 744.58 -0.0013695 77.860 0.091949 455.00 0.0021978 467.73 537.75 1.8242 2.0603 2.8163 744.58 -0.0013695 77.860 0.091949
123.38 4678.3 undefined 469.80 540.69 1.8294 455.00 0.0021978 469.80 540.69 1.8294 2.0645 2.8171 746.35 -0.0014036 77.880 0.092067 455.00 0.0021978 469.80 540.69 1.8294 2.0645 2.8171 746.35 -0.0014036 77.880 0.092067
124.38 4736.3 undefined 471.86 543.64 1.8346 455.00 0.0021978 471.86 543.64 1.8346 2.0687 2.8180 748.12 -0.0014372 77.899 0.092186 455.00 0.0021978 471.86 543.64 1.8346 2.0687 2.8180 748.12 -0.0014372 77.899 0.092186
125.38 4794.4 undefined 473.93 546.59 1.8398 455.00 0.0021978 473.93 546.59 1.8398 2.0728 2.8190 749.87 -0.0014702 77.919 0.092305 455.00 0.0021978 473.93 546.59 1.8398 2.0728 2.8190 749.87 -0.0014702 77.919 0.092305
126.38 4852.5 undefined 476.01 549.54 1.8450 455.00 0.0021978 476.01 549.54 1.8450 2.0770 2.8200 751.62 -0.0015028 77.938 0.092424 455.00 0.0021978 476.01 549.54 1.8450 2.0770 2.8200 751.62 -0.0015028 77.938 0.092424
127.38 4910.5 undefined 478.09 552.50 1.8502 455.00 0.0021978 478.09 552.50 1.8502 2.0811 2.8210 753.36 -0.0015349 77.958 0.092543 455.00 0.0021978 478.09 552.50 1.8502 2.0811 2.8210 753.36 -0.0015349 77.958 0.092543
128.38 4968.5 undefined 480.17 555.46 1.8554 455.00 0.0021978 480.17 555.46 1.8554 2.0853 2.8220 755.09 -0.0015665 77.978 0.092663 455.00 0.0021978 480.17 555.46 1.8554 2.0853 2.8220 755.09 -0.0015665 77.978 0.092663
129.38 5026.5 undefined 482.26 558.43 1.8606 455.00 0.0021978 482.26 558.43 1.8606 2.0894 2.8231 756.81 -0.0015976 77.997 0.092783 455.00 0.0021978 482.26 558.43 1.8606 2.0894 2.8231 756.81 -0.0015976 77.997 0.092783
130.38 5084.5 undefined 484.35 561.40 1.8658 455.00 0.0021978 484.35 561.40 1.8658 2.0936 2.8242 758.53 -0.0016283 78.017 0.092904 455.00 0.0021978 484.35 561.40 1.8658 2.0936 2.8242 758.53 -0.0016283 78.017 0.092904
131.38 5142.5 undefined 486.45 564.37 1.8709 455.00 0.0021978 486.45 564.37 1.8709 2.0978 2.8254 760.24 -0.0016585 78.037 0.093024 455.00 0.0021978 486.45 564.37 1.8709 2.0978 2.8254 760.24 -0.0016585 78.037 0.093024
132.38 5200.5 undefined 488.55 567.35 1.8761 455.00 0.0021978 488.55 567.35 1.8761 2.1019 2.8266 761.94 -0.0016882 78.056 0.093145 455.00 0.0021978 488.55 567.35 1.8761 2.1019 2.8266 761.94 -0.0016882 78.056 0.093145
133.38 5258.5 undefined 490.65 570.33 1.8813 455.00 0.0021978 490.65 570.33 1.8813 2.1060 2.8278 763.63 -0.0017175 78.076 0.093267 455.00 0.0021978 490.65 570.33 1.8813 2.1060 2.8278 763.63 -0.0017175 78.076 0.093267
134.38 5316.4 undefined 492.76 573.32 1.8865 455.00 0.0021978 492.76 573.32 1.8865 2.1102 2.8290 765.32 -0.0017464 78.096 0.093388 455.00 0.0021978 492.76 573.32 1.8865 2.1102 2.8290 765.32 -0.0017464 78.096 0.093388
135.38 5374.3 undefined 494.87 576.31 1.8917 455.00 0.0021978 494.87 576.31 1.8917 2.1143 2.8303 767.00 -0.0017749 78.115 0.093510 455.00 0.0021978 494.87 576.31 1.8917 2.1143 2.8303 767.00 -0.0017749 78.115 0.093510
136.38 5432.2 undefined 496.99 579.30 1.8968 455.00 0.0021978 496.99 579.30 1.8968 2.1185 2.8316 768.68 -0.0018029 78.135 0.093632 455.00 0.0021978 496.99 579.30 1.8968 2.1185 2.8316 768.68 -0.0018029 78.135 0.093632
137.38 5490.1 undefined 499.11 582.30 1.9020 455.00 0.0021978 499.11 582.30 1.9020 2.1226 2.8330 770.35 -0.0018306 78.155 0.093755 455.00 0.0021978 499.11 582.30 1.9020 2.1226 2.8330 770.35 -0.0018306 78.155 0.093755
138.38 5548.0 undefined 501.23 585.30 1.9072 455.00 0.0021978 501.23 585.30 1.9072 2.1267 2.8344 772.01 -0.0018578 78.174 0.093878 455.00 0.0021978 501.23 585.30 1.9072 2.1267 2.8344 772.01 -0.0018578 78.174 0.093878
139.38 5605.9 undefined 503.36 588.31 1.9123 455.00 0.0021978 503.36 588.31 1.9123 2.1309 2.8358 773.66 -0.0018847 78.194 0.094001 455.00 0.0021978 503.36 588.31 1.9123 2.1309 2.8358 773.66 -0.0018847 78.194 0.094001
140.38 5663.7 undefined 505.49 591.32 1.9175 455.00 0.0021978 505.49 591.32 1.9175 2.1350 2.8372 775.31 -0.0019111 78.214 0.094124 455.00 0.0021978 505.49 591.32 1.9175 2.1350 2.8372 775.31 -0.0019111 78.214 0.094124
141.38 5721.5 undefined 507.63 594.33 1.9227 455.00 0.0021978 507.63 594.33 1.9227 2.1391 2.8386 776.96 -0.0019372 78.234 0.094248 455.00 0.0021978 507.63 594.33 1.9227 2.1391 2.8386 776.96 -0.0019372 78.234 0.094248
142.38 5779.3 undefined 509.77 597.35 1.9278 455.00 0.0021978 509.77 597.35 1.9278 2.1433 2.8401 778.59 -0.0019629 78.253 0.094372 455.00 0.0021978 509.77 597.35 1.9278 2.1433 2.8401 778.59 -0.0019629 78.253 0.094372
143.38 5837.1 undefined 511.92 600.37 1.9330 455.00 0.0021978 511.92 600.37 1.9330 2.1474 2.8416 780.22 -0.0019883 78.273 0.094496 455.00 0.0021978 511.92 600.37 1.9330 2.1474 2.8416 780.22 -0.0019883 78.273 0.094496
144.38 5894.9 undefined 514.07 603.39 1.9381 455.00 0.0021978 514.07 603.39 1.9381 2.1515 2.8432 781.85 -0.0020133 78.293 0.094621 455.00 0.0021978 514.07 603.39 1.9381 2.1515 2.8432 781.85 -0.0020133 78.293 0.094621
145.38 5952.7 undefined 516.22 606.42 1.9433 455.00 0.0021978 516.22 606.42 1.9433 2.1556 2.8447 783.46 -0.0020379 78.313 0.094745 455.00 0.0021978 516.22 606.42 1.9433 2.1556 2.8447 783.46 -0.0020379 78.313 0.094745
146.38 6010.4 undefined 518.38 609.46 1.9484 455.00 0.0021978 518.38 609.46 1.9484 2.1597 2.8463 785.07 -0.0020622 78.333 0.094871 455.00 0.0021978 518.38 609.46 1.9484 2.1597 2.8463 785.07 -0.0020622 78.333 0.094871
147.38 6068.1 undefined 520.54 612.49 1.9536 455.00 0.0021978 520.54 612.49 1.9536 2.1638 2.8479 786.68 -0.0020861 78.352 0.094996 455.00 0.0021978 520.54 612.49 1.9536 2.1638 2.8479 786.68 -0.0020861 78.352 0.094996
148.38 6125.9 undefined 522.71 615.53 1.9587 455.00 0.0021978 522.71 615.53 1.9587 2.1679 2.8496 788.28 -0.0021097 78.372 0.095122 455.00 0.0021978 522.71 615.53 1.9587 2.1679 2.8496 788.28 -0.0021097 78.372 0.095122
149.38 6183.5 undefined 524.88 618.58 1.9639 455.00 0.0021978 524.88 618.58 1.9639 2.1720 2.8512 789.87 -0.0021330 78.392 0.095248 455.00 0.0021978 524.88 618.58 1.9639 2.1720 2.8512 789.87 -0.0021330 78.392 0.095248
150.38 6241.2 undefined 527.05 621.63 1.9690 455.00 0.0021978 527.05 621.63 1.9690 2.1761 2.8529 791.46 -0.0021559 78.412 0.095374 455.00 0.0021978 527.05 621.63 1.9690 2.1761 2.8529 791.46 -0.0021559 78.412 0.095374
151.38 6298.9 undefined 529.23 624.68 1.9742 455.00 0.0021978 529.23 624.68 1.9742 2.1802 2.8546 793.04 -0.0021786 78.432 0.095501 455.00 0.0021978 529.23 624.68 1.9742 2.1802 2.8546 793.04 -0.0021786 78.432 0.095501
152.38 6356.5 undefined 531.41 627.73 1.9793 455.00 0.0021978 531.41 627.73 1.9793 2.1843 2.8563 794.62 -0.0022009 78.452 0.095628 455.00 0.0021978 531.41 627.73 1.9793 2.1843 2.8563 794.62 -0.0022009 78.452 0.095628
153.38 6414.1 undefined 533.60 630.79 1.9844 455.00 0.0021978 533.60 630.79 1.9844 2.1884 2.8581 796.19 -0.0022229 78.472 0.095755 455.00 0.0021978 533.60 630.79 1.9844 2.1884 2.8581 796.19 -0.0022229 78.472 0.095755
154.38 6471.7 undefined 535.79 633.86 1.9896 455.00 0.0021978 535.79 633.86 1.9896 2.1925 2.8598 797.76 -0.0022446 78.491 0.095883 455.00 0.0021978 535.79 633.86 1.9896 2.1925 2.8598 797.76 -0.0022446 78.491 0.095883
155.38 6529.3 undefined 537.98 636.92 1.9947 455.00 0.0021978 537.98 636.92 1.9947 2.1966 2.8616 799.32 -0.0022660 78.511 0.096010 455.00 0.0021978 537.98 636.92 1.9947 2.1966 2.8616 799.32 -0.0022660 78.511 0.096010
156.38 6586.9 undefined 540.18 639.99 1.9998 455.00 0.0021978 540.18 639.99 1.9998 2.2007 2.8634 800.87 -0.0022871 78.531 0.096139 455.00 0.0021978 540.18 639.99 1.9998 2.2007 2.8634 800.87 -0.0022871 78.531 0.096139
157.38 6644.4 undefined 542.38 643.07 2.0049 455.00 0.0021978 542.38 643.07 2.0049 2.2048 2.8652 802.42 -0.0023079 78.551 0.096267 455.00 0.0021978 542.38 643.07 2.0049 2.2048 2.8652 802.42 -0.0023079 78.551 0.096267
158.38 6701.9 undefined 544.59 646.15 2.0100 455.00 0.0021978 544.59 646.15 2.0100 2.2088 2.8671 803.96 -0.0023284 78.571 0.096396 455.00 0.0021978 544.59 646.15 2.0100 2.2088 2.8671 803.96 -0.0023284 78.571 0.096396
159.38 6759.4 undefined 546.80 649.23 2.0152 455.00 0.0021978 546.80 649.23 2.0152 2.2129 2.8689 805.50 -0.0023487 78.591 0.096525 455.00 0.0021978 546.80 649.23 2.0152 2.2129 2.8689 805.50 -0.0023487 78.591 0.096525
160.38 6816.9 undefined 549.02 652.31 2.0203 455.00 0.0021978 549.02 652.31 2.0203 2.2170 2.8708 807.04 -0.0023687 78.611 0.096654 455.00 0.0021978 549.02 652.31 2.0203 2.2170 2.8708 807.04 -0.0023687 78.611 0.096654
161.38 6874.4 undefined 551.23 655.40 2.0254 455.00 0.0021978 551.23 655.40 2.0254 2.2210 2.8727 808.56 -0.0023884 78.631 0.096784 455.00 0.0021978 551.23 655.40 2.0254 2.2210 2.8727 808.56 -0.0023884 78.631 0.096784
162.38 6931.8 undefined 553.46 658.50 2.0305 455.00 0.0021978 553.46 658.50 2.0305 2.2251 2.8746 810.09 -0.0024078 78.651 0.096914 455.00 0.0021978 553.46 658.50 2.0305 2.2251 2.8746 810.09 -0.0024078 78.651 0.096914
163.38 6989.3 undefined 555.69 661.60 2.0356 455.00 0.0021978 555.69 661.60 2.0356 2.2292 2.8765 811.61 -0.0024270 78.671 0.097044 455.00 0.0021978 555.69 661.60 2.0356 2.2292 2.8765 811.61 -0.0024270 78.671 0.097044
164.38 7046.7 undefined 557.92 664.70 2.0407 455.00 0.0021978 557.92 664.70 2.0407 2.2332 2.8785 813.12 -0.0024459 78.691 0.097174 455.00 0.0021978 557.92 664.70 2.0407 2.2332 2.8785 813.12 -0.0024459 78.691 0.097174
165.38 7104.1 undefined 560.15 667.80 2.0458 455.00 0.0021978 560.15 667.80 2.0458 2.2373 2.8804 814.63 -0.0024645 78.711 0.097305 455.00 0.0021978 560.15 667.80 2.0458 2.2373 2.8804 814.63 -0.0024645 78.711 0.097305
166.38 7161.4 undefined 562.39 670.91 2.0509 455.00 0.0021978 562.39 670.91 2.0509 2.2413 2.8824 816.13 -0.0024830 78.730 0.097436 455.00 0.0021978 562.39 670.91 2.0509 2.2413 2.8824 816.13 -0.0024830 78.730 0.097436
167.38 7218.8 undefined 564.63 674.02 2.0560 455.00 0.0021978 564.63 674.02 2.0560 2.2453 2.8844 817.63 -0.0025011 78.750 0.097567 455.00 0.0021978 564.63 674.02 2.0560 2.2453 2.8844 817.63 -0.0025011 78.750 0.097567
168.38 7276.1 undefined 566.88 677.14 2.0611 455.00 0.0021978 566.88 677.14 2.0611 2.2494 2.8864 819.12 -0.0025190 78.770 0.097699 455.00 0.0021978 566.88 677.14 2.0611 2.2494 2.8864 819.12 -0.0025190 78.770 0.097699
169.38 7333.4 undefined 569.13 680.26 2.0662 455.00 0.0021978 569.13 680.26 2.0662 2.2534 2.8884 820.61 -0.0025367 78.790 0.097831 455.00 0.0021978 569.13 680.26 2.0662 2.2534 2.8884 820.61 -0.0025367 78.790 0.097831
170.38 7390.7 undefined 571.39 683.38 2.0713 455.00 0.0021978 571.39 683.38 2.0713 2.2575 2.8905 822.09 -0.0025542 78.810 0.097963 455.00 0.0021978 571.39 683.38 2.0713 2.2575 2.8905 822.09 -0.0025542 78.810 0.097963
171.38 7448.0 undefined 573.65 686.51 2.0764 455.00 0.0021978 573.65 686.51 2.0764 2.2615 2.8925 823.57 -0.0025714 78.830 0.098096 455.00 0.0021978 573.65 686.51 2.0764 2.2615 2.8925 823.57 -0.0025714 78.830 0.098096
172.38 7505.2 undefined 575.91 689.64 2.0815 455.00 0.0021978 575.91 689.64 2.0815 2.2655 2.8946 825.05 -0.0025884 78.850 0.098229 455.00 0.0021978 575.91 689.64 2.0815 2.2655 2.8946 825.05 -0.0025884 78.850 0.098229
173.38 7562.4 undefined 578.18 692.77 2.0866 455.00 0.0021978 578.18 692.77 2.0866 2.2695 2.8967 826.52 -0.0026052 78.870 0.098362 455.00 0.0021978 578.18 692.77 2.0866 2.2695 2.8967 826.52 -0.0026052 78.870 0.098362
174.38 7619.7 undefined 580.45 695.91 2.0916 455.00 0.0021978 580.45 695.91 2.0916 2.2735 2.8988 827.98 -0.0026217 78.890 0.098495 455.00 0.0021978 580.45 695.91 2.0916 2.2735 2.8988 827.98 -0.0026217 78.890 0.098495
175.38 7676.8 undefined 582.73 699.06 2.0967 455.00 0.0021978 582.73 699.06 2.0967 2.2775 2.9009 829.44 -0.0026380 78.910 0.098629 455.00 0.0021978 582.73 699.06 2.0967 2.2775 2.9009 829.44 -0.0026380 78.910 0.098629
176.38 7734.0 undefined 585.01 702.20 2.1018 455.00 0.0021978 585.01 702.20 2.1018 2.2816 2.9030 830.90 -0.0026541 78.930 0.098763 455.00 0.0021978 585.01 702.20 2.1018 2.2816 2.9030 830.90 -0.0026541 78.930 0.098763
177.38 7791.1 undefined 587.29 705.35 2.1069 455.00 0.0021978 587.29 705.35 2.1069 2.2856 2.9051 832.35 -0.0026700 78.950 0.098897 455.00 0.0021978 587.29 705.35 2.1069 2.2856 2.9051 832.35 -0.0026700 78.950 0.098897
178.38 7848.3 undefined 589.58 708.50 2.1119 455.00 0.0021978 589.58 708.50 2.1119 2.2896 2.9073 833.80 -0.0026857 78.970 0.099032 455.00 0.0021978 589.58 708.50 2.1119 2.2896 2.9073 833.80 -0.0026857 78.970 0.099032
179.38 7905.4 undefined 591.87 711.66 2.1170 455.00 0.0021978 591.87 711.66 2.1170 2.2935 2.9094 835.24 -0.0027012 78.990 0.099166 455.00 0.0021978 591.87 711.66 2.1170 2.2935 2.9094 835.24 -0.0027012 78.990 0.099166
180.38 7962.5 undefined 594.16 714.82 2.1221 455.00 0.0021978 594.16 714.82 2.1221 2.2975 2.9116 836.68 -0.0027165 79.010 0.099302 455.00 0.0021978 594.16 714.82 2.1221 2.2975 2.9116 836.68 -0.0027165 79.010 0.099302
181.38 8019.5 undefined 596.46 717.99 2.1271 455.00 0.0021978 596.46 717.99 2.1271 2.3015 2.9138 838.11 -0.0027316 79.030 0.099437 455.00 0.0021978 596.46 717.99 2.1271 2.3015 2.9138 838.11 -0.0027316 79.030 0.099437
182.38 8076.6 undefined 598.77 721.15 2.1322 455.00 0.0021978 598.77 721.15 2.1322 2.3055 2.9160 839.54 -0.0027465 79.051 0.099574 455.00 0.0021978 598.77 721.15 2.1322 2.3055 2.9160 839.54 -0.0027465 79.051 0.099574
183.38 8133.6 undefined 601.07 724.32 2.1373 455.00 0.0021978 601.07 724.32 2.1373 2.3095 2.9182 840.97 -0.0027612 79.071 0.099713 455.00 0.0021978 601.07 724.32 2.1373 2.3095 2.9182 840.97 -0.0027612 79.071 0.099713
184.38 8190.6 undefined 603.39 727.50 2.1423 455.00 0.0021978 603.39 727.50 2.1423 2.3135 2.9204 842.39 -0.0027757 79.091 0.099851 455.00 0.0021978 603.39 727.50 2.1423 2.3135 2.9204 842.39 -0.0027757 79.091 0.099851
185.38 8247.5 undefined 605.70 730.68 2.1474 455.00 0.0021978 605.70 730.68 2.1474 2.3174 2.9226 843.81 -0.0027900 79.111 0.099990 455.00 0.0021978 605.70 730.68 2.1474 2.3174 2.9226 843.81 -0.0027900 79.111 0.099990
186.38 8304.5 undefined 608.02 733.86 2.1524 455.00 0.0021978 608.02 733.86 2.1524 2.3214 2.9248 845.22 -0.0028042 79.131 0.10013 455.00 0.0021978 608.02 733.86 2.1524 2.3214 2.9248 845.22 -0.0028042 79.131 0.10013
187.38 8361.4 undefined 610.34 737.05 2.1575 455.00 0.0021978 610.34 737.05 2.1575 2.3254 2.9271 846.63 -0.0028181 79.151 0.10027 455.00 0.0021978 610.34 737.05 2.1575 2.3254 2.9271 846.63 -0.0028181 79.151 0.10027
188.38 8418.3 undefined 612.67 740.24 2.1625 455.00 0.0021978 612.67 740.24 2.1625 2.3293 2.9293 848.04 -0.0028319 79.171 0.10041 455.00 0.0021978 612.67 740.24 2.1625 2.3293 2.9293 848.04 -0.0028319 79.171 0.10041
189.38 8475.2 undefined 615.00 743.43 2.1676 455.00 0.0021978 615.00 743.43 2.1676 2.3333 2.9316 849.44 -0.0028455 79.191 0.10055 455.00 0.0021978 615.00 743.43 2.1676 2.3333 2.9316 849.44 -0.0028455 79.191 0.10055
190.38 8532.1 undefined 617.34 746.63 2.1726 455.00 0.0021978 617.34 746.63 2.1726 2.3372 2.9338 850.83 -0.0028589 79.211 0.10069 455.00 0.0021978 617.34 746.63 2.1726 2.3372 2.9338 850.83 -0.0028589 79.211 0.10069
191.38 8589.0 undefined 619.68 749.83 2.1777 455.00 0.0021978 619.68 749.83 2.1777 2.3412 2.9361 852.23 -0.0028722 79.231 0.10083 455.00 0.0021978 619.68 749.83 2.1777 2.3412 2.9361 852.23 -0.0028722 79.231 0.10083
192.38 8645.8 undefined 622.02 753.03 2.1827 455.00 0.0021978 622.02 753.03 2.1827 2.3451 2.9384 853.62 -0.0028853 79.251 0.10097 455.00 0.0021978 622.02 753.03 2.1827 2.3451 2.9384 853.62 -0.0028853 79.251 0.10097
193.38 8702.6 undefined 624.37 756.24 2.1877 455.00 0.0021978 624.37 756.24 2.1877 2.3490 2.9407 855.00 -0.0028982 79.271 0.10111 455.00 0.0021978 624.37 756.24 2.1877 2.3490 2.9407 855.00 -0.0028982 79.271 0.10111
194.38 8759.4 undefined 626.72 759.45 2.1928 455.00 0.0021978 626.72 759.45 2.1928 2.3530 2.9430 856.38 -0.0029109 79.291 0.10126 455.00 0.0021978 626.72 759.45 2.1928 2.3530 2.9430 856.38 -0.0029109 79.291 0.10126
195.38 8816.1 undefined 629.07 762.67 2.1978 455.00 0.0021978 629.07 762.67 2.1978 2.3569 2.9453 857.76 -0.0029235 79.311 0.10140 455.00 0.0021978 629.07 762.67 2.1978 2.3569 2.9453 857.76 -0.0029235 79.311 0.10140
196.38 8872.9 undefined 631.43 765.89 2.2028 455.00 0.0021978 631.43 765.89 2.2028 2.3608 2.9477 859.14 -0.0029360 79.331 0.10154 455.00 0.0021978 631.43 765.89 2.2028 2.3608 2.9477 859.14 -0.0029360 79.331 0.10154
197.38 8929.6 undefined 633.79 769.11 2.2079 455.00 0.0021978 633.79 769.11 2.2079 2.3647 2.9500 860.51 -0.0029482 79.351 0.10168 455.00 0.0021978 633.79 769.11 2.2079 2.3647 2.9500 860.51 -0.0029482 79.351 0.10168
198.38 8986.3 undefined 636.16 772.33 2.2129 455.00 0.0021978 636.16 772.33 2.2129 2.3687 2.9523 861.87 -0.0029604 79.371 0.10183 455.00 0.0021978 636.16 772.33 2.2129 2.3687 2.9523 861.87 -0.0029604 79.371 0.10183
199.38 9042.9 undefined 638.53 775.56 2.2179 455.00 0.0021978 638.53 775.56 2.2179 2.3726 2.9547 863.23 -0.0029723 79.391 0.10197 455.00 0.0021978 638.53 775.56 2.2179 2.3726 2.9547 863.23 -0.0029723 79.391 0.10197
200.38 9099.6 undefined 640.91 778.80 2.2229 455.00 0.0021978 640.91 778.80 2.2229 2.3765 2.9571 864.59 -0.0029841 79.412 0.10211 455.00 0.0021978 640.91 778.80 2.2229 2.3765 2.9571 864.59 -0.0029841 79.412 0.10211
201.38 9156.2 undefined 643.29 782.03 2.2279 455.00 0.0021978 643.29 782.03 2.2279 2.3804 2.9594 865.95 -0.0029958 79.432 0.10226 455.00 0.0021978 643.29 782.03 2.2279 2.3804 2.9594 865.95 -0.0029958 79.432 0.10226
202.38 9212.8 undefined 645.67 785.27 2.2330 455.00 0.0021978 645.67 785.27 2.2330 2.3843 2.9618 867.30 -0.0030073 79.452 0.10240 455.00 0.0021978 645.67 785.27 2.2330 2.3843 2.9618 867.30 -0.0030073 79.452 0.10240
203.38 9269.4 undefined 648.05 788.52 2.2380 455.00 0.0021978 648.05 788.52 2.2380 2.3882 2.9642 868.65 -0.0030187 79.472 0.10254 455.00 0.0021978 648.05 788.52 2.2380 2.3882 2.9642 868.65 -0.0030187 79.472 0.10254
204.38 9326.0 undefined 650.44 791.76 2.2430 455.00 0.0021978 650.44 791.76 2.2430 2.3920 2.9666 869.99 -0.0030299 79.492 0.10269 455.00 0.0021978 650.44 791.76 2.2430 2.3920 2.9666 869.99 -0.0030299 79.492 0.10269
205.38 9382.5 undefined 652.84 795.01 2.2480 455.00 0.0021978 652.84 795.01 2.2480 2.3959 2.9690 871.33 -0.0030410 79.512 0.10283 455.00 0.0021978 652.84 795.01 2.2480 2.3959 2.9690 871.33 -0.0030410 79.512 0.10283
206.38 9439.0 undefined 655.24 798.27 2.2530 455.00 0.0021978 655.24 798.27 2.2530 2.3998 2.9714 872.67 -0.0030520 79.532 0.10298 455.00 0.0021978 655.24 798.27 2.2530 2.3998 2.9714 872.67 -0.0030520 79.532 0.10298
207.38 9495.5 undefined 657.64 801.53 2.2580 455.00 0.0021978 657.64 801.53 2.2580 2.4037 2.9738 874.00 -0.0030628 79.552 0.10312 455.00 0.0021978 657.64 801.53 2.2580 2.4037 2.9738 874.00 -0.0030628 79.552 0.10312
208.38 9552.0 undefined 660.04 804.79 2.2630 455.00 0.0021978 660.04 804.79 2.2630 2.4076 2.9762 875.33 -0.0030735 79.572 0.10327 455.00 0.0021978 660.04 804.79 2.2630 2.4076 2.9762 875.33 -0.0030735 79.572 0.10327
209.38 9608.4 undefined 662.45 808.05 2.2680 455.00 0.0021978 662.45 808.05 2.2680 2.4114 2.9786 876.66 -0.0030840 79.592 0.10342 455.00 0.0021978 662.45 808.05 2.2680 2.4114 2.9786 876.66 -0.0030840 79.592 0.10342
210.38 9664.8 undefined 664.87 811.32 2.2730 455.00 0.0021978 664.87 811.32 2.2730 2.4153 2.9810 877.99 -0.0030944 79.612 0.10356 455.00 0.0021978 664.87 811.32 2.2730 2.4153 2.9810 877.99 -0.0030944 79.612 0.10356
211.38 9721.2 undefined 667.28 814.59 2.2780 455.00 0.0021978 667.28 814.59 2.2780 2.4191 2.9835 879.31 -0.0031047 79.632 0.10371 455.00 0.0021978 667.28 814.59 2.2780 2.4191 2.9835 879.31 -0.0031047 79.632 0.10371
212.38 9777.6 undefined 669.70 817.87 2.2830 455.00 0.0021978 669.70 817.87 2.2830 2.4230 2.9859 880.62 -0.0031149 79.652 0.10386 455.00 0.0021978 669.70 817.87 2.2830 2.4230 2.9859 880.62 -0.0031149 79.652 0.10386
213.38 9834.0 undefined 672.13 821.15 2.2880 455.00 0.0021978 672.13 821.15 2.2880 2.4268 2.9883 881.94 -0.0031249 79.673 0.10400 455.00 0.0021978 672.13 821.15 2.2880 2.4268 2.9883 881.94 -0.0031249 79.673 0.10400
214.38 9890.3 undefined 674.56 824.43 2.2930 455.00 0.0021978 674.56 824.43 2.2930 2.4307 2.9908 883.25 -0.0031348 79.693 0.10415 455.00 0.0021978 674.56 824.43 2.2930 2.4307 2.9908 883.25 -0.0031348 79.693 0.10415
215.38 9946.6 undefined 676.99 827.71 2.2979 455.00 0.0021978 676.99 827.71 2.2979 2.4345 2.9932 884.55 -0.0031446 79.713 0.10430 455.00 0.0021978 676.99 827.71 2.2979 2.4345 2.9932 884.55 -0.0031446 79.713 0.10430
216.38 10003. undefined 679.43 831.00 2.3029 455.00 0.0021978 679.43 831.00 2.3029 2.4383 2.9957 885.86 -0.0031543 79.733 0.10445 455.00 0.0021978 679.43 831.00 2.3029 2.4383 2.9957 885.86 -0.0031543 79.733 0.10445
217.38 10059. undefined 681.87 834.30 2.3079 455.00 0.0021978 681.87 834.30 2.3079 2.4422 2.9982 887.16 -0.0031638 79.753 0.10460 455.00 0.0021978 681.87 834.30 2.3079 2.4422 2.9982 887.16 -0.0031638 79.753 0.10460
218.38 10115. undefined 684.31 837.59 2.3129 455.00 0.0021978 684.31 837.59 2.3129 2.4460 3.0006 888.45 -0.0031733 79.773 0.10474 455.00 0.0021978 684.31 837.59 2.3129 2.4460 3.0006 888.45 -0.0031733 79.773 0.10474
219.38 10172. undefined 686.76 840.89 2.3179 455.00 0.0021978 686.76 840.89 2.3179 2.4498 3.0031 889.75 -0.0031826 79.793 0.10489 455.00 0.0021978 686.76 840.89 2.3179 2.4498 3.0031 889.75 -0.0031826 79.793 0.10489
220.38 10228. undefined 689.21 844.20 2.3228 455.00 0.0021978 689.21 844.20 2.3228 2.4536 3.0056 891.04 -0.0031918 79.813 0.10504 455.00 0.0021978 689.21 844.20 2.3228 2.4536 3.0056 891.04 -0.0031918 79.813 0.10504
221.38 10284. undefined 691.67 847.50 2.3278 455.00 0.0021978 691.67 847.50 2.3278 2.4574 3.0081 892.32 -0.0032008 79.833 0.10519 455.00 0.0021978 691.67 847.50 2.3278 2.4574 3.0081 892.32 -0.0032008 79.833 0.10519
222.38 10340. undefined 694.13 850.81 2.3328 455.00 0.0021978 694.13 850.81 2.3328 2.4613 3.0106 893.61 -0.0032098 79.853 0.10534 455.00 0.0021978 694.13 850.81 2.3328 2.4613 3.0106 893.61 -0.0032098 79.853 0.10534
223.38 10396. undefined 696.59 854.13 2.3377 455.00 0.0021978 696.59 854.13 2.3377 2.4651 3.0131 894.89 -0.0032187 79.873 0.10549 455.00 0.0021978 696.59 854.13 2.3377 2.4651 3.0131 894.89 -0.0032187 79.873 0.10549
224.38 10452. undefined 699.06 857.44 2.3427 455.00 0.0021978 699.06 857.44 2.3427 2.4688 3.0156 896.17 -0.0032274 79.893 0.10564 455.00 0.0021978 699.06 857.44 2.3427 2.4688 3.0156 896.17 -0.0032274 79.893 0.10564
225.38 10508. undefined 701.53 860.76 2.3477 455.00 0.0021978 701.53 860.76 2.3477 2.4726 3.0181 897.44 -0.0032361 79.913 0.10579 455.00 0.0021978 701.53 860.76 2.3477 2.4726 3.0181 897.44 -0.0032361 79.913 0.10579
226.38 10565. undefined 704.00 864.09 2.3526 455.00 0.0021978 704.00 864.09 2.3526 2.4764 3.0206 898.71 -0.0032446 79.933 0.10595 455.00 0.0021978 704.00 864.09 2.3526 2.4764 3.0206 898.71 -0.0032446 79.933 0.10595
227.38 10621. undefined 706.48 867.42 2.3576 455.00 0.0021978 706.48 867.42 2.3576 2.4802 3.0231 899.98 -0.0032530 79.953 0.10610 455.00 0.0021978 706.48 867.42 2.3576 2.4802 3.0231 899.98 -0.0032530 79.953 0.10610
228.38 10677. undefined 708.96 870.75 2.3625 455.00 0.0021978 708.96 870.75 2.3625 2.4840 3.0256 901.25 -0.0032614 79.973 0.10625 455.00 0.0021978 708.96 870.75 2.3625 2.4840 3.0256 901.25 -0.0032614 79.973 0.10625
229.38 10733. undefined 711.45 874.08 2.3675 455.00 0.0021978 711.45 874.08 2.3675 2.4878 3.0281 902.51 -0.0032696 79.994 0.10640 455.00 0.0021978 711.45 874.08 2.3675 2.4878 3.0281 902.51 -0.0032696 79.994 0.10640
230.38 10789. undefined 713.94 877.42 2.3724 455.00 0.0021978 713.94 877.42 2.3724 2.4915 3.0306 903.77 -0.0032777 80.014 0.10655 455.00 0.0021978 713.94 877.42 2.3724 2.4915 3.0306 903.77 -0.0032777 80.014 0.10655
231.38 10844. undefined 716.43 880.76 2.3774 455.00 0.0021978 716.43 880.76 2.3774 2.4953 3.0332 905.03 -0.0032857 80.034 0.10671 455.00 0.0021978 716.43 880.76 2.3774 2.4953 3.0332 905.03 -0.0032857 80.034 0.10671
232.38 10900. undefined 718.93 884.10 2.3823 455.00 0.0021978 718.93 884.10 2.3823 2.4991 3.0357 906.28 -0.0032937 80.054 0.10686 455.00 0.0021978 718.93 884.10 2.3823 2.4991 3.0357 906.28 -0.0032937 80.054 0.10686
233.38 10956. undefined 721.43 887.45 2.3873 455.00 0.0021978 721.43 887.45 2.3873 2.5028 3.0382 907.53 -0.0033015 80.074 0.10701 455.00 0.0021978 721.43 887.45 2.3873 2.5028 3.0382 907.53 -0.0033015 80.074 0.10701
234.38 11012. undefined 723.93 890.80 2.3922 455.00 0.0021978 723.93 890.80 2.3922 2.5066 3.0408 908.78 -0.0033092 80.094 0.10716 455.00 0.0021978 723.93 890.80 2.3922 2.5066 3.0408 908.78 -0.0033092 80.094 0.10716
235.38 11068. undefined 726.44 894.16 2.3971 455.00 0.0021978 726.44 894.16 2.3971 2.5103 3.0433 910.03 -0.0033169 80.114 0.10732 455.00 0.0021978 726.44 894.16 2.3971 2.5103 3.0433 910.03 -0.0033169 80.114 0.10732
236.38 11124. undefined 728.95 897.52 2.4021 455.00 0.0021978 728.95 897.52 2.4021 2.5140 3.0459 911.27 -0.0033244 80.134 0.10747 455.00 0.0021978 728.95 897.52 2.4021 2.5140 3.0459 911.27 -0.0033244 80.134 0.10747
237.38 11180. undefined 731.47 900.88 2.4070 455.00 0.0021978 731.47 900.88 2.4070 2.5178 3.0484 912.51 -0.0033319 80.154 0.10763 455.00 0.0021978 731.47 900.88 2.4070 2.5178 3.0484 912.51 -0.0033319 80.154 0.10763
238.38 11235. undefined 733.99 904.24 2.4119 455.00 0.0021978 733.99 904.24 2.4119 2.5215 3.0510 913.75 -0.0033392 80.174 0.10778 455.00 0.0021978 733.99 904.24 2.4119 2.5215 3.0510 913.75 -0.0033392 80.174 0.10778
239.38 11291. undefined 736.51 907.61 2.4169 455.00 0.0021978 736.51 907.61 2.4169 2.5252 3.0535 914.98 -0.0033465 80.194 0.10794 455.00 0.0021978 736.51 907.61 2.4169 2.5252 3.0535 914.98 -0.0033465 80.194 0.10794
240.38 11347. undefined 739.04 910.98 2.4218 455.00 0.0021978 739.04 910.98 2.4218 2.5290 3.0561 916.21 -0.0033537 80.214 0.10809 455.00 0.0021978 739.04 910.98 2.4218 2.5290 3.0561 916.21 -0.0033537 80.214 0.10809
241.38 11403. undefined 741.57 914.36 2.4267 455.00 0.0021978 741.57 914.36 2.4267 2.5327 3.0586 917.44 -0.0033608 80.234 0.10825 455.00 0.0021978 741.57 914.36 2.4267 2.5327 3.0586 917.44 -0.0033608 80.234 0.10825
242.38 11458. undefined 744.11 917.74 2.4316 455.00 0.0021978 744.11 917.74 2.4316 2.5364 3.0612 918.67 -0.0033678 80.254 0.10840 455.00 0.0021978 744.11 917.74 2.4316 2.5364 3.0612 918.67 -0.0033678 80.254 0.10840
243.38 11514. undefined 746.64 921.12 2.4365 455.00 0.0021978 746.64 921.12 2.4365 2.5401 3.0638 919.89 -0.0033747 80.274 0.10856 455.00 0.0021978 746.64 921.12 2.4365 2.5401 3.0638 919.89 -0.0033747 80.274 0.10856
244.38 11570. undefined 749.19 924.50 2.4415 455.00 0.0021978 749.19 924.50 2.4415 2.5438 3.0663 921.11 -0.0033816 80.294 0.10871 455.00 0.0021978 749.19 924.50 2.4415 2.5438 3.0663 921.11 -0.0033816 80.294 0.10871
245.38 11625. undefined 751.73 927.89 2.4464 455.00 0.0021978 751.73 927.89 2.4464 2.5475 3.0689 922.33 -0.0033883 80.314 0.10887 455.00 0.0021978 751.73 927.89 2.4464 2.5475 3.0689 922.33 -0.0033883 80.314 0.10887
246.38 11681. undefined 754.28 931.28 2.4513 455.00 0.0021978 754.28 931.28 2.4513 2.5512 3.0715 923.54 -0.0033950 80.334 0.10903 455.00 0.0021978 754.28 931.28 2.4513 2.5512 3.0715 923.54 -0.0033950 80.334 0.10903
247.38 11736. undefined 756.83 934.68 2.4562 455.00 0.0021978 756.83 934.68 2.4562 2.5549 3.0741 924.75 -0.0034016 80.354 0.10919 455.00 0.0021978 756.83 934.68 2.4562 2.5549 3.0741 924.75 -0.0034016 80.354 0.10919
248.38 11792. undefined 759.39 938.08 2.4611 455.00 0.0021978 759.39 938.08 2.4611 2.5586 3.0766 925.96 -0.0034081 80.374 0.10934 455.00 0.0021978 759.39 938.08 2.4611 2.5586 3.0766 925.96 -0.0034081 80.374 0.10934
249.38 11848. undefined 761.95 941.48 2.4660 455.00 0.0021978 761.95 941.48 2.4660 2.5622 3.0792 927.17 -0.0034145 80.394 0.10950 455.00 0.0021978 761.95 941.48 2.4660 2.5622 3.0792 927.17 -0.0034145 80.394 0.10950
250.38 11903. undefined 764.51 944.88 2.4709 455.00 0.0021978 764.51 944.88 2.4709 2.5659 3.0818 928.37 -0.0034209 80.414 0.10966 455.00 0.0021978 764.51 944.88 2.4709 2.5659 3.0818 928.37 -0.0034209 80.414 0.10966
251.38 11959. undefined 767.08 948.29 2.4758 455.00 0.0021978 767.08 948.29 2.4758 2.5696 3.0844 929.57 -0.0034272 80.434 0.10982 455.00 0.0021978 767.08 948.29 2.4758 2.5696 3.0844 929.57 -0.0034272 80.434 0.10982
252.38 12014. undefined 769.65 951.71 2.4807 455.00 0.0021978 769.65 951.71 2.4807 2.5732 3.0870 930.77 -0.0034334 80.454 0.10998 455.00 0.0021978 769.65 951.71 2.4807 2.5732 3.0870 930.77 -0.0034334 80.454 0.10998
253.38 12069. undefined 772.23 955.12 2.4856 455.00 0.0021978 772.23 955.12 2.4856 2.5769 3.0896 931.97 -0.0034395 80.474 0.11014 455.00 0.0021978 772.23 955.12 2.4856 2.5769 3.0896 931.97 -0.0034395 80.474 0.11014
254.38 12125. undefined 774.81 958.54 2.4905 455.00 0.0021978 774.81 958.54 2.4905 2.5806 3.0921 933.16 -0.0034455 80.494 0.11029 455.00 0.0021978 774.81 958.54 2.4905 2.5806 3.0921 933.16 -0.0034455 80.494 0.11029
255.38 12180. undefined 777.39 961.96 2.4954 455.00 0.0021978 777.39 961.96 2.4954 2.5842 3.0947 934.36 -0.0034515 80.514 0.11045 455.00 0.0021978 777.39 961.96 2.4954 2.5842 3.0947 934.36 -0.0034515 80.514 0.11045
256.38 12236. undefined 779.98 965.39 2.5003 455.00 0.0021978 779.98 965.39 2.5003 2.5879 3.0973 935.54 -0.0034574 80.534 0.11061 455.00 0.0021978 779.98 965.39 2.5003 2.5879 3.0973 935.54 -0.0034574 80.534 0.11061
257.38 12291. undefined 782.57 968.81 2.5052 455.00 0.0021978 782.57 968.81 2.5052 2.5915 3.0999 936.73 -0.0034632 80.553 0.11077 455.00 0.0021978 782.57 968.81 2.5052 2.5915 3.0999 936.73 -0.0034632 80.553 0.11077
258.38 12346. undefined 785.16 972.25 2.5101 455.00 0.0021978 785.16 972.25 2.5101 2.5951 3.1025 937.91 -0.0034690 80.573 0.11093 455.00 0.0021978 785.16 972.25 2.5101 2.5951 3.1025 937.91 -0.0034690 80.573 0.11093
259.38 12402. undefined 787.76 975.68 2.5149 455.00 0.0021978 787.76 975.68 2.5149 2.5988 3.1051 939.10 -0.0034747 80.593 0.11110 455.00 0.0021978 787.76 975.68 2.5149 2.5988 3.1051 939.10 -0.0034747 80.593 0.11110
260.38 12457. undefined 790.36 979.12 2.5198 455.00 0.0021978 790.36 979.12 2.5198 2.6024 3.1077 940.27 -0.0034803 80.613 0.11126 455.00 0.0021978 790.36 979.12 2.5198 2.6024 3.1077 940.27 -0.0034803 80.613 0.11126
261.38 12512. undefined 792.96 982.56 2.5247 455.00 0.0021978 792.96 982.56 2.5247 2.6060 3.1103 941.45 -0.0034859 80.633 0.11142 455.00 0.0021978 792.96 982.56 2.5247 2.6060 3.1103 941.45 -0.0034859 80.633 0.11142
262.38 12567. undefined 795.57 986.00 2.5296 455.00 0.0021978 795.57 986.00 2.5296 2.6096 3.1129 942.62 -0.0034913 80.653 0.11158 455.00 0.0021978 795.57 986.00 2.5296 2.6096 3.1129 942.62 -0.0034913 80.653 0.11158
263.38 12623. undefined 798.18 989.45 2.5344 455.00 0.0021978 798.18 989.45 2.5344 2.6132 3.1155 943.80 -0.0034968 80.673 0.11174 455.00 0.0021978 798.18 989.45 2.5344 2.6132 3.1155 943.80 -0.0034968 80.673 0.11174
264.38 12678. undefined 800.79 992.90 2.5393 455.00 0.0021978 800.79 992.90 2.5393 2.6168 3.1181 944.96 -0.0035021 80.693 0.11190 455.00 0.0021978 800.79 992.90 2.5393 2.6168 3.1181 944.96 -0.0035021 80.693 0.11190
265.38 12733. undefined 803.41 996.36 2.5442 455.00 0.0021978 803.41 996.36 2.5442 2.6204 3.1208 946.13 -0.0035074 80.713 0.11207 455.00 0.0021978 803.41 996.36 2.5442 2.6204 3.1208 946.13 -0.0035074 80.713 0.11207
266.38 12788. undefined 806.04 999.82 2.5490 455.00 0.0021978 806.04 999.82 2.5490 2.6240 3.1234 947.29 -0.0035126 80.733 0.11223 455.00 0.0021978 806.04 999.82 2.5490 2.6240 3.1234 947.29 -0.0035126 80.733 0.11223
267.38 12843. undefined 808.66 1003.3 2.5539 455.00 0.0021978 808.66 1003.3 2.5539 2.6276 3.1260 948.46 -0.0035178 80.753 0.11239 455.00 0.0021978 808.66 1003.3 2.5539 2.6276 3.1260 948.46 -0.0035178 80.753 0.11239
268.38 12898. undefined 811.29 1006.7 2.5588 455.00 0.0021978 811.29 1006.7 2.5588 2.6312 3.1286 949.62 -0.0035229 80.772 0.11256 455.00 0.0021978 811.29 1006.7 2.5588 2.6312 3.1286 949.62 -0.0035229 80.772 0.11256
269.38 12953. undefined 813.92 1010.2 2.5636 455.00 0.0021978 813.92 1010.2 2.5636 2.6348 3.1312 950.77 -0.0035279 80.792 0.11272 455.00 0.0021978 813.92 1010.2 2.5636 2.6348 3.1312 950.77 -0.0035279 80.792 0.11272
270.38 13008. undefined 816.56 1013.7 2.5685 455.00 0.0021978 816.56 1013.7 2.5685 2.6384 3.1338 951.93 -0.0035329 80.812 0.11288 455.00 0.0021978 816.56 1013.7 2.5685 2.6384 3.1338 951.93 -0.0035329 80.812 0.11288
271.38 13063. undefined 819.20 1017.2 2.5733 455.00 0.0021978 819.20 1017.2 2.5733 2.6420 3.1364 953.08 -0.0035378 80.832 0.11305 455.00 0.0021978 819.20 1017.2 2.5733 2.6420 3.1364 953.08 -0.0035378 80.832 0.11305
272.38 13118. undefined 821.84 1020.6 2.5782 455.00 0.0021978 821.84 1020.6 2.5782 2.6455 3.1390 954.23 -0.0035426 80.852 0.11321 455.00 0.0021978 821.84 1020.6 2.5782 2.6455 3.1390 954.23 -0.0035426 80.852 0.11321
273.38 13173. undefined 824.49 1024.1 2.5830 455.00 0.0021978 824.49 1024.1 2.5830 2.6491 3.1417 955.38 -0.0035474 80.872 0.11338 455.00 0.0021978 824.49 1024.1 2.5830 2.6491 3.1417 955.38 -0.0035474 80.872 0.11338
274.38 13228. undefined 827.14 1027.6 2.5879 455.00 0.0021978 827.14 1027.6 2.5879 2.6527 3.1443 956.52 -0.0035521 80.892 0.11354 455.00 0.0021978 827.14 1027.6 2.5879 2.6527 3.1443 956.52 -0.0035521 80.892 0.11354
275.38 13283. undefined 829.80 1031.1 2.5927 455.00 0.0021978 829.80 1031.1 2.5927 2.6562 3.1469 957.67 -0.0035568 80.911 0.11371 455.00 0.0021978 829.80 1031.1 2.5927 2.6562 3.1469 957.67 -0.0035568 80.911 0.11371
276.38 13338. undefined 832.46 1034.6 2.5976 455.00 0.0021978 832.46 1034.6 2.5976 2.6598 3.1495 958.81 -0.0035614 80.931 0.11387 455.00 0.0021978 832.46 1034.6 2.5976 2.6598 3.1495 958.81 -0.0035614 80.931 0.11387
277.38 13393. undefined 835.12 1038.1 2.6024 455.00 0.0021978 835.12 1038.1 2.6024 2.6633 3.1521 959.95 -0.0035659 80.951 0.11404 455.00 0.0021978 835.12 1038.1 2.6024 2.6633 3.1521 959.95 -0.0035659 80.951 0.11404
278.38 13448. undefined 837.78 1041.6 2.6072 455.00 0.0021978 837.78 1041.6 2.6072 2.6668 3.1547 961.08 -0.0035704 80.971 0.11421 455.00 0.0021978 837.78 1041.6 2.6072 2.6668 3.1547 961.08 -0.0035704 80.971 0.11421
279.38 13503. undefined 840.45 1045.1 2.6121 455.00 0.0021978 840.45 1045.1 2.6121 2.6704 3.1574 962.22 -0.0035749 80.991 0.11437 455.00 0.0021978 840.45 1045.1 2.6121 2.6704 3.1574 962.22 -0.0035749 80.991 0.11437
280.38 13557. undefined 843.12 1048.6 2.6169 455.00 0.0021978 843.12 1048.6 2.6169 2.6739 3.1600 963.35 -0.0035793 81.010 0.11454 455.00 0.0021978 843.12 1048.6 2.6169 2.6739 3.1600 963.35 -0.0035793 81.010 0.11454
281.38 13612. undefined 845.80 1052.1 2.6217 455.00 0.0021978 845.80 1052.1 2.6217 2.6774 3.1626 964.48 -0.0035836 81.030 0.11471 455.00 0.0021978 845.80 1052.1 2.6217 2.6774 3.1626 964.48 -0.0035836 81.030 0.11471
282.38 13667. undefined 848.48 1055.6 2.6266 455.00 0.0021978 848.48 1055.6 2.6266 2.6810 3.1652 965.61 -0.0035879 81.050 0.11450 455.00 0.0021978 848.48 1055.6 2.6266 2.6810 3.1652 965.61 -0.0035879 81.050 0.11450
283.38 13722. undefined 851.16 1059.1 2.6314 455.00 0.0021978 851.16 1059.1 2.6314 2.6845 3.1679 966.73 -0.0035921 81.070 0.11466 455.00 0.0021978 851.16 1059.1 2.6314 2.6845 3.1679 966.73 -0.0035921 81.070 0.11466
284.38 13776. undefined 853.85 1062.6 2.6362 455.00 0.0021978 853.85 1062.6 2.6362 2.6880 3.1705 967.85 -0.0035963 81.090 0.11483 455.00 0.0021978 853.85 1062.6 2.6362 2.6880 3.1705 967.85 -0.0035963 81.090 0.11483
285.38 13831. undefined 856.54 1066.1 2.6410 455.00 0.0021978 856.54 1066.1 2.6410 2.6915 3.1731 968.98 -0.0036004 81.109 0.11500 455.00 0.0021978 856.54 1066.1 2.6410 2.6915 3.1731 968.98 -0.0036004 81.109 0.11500
286.38 13886. undefined 859.23 1069.6 2.6458 455.00 0.0021978 859.23 1069.6 2.6458 2.6950 3.1757 970.09 -0.0036045 81.129 0.11517 455.00 0.0021978 859.23 1069.6 2.6458 2.6950 3.1757 970.09 -0.0036045 81.129 0.11517
287.38 13940. undefined 861.93 1073.2 2.6507 455.00 0.0021978 861.93 1073.2 2.6507 2.6985 3.1783 971.21 -0.0036085 81.149 0.11533 455.00 0.0021978 861.93 1073.2 2.6507 2.6985 3.1783 971.21 -0.0036085 81.149 0.11533
288.38 13995. undefined 864.63 1076.7 2.6555 455.00 0.0021978 864.63 1076.7 2.6555 2.7020 3.1810 972.33 -0.0036125 81.169 0.11550 455.00 0.0021978 864.63 1076.7 2.6555 2.7020 3.1810 972.33 -0.0036125 81.169 0.11550
289.38 14050. undefined 867.33 1080.2 2.6603 455.00 0.0021978 867.33 1080.2 2.6603 2.7055 3.1836 973.44 -0.0036164 81.188 0.11567 455.00 0.0021978 867.33 1080.2 2.6603 2.7055 3.1836 973.44 -0.0036164 81.188 0.11567
290.38 14104. undefined 870.04 1083.8 2.6651 455.00 0.0021978 870.04 1083.8 2.6651 2.7090 3.1862 974.55 -0.0036202 81.208 0.11584 455.00 0.0021978 870.04 1083.8 2.6651 2.7090 3.1862 974.55 -0.0036202 81.208 0.11584
291.38 14159. undefined 872.75 1087.3 2.6699 455.00 0.0021978 872.75 1087.3 2.6699 2.7125 3.1888 975.66 -0.0036241 81.228 0.11601 455.00 0.0021978 872.75 1087.3 2.6699 2.7125 3.1888 975.66 -0.0036241 81.228 0.11601
292.38 14213. undefined 875.46 1090.8 2.6747 455.00 0.0021978 875.46 1090.8 2.6747 2.7159 3.1915 976.76 -0.0036278 81.247 0.11618 455.00 0.0021978 875.46 1090.8 2.6747 2.7159 3.1915 976.76 -0.0036278 81.247 0.11618
293.38 14268. undefined 878.18 1094.4 2.6795 455.00 0.0021978 878.18 1094.4 2.6795 2.7194 3.1941 977.87 -0.0036316 81.267 0.11635 455.00 0.0021978 878.18 1094.4 2.6795 2.7194 3.1941 977.87 -0.0036316 81.267 0.11635
294.38 14322. undefined 880.90 1097.9 2.6843 455.00 0.0021978 880.90 1097.9 2.6843 2.7229 3.1967 978.97 -0.0036352 81.287 0.11652 455.00 0.0021978 880.90 1097.9 2.6843 2.7229 3.1967 978.97 -0.0036352 81.287 0.11652
295.38 14377. undefined 883.63 1101.5 2.6891 455.00 0.0021978 883.63 1101.5 2.6891 2.7263 3.1993 980.07 -0.0036389 81.306 0.11669 455.00 0.0021978 883.63 1101.5 2.6891 2.7263 3.1993 980.07 -0.0036389 81.306 0.11669
296.38 14431. undefined 886.35 1105.0 2.6939 455.00 0.0021978 886.35 1105.0 2.6939 2.7298 3.2020 981.17 -0.0036425 81.326 0.11686 455.00 0.0021978 886.35 1105.0 2.6939 2.7298 3.2020 981.17 -0.0036425 81.326 0.11686
297.38 14486. undefined 889.09 1108.6 2.6987 455.00 0.0021978 889.09 1108.6 2.6987 2.7332 3.2046 982.26 -0.0036460 81.346 0.11703 455.00 0.0021978 889.09 1108.6 2.6987 2.7332 3.2046 982.26 -0.0036460 81.346 0.11703
298.38 14540. undefined 891.82 1112.2 2.7035 455.00 0.0021978 891.82 1112.2 2.7035 2.7367 3.2072 983.36 -0.0036495 81.365 0.11720 455.00 0.0021978 891.82 1112.2 2.7035 2.7367 3.2072 983.36 -0.0036495 81.365 0.11720
299.38 14595. undefined 894.56 1115.7 2.7083 455.00 0.0021978 894.56 1115.7 2.7083 2.7401 3.2098 984.45 -0.0036530 81.385 0.11737 455.00 0.0021978 894.56 1115.7 2.7083 2.7401 3.2098 984.45 -0.0036530 81.385 0.11737
300.38 14649. undefined 897.30 1119.3 2.7130 455.00 0.0021978 897.30 1119.3 2.7130 2.7436 3.2124 985.54 -0.0036564 81.405 0.11755 455.00 0.0021978 897.30 1119.3 2.7130 2.7436 3.2124 985.54 -0.0036564 81.405 0.11755