Temperature (C) Pressure (psia) Quality (l+v) Internal Energy (l+v, kJ/kg) Enthalpy (l+v, kJ/kg) Entropy (l+v, J/g*K) Density (l, kg/m3) Volume (l, m3/kg) Internal Energy (l, kJ/kg) Enthalpy (l, kJ/kg) Entropy (l, J/g*K) Cv (l, J/g*K) Cp (l, J/g*K) Sound Spd. (l, m/s) Joule-Thomson (l, F/psia) Viscosity (l, uPa*s) Therm. Cond. (l, W/m*K) Density (v, kg/m3) Volume (v, m3/kg) Internal Energy (v, kJ/kg) Enthalpy (v, kJ/kg) Entropy (v, J/g*K) Cv (v, J/g*K) Cp (v, J/g*K) Sound Spd. (v, m/s) Joule-Thomson (v, F/psia) Viscosity (v, uPa*s) Therm. Cond. (v, W/m*K)
-187.62 2.4953e-08 7.6741e-12 -196.64 -196.64 -1.3959 733.13 0.0013640 -196.64 -196.64 -1.3959 1.3553 1.9158 2136.4 -0.0077592 10960. 0.20792 1.0669e-08 9.3732e+07 350.13 366.26 5.1858 0.69067 0.87923 143.28 6.1051 2.3259 0.0017061
-186.62 3.7339e-08 1.1320e-11 -194.73 -194.73 -1.3736 732.08 0.0013660 -194.73 -194.73 -1.3736 1.3539 1.9166 2129.6 -0.0077546 10073. 0.20765 1.5780e-08 6.3371e+07 350.82 367.14 5.1200 0.69462 0.88317 144.03 5.9178 2.3534 0.0017533
-185.62 5.5322e-08 1.6535e-11 -192.81 -192.81 -1.3516 731.04 0.0013679 -192.81 -192.81 -1.3516 1.3525 1.9174 2122.9 -0.0077498 9276.1 0.20737 2.3112e-08 4.3267e+07 351.52 368.02 5.0561 0.69857 0.88713 144.77 5.7383 2.3808 0.0018007
-184.62 8.1182e-08 2.3925e-11 -190.89 -190.89 -1.3298 730.00 0.0013699 -190.89 -190.89 -1.3298 1.3513 1.9182 2116.1 -0.0077448 8557.8 0.20708 3.3533e-08 2.9821e+07 352.22 368.91 4.9939 0.70253 0.89108 145.51 5.5662 2.4083 0.0018485
-183.62 1.1803e-07 3.4303e-11 -188.97 -188.97 -1.3083 728.96 0.0013718 -188.97 -188.97 -1.3083 1.3501 1.9191 2109.3 -0.0077395 7909.8 0.20678 4.8211e-08 2.0742e+07 352.92 369.81 4.9333 0.70648 0.89504 146.24 5.4011 2.4357 0.0018965
-182.62 1.7009e-07 4.8749e-11 -187.05 -187.05 -1.2869 727.92 0.0013738 -187.05 -187.05 -1.2869 1.3490 1.9201 2102.5 -0.0077340 7324.3 0.20647 6.8704e-08 1.4555e+07 353.63 370.70 4.8744 0.71043 0.89899 146.97 5.2426 2.4632 0.0019448
-181.62 2.4299e-07 6.8693e-11 -185.13 -185.13 -1.2658 726.88 0.0013757 -185.13 -185.13 -1.2658 1.3480 1.9210 2095.7 -0.0077283 6794.5 0.20616 9.7079e-08 1.0301e+07 354.35 371.60 4.8170 0.71438 0.90294 147.69 5.0904 2.4906 0.0019934
-180.62 3.4425e-07 9.6000e-11 -183.21 -183.21 -1.2450 725.85 0.0013777 -183.21 -183.21 -1.2450 1.3470 1.9220 2088.9 -0.0077225 6314.4 0.20584 1.3605e-07 7.3504e+06 355.06 372.51 4.7612 0.71833 0.90688 148.41 4.9442 2.5181 0.0020423
-179.62 4.8378e-07 1.3310e-10 -181.29 -181.29 -1.2243 724.81 0.0013797 -181.29 -181.29 -1.2243 1.3461 1.9231 2082.0 -0.0077164 5878.8 0.20551 1.8915e-07 5.2868e+06 355.78 373.42 4.7068 0.72227 0.91082 149.13 4.8038 2.5456 0.0020915
-178.62 6.7459e-07 1.8312e-10 -179.37 -179.37 -1.2038 723.78 0.0013816 -179.37 -179.37 -1.2038 1.3453 1.9241 2075.2 -0.0077102 5482.9 0.20517 2.6096e-07 3.8320e+06 356.51 374.33 4.6538 0.72620 0.91475 149.84 4.6688 2.5731 0.0021410
-177.62 9.3358e-07 2.5006e-10 -177.44 -177.44 -1.1836 722.75 0.0013836 -177.44 -177.44 -1.1836 1.3445 1.9252 2068.4 -0.0077039 5122.6 0.20483 3.5737e-07 2.7982e+06 357.23 375.25 4.6022 0.73012 0.91867 150.54 4.5390 2.6005 0.0021907
-176.62 1.2826e-06 3.3902e-10 -175.52 -175.52 -1.1635 721.72 0.0013856 -175.52 -175.52 -1.1635 1.3437 1.9263 2061.5 -0.0076973 4794.1 0.20447 4.8588e-07 2.0581e+06 357.97 376.17 4.5519 0.73403 0.92258 151.25 4.4142 2.6280 0.0022408
-175.62 1.7496e-06 4.5644e-10 -173.59 -173.59 -1.1437 720.69 0.0013876 -173.59 -173.59 -1.1437 1.3430 1.9274 2054.7 -0.0076907 4494.3 0.20411 6.5601e-07 1.5244e+06 358.70 377.09 4.5029 0.73792 0.92648 151.95 4.2941 2.6555 0.0022912
-174.62 2.3705e-06 6.1037e-10 -171.66 -171.66 -1.1240 719.66 0.0013895 -171.66 -171.66 -1.1240 1.3423 1.9286 2047.9 -0.0076838 4220.2 0.20375 8.7976e-07 1.1367e+06 359.44 378.02 4.4551 0.74181 0.93036 152.64 4.1784 2.6830 0.0023418
-173.62 3.1903e-06 8.1089e-10 -169.73 -169.73 -1.1045 718.64 0.0013915 -169.73 -169.73 -1.1045 1.3417 1.9298 2041.0 -0.0076769 3969.3 0.20338 1.1721e-06 8.5314e+05 360.19 378.95 4.4085 0.74568 0.93423 153.33 4.0671 2.7105 0.0023928
-172.62 4.2661e-06 1.0705e-09 -167.80 -167.80 -1.0852 717.61 0.0013935 -167.80 -167.80 -1.0852 1.3411 1.9310 2034.2 -0.0076698 3739.3 0.20300 1.5518e-06 6.4441e+05 360.93 379.89 4.3631 0.74953 0.93809 154.02 3.9599 2.7379 0.0024440
-171.62 5.6692e-06 1.4045e-09 -165.87 -165.87 -1.0661 716.58 0.0013955 -165.87 -165.87 -1.0661 1.3405 1.9322 2027.3 -0.0076625 3528.0 0.20261 2.0419e-06 4.8974e+05 361.69 380.83 4.3188 0.75337 0.94193 154.71 3.8566 2.7654 0.0024955
-170.62 7.4884e-06 1.8317e-09 -163.94 -163.94 -1.0472 715.56 0.0013975 -163.94 -163.94 -1.0472 1.3400 1.9334 2020.5 -0.0076552 3333.8 0.20222 2.6708e-06 3.7442e+05 362.44 381.77 4.2755 0.75720 0.94575 155.39 3.7570 2.7929 0.0025473
-169.62 9.8334e-06 2.3751e-09 -162.00 -162.00 -1.0284 714.54 0.0013995 -162.00 -162.00 -1.0284 1.3395 1.9347 2013.6 -0.0076477 3154.9 0.20182 3.4733e-06 2.8791e+05 363.20 382.72 4.2334 0.76100 0.94956 156.07 3.6609 2.8204 0.0025994
-168.62 1.2839e-05 3.0625e-09 -160.07 -160.07 -1.0098 713.52 0.0014015 -160.07 -160.07 -1.0098 1.3390 1.9359 2006.8 -0.0076401 2989.9 0.20141 4.4917e-06 2.2263e+05 363.96 383.67 4.1922 0.76479 0.95335 156.74 3.5683 2.8479 0.0026518
-167.62 1.6672e-05 3.9274e-09 -158.13 -158.13 -0.99134 712.49 0.0014035 -158.13 -158.13 -0.99134 1.3386 1.9372 2000.0 -0.0076323 2837.5 0.20100 5.7771e-06 1.7310e+05 364.73 384.63 4.1521 0.76856 0.95712 157.41 3.4790 2.8754 0.0027045
-166.62 2.1533e-05 5.0099e-09 -156.19 -156.19 -0.97306 711.47 0.0014055 -156.19 -156.19 -0.97306 1.3382 1.9385 1993.1 -0.0076245 2696.5 0.20058 7.3914e-06 1.3529e+05 365.50 385.59 4.1129 0.77232 0.96087 158.08 3.3927 2.9029 0.0027575
-165.62 2.7666e-05 6.3581e-09 -154.25 -154.25 -0.95494 710.45 0.0014075 -154.25 -154.25 -0.95494 1.3378 1.9398 1986.3 -0.0076165 2566.0 0.20016 9.4084e-06 1.0629e+05 366.27 386.55 4.0746 0.77605 0.96460 158.75 3.3095 2.9304 0.0028108
-164.62 3.5367e-05 8.0288e-09 -152.31 -152.31 -0.93698 709.44 0.0014096 -152.31 -152.31 -0.93698 1.3375 1.9411 1979.4 -0.0076084 2444.9 0.19973 1.1916e-05 83918. 367.05 387.52 4.0372 0.77976 0.96832 159.41 3.2291 2.9579 0.0028643
-163.62 4.4989e-05 1.0090e-08 -150.37 -150.37 -0.91917 708.42 0.0014116 -150.37 -150.37 -0.91917 1.3371 1.9424 1972.6 -0.0076002 2332.3 0.19930 1.5020e-05 66577. 367.83 388.49 4.0008 0.78346 0.97201 160.07 3.1514 2.9854 0.0029182
-162.62 5.6956e-05 1.2620e-08 -148.43 -148.43 -0.90151 707.40 0.0014136 -148.43 -148.43 -0.90151 1.3368 1.9437 1965.8 -0.0075919 2227.7 0.19886 1.8844e-05 53068. 368.62 389.46 3.9651 0.78713 0.97569 160.72 3.0764 3.0129 0.0029723
-161.62 7.1773e-05 1.5712e-08 -146.48 -146.48 -0.88400 706.38 0.0014157 -146.48 -146.48 -0.88400 1.3365 1.9451 1959.0 -0.0075834 2130.2 0.19841 2.3533e-05 42494. 369.41 390.44 3.9304 0.79079 0.97935 161.38 3.0038 3.0404 0.0030268
-160.62 9.0036e-05 1.9475e-08 -144.54 -144.54 -0.86663 705.37 0.0014177 -144.54 -144.54 -0.86663 1.3363 1.9465 1952.1 -0.0075748 2039.2 0.19796 2.9258e-05 34178. 370.20 391.42 3.8964 0.79443 0.98298 162.03 2.9337 3.0679 0.0030815
-159.62 0.00011245 2.4036e-08 -142.59 -142.59 -0.84940 704.35 0.0014197 -142.59 -142.59 -0.84940 1.3360 1.9478 1945.3 -0.0075661 1954.2 0.19751 3.6221e-05 27609. 371.00 392.40 3.8632 0.79805 0.98660 162.68 2.8658 3.0955 0.0031365
-158.62 0.00013985 2.9539e-08 -140.64 -140.64 -0.83231 703.34 0.0014218 -140.64 -140.64 -0.83231 1.3358 1.9492 1938.5 -0.0075573 1874.8 0.19705 4.4652e-05 22395. 371.80 393.39 3.8307 0.80164 0.99020 163.32 2.8002 3.1230 0.0031918
-157.62 0.00017320 3.6154e-08 -138.69 -138.69 -0.81536 702.32 0.0014238 -138.69 -138.69 -0.81536 1.3356 1.9506 1931.7 -0.0075484 1800.3 0.19658 5.4822e-05 18241. 372.60 394.38 3.7990 0.80522 0.99378 163.96 2.7367 3.1505 0.0032474
-156.62 0.00021364 4.4075e-08 -136.74 -136.74 -0.79854 701.31 0.0014259 -136.74 -136.74 -0.79854 1.3354 1.9520 1924.9 -0.0075393 1730.5 0.19611 6.7040e-05 14916. 373.41 395.38 3.7680 0.80878 0.99734 164.60 2.6752 3.1780 0.0033033
-155.62 0.00026248 5.3522e-08 -134.79 -134.79 -0.78185 700.30 0.0014280 -134.79 -134.79 -0.78185 1.3352 1.9534 1918.1 -0.0075302 1664.9 0.19564 8.1666e-05 12245. 374.22 396.38 3.7377 0.81232 1.0009 165.24 2.6157 3.2055 0.0033595
-154.62 0.00032125 6.4748e-08 -132.83 -132.83 -0.76530 699.29 0.0014300 -132.83 -132.83 -0.76530 1.3350 1.9548 1911.3 -0.0075209 1603.3 0.19516 9.9109e-05 10090. 375.03 397.38 3.7081 0.81585 1.0044 165.87 2.5580 3.2330 0.0034160
-153.62 0.00039171 7.8042e-08 -130.88 -130.88 -0.74887 698.27 0.0014321 -130.88 -130.88 -0.74887 1.3349 1.9563 1904.5 -0.0075114 1545.3 0.19468 0.00011984 8344.6 375.85 398.39 3.6792 0.81935 1.0079 166.50 2.5022 3.2606 0.0034727
-152.62 0.00047590 9.3728e-08 -128.92 -128.92 -0.73256 697.26 0.0014342 -128.92 -128.92 -0.73256 1.3348 1.9577 1897.8 -0.0075019 1490.6 0.19419 0.00014439 6925.9 376.67 399.40 3.6509 0.82284 1.0114 167.13 2.4481 3.2881 0.0035298
-151.62 0.00057613 1.1217e-07 -126.96 -126.96 -0.71638 696.25 0.0014363 -126.96 -126.96 -0.71638 1.3346 1.9592 1891.0 -0.0074922 1438.9 0.19370 0.00017336 5768.4 377.49 400.41 3.6232 0.82631 1.0149 167.76 2.3957 3.3156 0.0035872
-150.62 0.00069507 1.3379e-07 -125.00 -125.00 -0.70032 695.24 0.0014384 -125.00 -125.00 -0.70032 1.3345 1.9606 1884.2 -0.0074824 1390.2 0.19320 0.00020744 4820.7 378.32 401.42 3.5962 0.82976 1.0183 168.38 2.3448 3.3431 0.0036448
-149.62 0.00083574 1.5905e-07 -123.04 -123.04 -0.68438 694.23 0.0014404 -123.04 -123.04 -0.68438 1.3345 1.9621 1877.4 -0.0074724 1344.0 0.19270 0.00024740 4042.0 379.15 402.44 3.5697 0.83319 1.0218 169.00 2.2956 3.3706 0.0037027
-148.62 0.0010016 1.8847e-07 -121.08 -121.08 -0.66855 693.22 0.0014425 -121.08 -121.08 -0.66855 1.3344 1.9636 1870.7 -0.0074623 1300.3 0.19220 0.00029412 3400.0 379.99 403.47 3.5438 0.83661 1.0252 169.62 2.2478 3.3982 0.0037610
-147.62 0.0011965 2.2262e-07 -119.11 -119.11 -0.65284 692.21 0.0014447 -119.11 -119.11 -0.65284 1.3343 1.9651 1863.9 -0.0074521 1258.9 0.19169 0.00034856 2869.0 380.83 404.49 3.5185 0.84001 1.0286 170.24 2.2014 3.4257 0.0038195
-146.62 0.0014249 2.6215e-07 -117.15 -117.15 -0.63724 691.20 0.0014468 -117.15 -117.15 -0.63724 1.3343 1.9666 1857.2 -0.0074417 1219.6 0.19117 0.00041181 2428.3 381.67 405.52 3.4938 0.84340 1.0320 170.85 2.1565 3.4532 0.0038783
-145.62 0.0016917 3.0777e-07 -115.18 -115.18 -0.62175 690.19 0.0014489 -115.18 -115.18 -0.62175 1.3343 1.9682 1850.4 -0.0074312 1182.3 0.19066 0.00048510 2061.4 382.51 406.56 3.4695 0.84677 1.0353 171.46 2.1128 3.4807 0.0039374
-144.62 0.0020026 3.6028e-07 -113.21 -113.21 -0.60637 689.18 0.0014510 -113.21 -113.21 -0.60637 1.3343 1.9697 1843.7 -0.0074206 1146.8 0.19014 0.00056976 1755.1 383.36 407.59 3.4458 0.85012 1.0387 172.07 2.0705 3.5082 0.0039967
-143.62 0.0023637 4.2054e-07 -111.24 -111.24 -0.59110 688.17 0.0014531 -111.24 -111.24 -0.59110 1.3343 1.9713 1836.9 -0.0074098 1113.0 0.18962 0.00066731 1498.6 384.21 408.63 3.4226 0.85346 1.0420 172.68 2.0294 3.5358 0.0040564
-142.62 0.0027820 4.8951e-07 -109.27 -109.27 -0.57593 687.16 0.0014553 -109.27 -109.27 -0.57593 1.3343 1.9728 1830.2 -0.0073988 1080.8 0.18909 0.00077939 1283.1 385.07 409.68 3.3999 0.85679 1.0454 173.28 1.9896 3.5633 0.0041164
-141.62 0.0032653 5.6824e-07 -107.30 -107.30 -0.56087 686.15 0.0014574 -107.30 -107.30 -0.56087 1.3343 1.9744 1823.5 -0.0073878 1050.1 0.18856 0.00090784 1101.5 385.93 410.72 3.3777 0.86011 1.0487 173.88 1.9508 3.5908 0.0041766
-140.62 0.0038222 6.5788e-07 -105.32 -105.32 -0.54591 685.14 0.0014596 -105.32 -105.32 -0.54591 1.3344 1.9760 1816.7 -0.0073765 1020.7 0.18803 0.0010547 948.16 386.79 411.77 3.3560 0.86341 1.0520 174.48 1.9133 3.6183 0.0042372
-139.62 0.0044623 7.5968e-07 -103.34 -103.34 -0.53104 684.13 0.0014617 -103.34 -103.34 -0.53105 1.3344 1.9776 1810.0 -0.0073651 992.74 0.18749 0.0012221 818.26 387.65 412.83 3.3347 0.86670 1.0553 175.08 1.8768 3.6459 0.0042980
-138.62 0.0051963 8.7501e-07 -101.37 -101.37 -0.51628 683.12 0.0014639 -101.37 -101.37 -0.51629 1.3345 1.9792 1803.3 -0.0073536 965.97 0.18695 0.0014125 707.94 388.52 413.88 3.3139 0.86998 1.0586 175.67 1.8413 3.6734 0.0043592
-137.62 0.0060358 1.0054e-06 -99.386 -99.386 -0.50162 682.11 0.0014660 -99.386 -99.386 -0.50162 1.3346 1.9808 1796.6 -0.0073419 940.35 0.18641 0.0016287 614.00 389.39 414.94 3.2935 0.87325 1.0619 176.26 1.8069 3.7009 0.0044206
-136.62 0.0069938 1.1523e-06 -97.404 -97.404 -0.48705 681.10 0.0014682 -97.404 -97.404 -0.48705 1.3347 1.9825 1789.9 -0.0073301 915.81 0.18586 0.0018733 533.80 390.26 416.00 3.2735 0.87650 1.0651 176.85 1.7734 3.7284 0.0044823
-135.62 0.0080843 1.3177e-06 -95.421 -95.420 -0.47257 680.09 0.0014704 -95.421 -95.421 -0.47258 1.3348 1.9841 1783.2 -0.0073180 892.30 0.18531 0.0021497 465.17 391.14 417.07 3.2540 0.87975 1.0684 177.44 1.7409 3.7559 0.0045443
-134.62 0.0093230 1.5032e-06 -93.435 -93.435 -0.45819 679.08 0.0014726 -93.436 -93.436 -0.45820 1.3350 1.9858 1776.5 -0.0073059 869.75 0.18476 0.0024613 406.30 392.02 418.14 3.2348 0.88299 1.0716 178.02 1.7093 3.7834 0.0046066
-133.62 0.010727 1.7110e-06 -91.449 -91.449 -0.44390 678.07 0.0014748 -91.450 -91.449 -0.44391 1.3351 1.9875 1769.8 -0.0072935 848.11 0.18421 0.0028116 355.67 392.91 419.21 3.2161 0.88622 1.0749 178.61 1.6786 3.8109 0.0046691
-132.62 0.012315 1.9433e-06 -89.460 -89.460 -0.42970 677.06 0.0014770 -89.461 -89.461 -0.42971 1.3353 1.9892 1763.1 -0.0072810 827.32 0.18365 0.0032049 312.03 393.79 420.29 3.1977 0.88944 1.0781 179.19 1.6488 3.8385 0.0047320
-131.62 0.014106 2.2023e-06 -87.470 -87.470 -0.41559 676.04 0.0014792 -87.471 -87.471 -0.41560 1.3354 1.9909 1756.4 -0.0072684 807.34 0.18309 0.0036453 274.33 394.68 421.36 3.1798 0.89266 1.0813 179.76 1.6197 3.8660 0.0047951
-130.62 0.016124 2.4905e-06 -85.478 -85.478 -0.40156 675.03 0.0014814 -85.479 -85.479 -0.40157 1.3356 1.9926 1749.7 -0.0072555 788.12 0.18253 0.0041375 241.69 395.58 422.44 3.1622 0.89586 1.0846 180.34 1.5915 3.8935 0.0048586
-129.62 0.018392 2.8106e-06 -83.485 -83.484 -0.38762 674.02 0.0014836 -83.486 -83.486 -0.38763 1.3358 1.9944 1743.0 -0.0072425 769.63 0.18196 0.0046867 213.37 396.47 423.53 3.1450 0.89906 1.0878 180.91 1.5641 3.9210 0.0049223
-128.62 0.020935 3.1655e-06 -81.489 -81.489 -0.37377 673.01 0.0014859 -81.491 -81.490 -0.37378 1.3360 1.9961 1736.3 -0.0072294 751.83 0.18140 0.0052981 188.75 397.37 424.62 3.1281 0.90226 1.0910 181.48 1.5374 3.9485 0.0049863
-127.62 0.023783 3.5581e-06 -79.492 -79.492 -0.36000 672.00 0.0014881 -79.494 -79.493 -0.36001 1.3363 1.9979 1729.6 -0.0072160 734.67 0.18083 0.0059776 167.29 398.27 425.71 3.1116 0.90545 1.0942 182.05 1.5114 3.9760 0.0050506
-126.62 0.026966 3.9916e-06 -77.493 -77.493 -0.34631 670.98 0.0014904 -77.495 -77.495 -0.34632 1.3365 1.9997 1722.9 -0.0072025 718.14 0.18025 0.0067313 148.56 399.18 426.80 3.0954 0.90863 1.0974 182.62 1.4861 4.0035 0.0051152
-125.62 0.030515 4.4695e-06 -75.492 -75.492 -0.33270 669.97 0.0014926 -75.494 -75.494 -0.33272 1.3368 2.0015 1716.2 -0.0071888 702.18 0.17968 0.0075660 132.17 400.09 427.89 3.0795 0.91181 1.1006 183.18 1.4615 4.0310 0.0051800
-124.62 0.034467 4.9952e-06 -73.490 -73.489 -0.31917 668.95 0.0014949 -73.492 -73.492 -0.31919 1.3371 2.0033 1709.5 -0.0071749 686.79 0.17910 0.0084885 117.81 401.00 428.99 3.0640 0.91499 1.1038 183.74 1.4375 4.0584 0.0052452
-123.62 0.038859 5.5727e-06 -71.485 -71.484 -0.30572 667.94 0.0014971 -71.488 -71.487 -0.30574 1.3374 2.0051 1702.8 -0.0071609 671.93 0.17852 0.0095065 105.19 401.91 430.10 3.0488 0.91816 1.1070 184.30 1.4141 4.0859 0.0053106
-122.62 0.043731 6.2059e-06 -69.479 -69.478 -0.29235 666.92 0.0014994 -69.482 -69.481 -0.29237 1.3377 2.0070 1696.2 -0.0071466 657.57 0.17794 0.010628 94.092 402.83 431.20 3.0339 0.92134 1.1102 184.86 1.3913 4.1134 0.0053764
-121.62 0.049128 6.8989e-06 -67.470 -67.470 -0.27905 665.91 0.0015017 -67.474 -67.473 -0.27907 1.3380 2.0089 1689.5 -0.0071322 643.70 0.17736 0.011861 84.309 403.75 432.31 3.0193 0.92451 1.1134 185.41 1.3691 4.1409 0.0054424
-120.62 0.055096 7.6562e-06 -65.460 -65.460 -0.26583 664.89 0.0015040 -65.464 -65.463 -0.26585 1.3384 2.0107 1682.8 -0.0071176 630.28 0.17678 0.013215 75.669 404.67 433.42 3.0050 0.92767 1.1166 185.96 1.3475 4.1683 0.0055087
-119.62 0.061684 8.4825e-06 -63.448 -63.447 -0.25268 663.87 0.0015063 -63.452 -63.452 -0.25271 1.3387 2.0126 1676.1 -0.0071028 617.30 0.17619 0.014700 68.027 405.60 434.53 2.9909 0.93084 1.1198 186.51 1.3264 4.1958 0.0055752
-118.62 0.068946 9.3825e-06 -61.434 -61.433 -0.23960 662.86 0.0015086 -61.439 -61.438 -0.23963 1.3391 2.0146 1669.4 -0.0070878 604.74 0.17560 0.016325 61.255 406.53 435.64 2.9772 0.93401 1.1231 187.06 1.3058 4.2233 0.0056421
-117.62 0.076937 1.0361e-05 -59.418 -59.417 -0.22660 661.84 0.0015109 -59.423 -59.422 -0.22663 1.3395 2.0165 1662.8 -0.0070726 592.58 0.17501 0.018101 55.245 407.46 436.76 2.9638 0.93718 1.1263 187.60 1.2857 4.2507 0.0057092
-116.62 0.085718 1.1424e-05 -57.400 -57.399 -0.21367 660.82 0.0015133 -57.406 -57.405 -0.21370 1.3400 2.0184 1656.1 -0.0070573 580.80 0.17442 0.020040 49.901 408.39 437.88 2.9506 0.94035 1.1295 188.14 1.2660 4.2782 0.0057767
-115.62 0.095353 1.2577e-05 -55.380 -55.379 -0.20080 659.80 0.0015156 -55.386 -55.385 -0.20084 1.3404 2.0204 1649.4 -0.0070417 569.38 0.17383 0.022152 45.142 409.33 439.01 2.9377 0.94352 1.1327 188.68 1.2468 4.3056 0.0058444
-114.62 0.10591 1.3824e-05 -53.359 -53.357 -0.18801 658.78 0.0015180 -53.365 -53.364 -0.18805 1.3409 2.0224 1642.7 -0.0070260 558.32 0.17323 0.024451 40.898 410.27 440.13 2.9250 0.94669 1.1360 189.22 1.2281 4.3330 0.0059123
-113.62 0.11746 1.5174e-05 -51.335 -51.333 -0.17528 657.76 0.0015203 -51.342 -51.340 -0.17533 1.3413 2.0244 1636.0 -0.0070100 547.59 0.17264 0.026949 37.107 411.21 441.26 2.9126 0.94987 1.1392 189.75 1.2097 4.3604 0.0059806
-112.62 0.13008 1.6630e-05 -49.308 -49.307 -0.16262 656.73 0.0015227 -49.316 -49.315 -0.16267 1.3418 2.0264 1629.3 -0.0069938 537.18 0.17204 0.029661 33.715 412.16 442.39 2.9005 0.95305 1.1424 190.28 1.1918 4.3879 0.0060491
-111.62 0.14384 1.8200e-05 -47.280 -47.278 -0.15002 655.71 0.0015251 -47.289 -47.287 -0.15008 1.3424 2.0285 1622.7 -0.0069774 527.08 0.17144 0.032600 30.675 413.10 443.53 2.8885 0.95623 1.1457 190.81 1.1742 4.4153 0.0061180
-110.62 0.15884 1.9891e-05 -45.250 -45.248 -0.13749 654.69 0.0015274 -45.259 -45.258 -0.13755 1.3429 2.0305 1616.0 -0.0069609 517.28 0.17084 0.035781 27.948 414.06 444.66 2.8769 0.95942 1.1490 191.34 1.1570 4.4427 0.0061871
-109.62 0.17516 2.1709e-05 -43.218 -43.215 -0.12503 653.66 0.0015298 -43.228 -43.226 -0.12509 1.3435 2.0326 1609.3 -0.0069441 507.76 0.17024 0.039220 25.497 415.01 445.80 2.8654 0.96261 1.1522 191.86 1.1402 4.4701 0.0062564
-108.62 0.19290 2.3661e-05 -41.183 -41.181 -0.11262 652.64 0.0015322 -41.194 -41.192 -0.11269 1.3441 2.0347 1602.6 -0.0069271 498.51 0.16964 0.042933 23.292 415.96 446.94 2.8542 0.96581 1.1555 192.38 1.1236 4.4974 0.0063261
-107.62 0.21215 2.5755e-05 -39.147 -39.144 -0.10028 651.61 0.0015347 -39.158 -39.156 -0.10036 1.3447 2.0369 1595.9 -0.0069098 489.52 0.16903 0.046937 21.305 416.92 448.09 2.8433 0.96901 1.1588 192.90 1.1075 4.5248 0.0063960
-106.62 0.23301 2.7997e-05 -37.108 -37.104 -0.088001 650.58 0.0015371 -37.120 -37.118 -0.088082 1.3453 2.0390 1589.2 -0.0068924 480.79 0.16843 0.051250 19.512 417.88 449.23 2.8325 0.97222 1.1621 193.41 1.0916 4.5522 0.0064662
-105.62 0.25561 3.0397e-05 -35.067 -35.063 -0.075780 649.55 0.0015395 -35.080 -35.078 -0.075868 1.3460 2.0412 1582.6 -0.0068747 472.30 0.16782 0.055891 17.892 418.85 450.38 2.8220 0.97544 1.1655 193.93 1.0760 4.5795 0.0065367
-104.62 0.28004 3.2960e-05 -33.023 -33.019 -0.063619 648.52 0.0015420 -33.038 -33.035 -0.063714 1.3467 2.0434 1575.9 -0.0068569 464.04 0.16721 0.060878 16.426 419.81 451.53 2.8116 0.97867 1.1688 194.44 1.0608 4.6069 0.0066074
-103.62 0.30643 3.5696e-05 -30.978 -30.973 -0.051517 647.49 0.0015444 -30.994 -30.991 -0.051619 1.3474 2.0456 1569.2 -0.0068387 456.00 0.16660 0.066231 15.099 420.78 452.68 2.8015 0.98191 1.1722 194.94 1.0458 4.6342 0.0066785
-102.62 0.33490 3.8613e-05 -28.930 -28.925 -0.039472 646.46 0.0015469 -28.947 -28.944 -0.039582 1.3481 2.0478 1562.5 -0.0068204 448.18 0.16600 0.071971 13.894 421.75 453.84 2.7916 0.98516 1.1755 195.44 1.0310 4.6615 0.0067498
-101.62 0.36558 4.1718e-05 -26.880 -26.874 -0.027484 645.43 0.0015494 -26.898 -26.894 -0.027602 1.3489 2.0501 1555.8 -0.0068018 440.57 0.16539 0.078120 12.801 422.73 454.99 2.7818 0.98841 1.1789 195.95 1.0166 4.6888 0.0068213
-100.62 0.39862 4.5022e-05 -24.827 -24.821 -0.015553 644.39 0.0015519 -24.847 -24.843 -0.015678 1.3497 2.0524 1549.1 -0.0067830 433.16 0.16478 0.084699 11.807 423.70 456.15 2.7723 0.99168 1.1823 196.44 1.0024 4.7161 0.0068932
-99.625 0.43414 4.8531e-05 -22.772 -22.766 -0.0036760 643.36 0.0015544 -22.794 -22.789 -0.0038103 1.3505 2.0547 1542.4 -0.0067639 425.95 0.16416 0.091731 10.901 424.68 457.31 2.7630 0.99496 1.1858 196.94 0.98838 4.7434 0.0069653
-98.625 0.47230 5.2255e-05 -20.715 -20.708 0.0081462 642.32 0.0015569 -20.738 -20.733 0.0080027 1.3514 2.0570 1535.7 -0.0067447 418.92 0.16355 0.099240 10.077 425.66 458.48 2.7538 0.99825 1.1892 197.43 0.97464 4.7707 0.0070377
-97.625 0.51325 5.6204e-05 -18.655 -18.648 0.019915 641.28 0.0015594 -18.680 -18.674 0.019762 1.3522 2.0594 1529.0 -0.0067251 412.07 0.16294 0.10725 9.3239 426.65 459.64 2.7448 1.0016 1.1927 197.92 0.96112 4.7979 0.0071103
-96.625 0.55714 6.0385e-05 -16.593 -16.585 0.031630 640.24 0.0015619 -16.620 -16.614 0.031467 1.3531 2.0618 1522.3 -0.0067053 405.39 0.16233 0.11579 8.6365 427.63 460.81 2.7360 1.0049 1.1962 198.40 0.94783 4.8251 0.0071832
-95.625 0.60416 6.4809e-05 -14.528 -14.519 0.043294 639.20 0.0015645 -14.557 -14.550 0.043120 1.3540 2.0642 1515.7 -0.0066853 398.88 0.16171 0.12488 8.0078 428.62 461.98 2.7274 1.0082 1.1997 198.88 0.93475 4.8524 0.0072564
-94.625 0.65446 6.9485e-05 -12.461 -12.451 0.054906 638.16 0.0015670 -12.491 -12.484 0.054721 1.3550 2.0667 1509.0 -0.0066650 392.53 0.16110 0.13455 7.4323 429.61 463.15 2.7189 1.0116 1.2032 199.36 0.92188 4.8796 0.0073299
-93.625 0.70822 7.4421e-05 -10.391 -10.381 0.066468 637.12 0.0015696 -10.424 -10.416 0.066271 1.3560 2.0691 1502.3 -0.0066444 386.34 0.16048 0.14482 6.9050 430.60 464.32 2.7107 1.0149 1.2068 199.83 0.90921 4.9068 0.0074036
-92.625 0.76564 7.9628e-05 -8.3185 -8.3075 0.077980 636.07 0.0015722 -8.3535 -8.3452 0.077771 1.3570 2.0716 1495.6 -0.0066236 380.31 0.15987 0.15573 6.4212 431.60 465.49 2.7025 1.0183 1.2104 200.30 0.89673 4.9340 0.0074776
-91.625 0.82689 8.5115e-05 -6.2435 -6.2316 0.089442 635.02 0.0015747 -6.2808 -6.2719 0.089220 1.3580 2.0742 1488.9 -0.0066025 374.41 0.15925 0.16731 5.9769 432.59 466.67 2.6946 1.0217 1.2140 200.77 0.88445 4.9611 0.0075518
-90.625 0.89218 9.0892e-05 -4.1658 -4.1530 0.10086 633.98 0.0015773 -4.2056 -4.1959 0.10062 1.3591 2.0767 1482.2 -0.0065811 368.66 0.15864 0.17958 5.5685 433.59 467.84 2.6868 1.0251 1.2177 201.24 0.87236 4.9883 0.0076263
-89.625 0.96172 9.6968e-05 -2.0855 -2.0717 0.11222 632.93 0.0015800 -2.1279 -2.1174 0.11197 1.3602 2.0793 1475.5 -0.0065595 363.05 0.15802 0.19258 5.1928 434.59 469.02 2.6791 1.0285 1.2213 201.70 0.86045 5.0154 0.0077011
-88.625 1.0357 0.00010335 -0.0024917 0.012385 0.12354 631.88 0.0015826 -0.047516 -0.036215 0.12328 1.3613 2.0819 1468.8 -0.0065375 357.56 0.15740 0.20633 4.8466 435.59 470.20 2.6717 1.0320 1.2250 202.15 0.84873 5.0425 0.0077761
-87.625 1.1144 0.00011006 2.0833 2.0993 0.13481 630.83 0.0015852 2.0355 2.0476 0.13454 1.3625 2.0846 1462.1 -0.0065153 352.21 0.15679 0.22087 4.5276 436.60 471.39 2.6643 1.0354 1.2288 202.61 0.83718 5.0696 0.0078514
-86.625 1.1979 0.00011709 4.1718 4.1890 0.14604 629.77 0.0015879 4.1211 4.1342 0.14575 1.3637 2.0873 1455.4 -0.0064928 346.98 0.15617 0.23623 4.2331 437.61 472.57 2.6571 1.0389 1.2325 203.06 0.82580 5.0967 0.0079270
-85.625 1.2866 0.00012446 6.2632 6.2817 0.15722 628.72 0.0015905 6.2094 6.2235 0.15691 1.3649 2.0900 1448.8 -0.0064701 341.87 0.15555 0.25245 3.9612 438.61 473.75 2.6501 1.0424 1.2363 203.50 0.81460 5.1237 0.0080028
-84.625 1.3806 0.00013217 8.3574 8.3772 0.16836 627.66 0.0015932 8.3004 8.3155 0.16803 1.3661 2.0927 1442.1 -0.0064470 336.87 0.15494 0.26956 3.7097 439.63 474.94 2.6432 1.0460 1.2402 203.95 0.80356 5.1508 0.0080789
-83.625 1.4803 0.00014025 10.454 10.476 0.17946 626.60 0.0015959 10.394 10.410 0.17911 1.3674 2.0955 1435.4 -0.0064236 331.99 0.15432 0.28760 3.4771 440.64 476.13 2.6364 1.0495 1.2440 204.38 0.79269 5.1778 0.0081553
-82.625 1.5858 0.00014869 12.554 12.577 0.19051 625.54 0.0015986 12.491 12.508 0.19014 1.3687 2.0983 1428.7 -0.0063999 327.22 0.15370 0.30659 3.2616 441.65 477.31 2.6298 1.0531 1.2479 204.82 0.78199 5.2048 0.0082319
-81.625 1.6975 0.00015750 14.657 14.682 0.20152 624.48 0.0016013 14.590 14.609 0.20113 1.3700 2.1012 1422.0 -0.0063759 322.55 0.15309 0.32659 3.0619 442.67 478.50 2.6233 1.0567 1.2519 205.25 0.77144 5.2318 0.0083088
-80.625 1.8155 0.00016670 16.763 16.789 0.21248 623.42 0.0016041 16.692 16.712 0.21208 1.3714 2.1041 1415.4 -0.0063516 317.99 0.15247 0.34763 2.8766 443.69 479.70 2.6169 1.0603 1.2558 205.67 0.76106 5.2587 0.0083860
-79.625 1.9402 0.00017630 18.872 18.900 0.22341 622.36 0.0016068 18.797 18.819 0.22299 1.3728 2.1070 1408.7 -0.0063270 313.52 0.15186 0.36974 2.7046 444.71 480.89 2.6106 1.0639 1.2598 206.10 0.75083 5.2857 0.0084634
-78.625 2.0718 0.00018630 20.984 21.014 0.23429 621.29 0.0016096 20.905 20.928 0.23385 1.3742 2.1099 1402.0 -0.0063021 309.15 0.15124 0.39296 2.5448 445.73 482.08 2.6045 1.0676 1.2639 206.51 0.74076 5.3126 0.0085411
-77.625 2.2107 0.00019671 23.099 23.131 0.24514 620.22 0.0016123 23.016 23.040 0.24468 1.3757 2.1129 1395.3 -0.0062768 304.88 0.15062 0.41735 2.3961 446.75 483.27 2.5985 1.0712 1.2680 206.93 0.73084 5.3395 0.0086190
-76.625 2.3571 0.00020753 25.217 25.251 0.25594 619.15 0.0016151 25.130 25.156 0.25546 1.3772 2.1159 1388.7 -0.0062512 300.69 0.15001 0.44292 2.2577 447.78 484.47 2.5926 1.0749 1.2721 207.34 0.72107 5.3664 0.0086972
-75.625 2.5113 0.00021879 27.339 27.375 0.26671 618.08 0.0016179 27.247 27.275 0.26620 1.3787 2.1190 1382.0 -0.0062253 296.59 0.14939 0.46974 2.1288 448.81 485.67 2.5869 1.0787 1.2762 207.74 0.71146 5.3933 0.0087757
-74.625 2.6736 0.00023049 29.463 29.502 0.27744 617.01 0.0016207 29.366 29.396 0.27691 1.3802 2.1221 1375.4 -0.0061990 292.58 0.14878 0.49783 2.0087 449.83 486.86 2.5812 1.0824 1.2804 208.14 0.70200 5.4201 0.0088544
-73.625 2.8444 0.00024263 31.591 31.632 0.28813 615.93 0.0016236 31.489 31.521 0.28758 1.3818 2.1252 1368.7 -0.0061724 288.65 0.14816 0.52725 1.8966 450.86 488.06 2.5757 1.0862 1.2847 208.54 0.69268 5.4469 0.0089334
-72.625 3.0240 0.00025522 33.722 33.766 0.29879 614.85 0.0016264 33.615 33.649 0.29821 1.3834 2.1284 1362.0 -0.0061454 284.81 0.14755 0.55804 1.7920 451.90 489.26 2.5703 1.0900 1.2889 208.93 0.68351 5.4737 0.0090126
-71.625 3.2127 0.00026827 35.857 35.903 0.30940 613.78 0.0016293 35.745 35.781 0.30880 1.3851 2.1316 1355.4 -0.0061181 281.03 0.14694 0.59024 1.6942 452.93 490.46 2.5650 1.0938 1.2932 209.32 0.67448 5.5005 0.0090922
-70.625 3.4108 0.00028179 37.994 38.043 0.31998 612.69 0.0016321 37.877 37.915 0.31935 1.3867 2.1349 1348.7 -0.0060904 277.34 0.14632 0.62390 1.6028 453.96 491.66 2.5598 1.0976 1.2976 209.70 0.66560 5.5273 0.0091720
-69.625 3.6187 0.00029578 40.135 40.187 0.33053 611.61 0.0016350 40.013 40.053 0.32987 1.3884 2.1382 1342.1 -0.0060624 273.72 0.14571 0.65906 1.5173 455.00 492.86 2.5547 1.1015 1.3020 210.08 0.65687 5.5540 0.0092520
-68.625 3.8367 0.00031025 42.280 42.335 0.34104 610.53 0.0016379 42.152 42.195 0.34036 1.3902 2.1415 1335.5 -0.0060339 270.17 0.14510 0.69577 1.4372 456.04 494.06 2.5497 1.1054 1.3064 210.45 0.64827 5.5807 0.0093324
-67.625 4.0652 0.00032521 44.428 44.486 0.35152 609.44 0.0016409 44.294 44.340 0.35080 1.3919 2.1449 1328.8 -0.0060051 266.69 0.14449 0.73408 1.3622 457.08 495.26 2.5448 1.1093 1.3109 210.82 0.63981 5.6074 0.0094130
-66.625 4.3046 0.00034066 46.579 46.641 0.36196 608.35 0.0016438 46.439 46.488 0.36122 1.3937 2.1483 1322.2 -0.0059760 263.28 0.14388 0.77404 1.2919 458.12 496.46 2.5400 1.1133 1.3154 211.18 0.63150 5.6341 0.0094939
-65.625 4.5551 0.00035660 48.735 48.800 0.37237 607.26 0.0016467 48.588 48.640 0.37160 1.3955 2.1518 1315.6 -0.0059464 259.93 0.14327 0.81570 1.2259 459.16 497.67 2.5353 1.1172 1.3200 211.54 0.62332 5.6608 0.0095750
-64.625 4.8173 0.00037305 50.893 50.962 0.38275 606.16 0.0016497 50.740 50.795 0.38195 1.3974 2.1553 1308.9 -0.0059164 256.65 0.14266 0.85910 1.1640 460.21 498.87 2.5307 1.1212 1.3246 211.89 0.61527 5.6874 0.0096564
-63.625 5.0915 0.00039000 53.055 53.129 0.39309 605.07 0.0016527 52.896 52.954 0.39226 1.3993 2.1588 1302.3 -0.0058861 253.42 0.14205 0.90429 1.1058 461.25 500.07 2.5262 1.1252 1.3293 212.24 0.60736 5.7140 0.0097382
-62.625 5.3781 0.00040746 55.221 55.299 0.40341 603.97 0.0016557 55.055 55.117 0.40254 1.4012 2.1624 1295.7 -0.0058553 250.26 0.14144 0.95134 1.0511 462.30 501.28 2.5218 1.1293 1.3340 212.58 0.59958 5.7406 0.0098201
-61.625 5.6774 0.00042543 57.391 57.473 0.41369 602.87 0.0016587 57.218 57.283 0.41279 1.4031 2.1660 1289.1 -0.0058241 247.16 0.14084 1.0003 0.99972 463.35 502.48 2.5175 1.1333 1.3387 212.92 0.59194 5.7672 0.0099024
-60.625 5.9899 0.00044391 59.564 59.650 0.42394 601.77 0.0016618 59.385 59.453 0.42301 1.4051 2.1697 1282.5 -0.0057925 244.12 0.14023 1.0512 0.95131 464.40 503.68 2.5133 1.1374 1.3435 213.26 0.58442 5.7938 0.0099850
-59.625 6.3160 0.00046292 61.741 61.832 0.43416 600.66 0.0016648 61.554 61.627 0.43320 1.4071 2.1734 1275.9 -0.0057605 241.13 0.13962 1.1041 0.90573 465.45 504.89 2.5091 1.1415 1.3483 213.58 0.57704 5.8203 0.010068
-58.625 6.6561 0.00048244 63.922 64.018 0.44435 599.55 0.0016679 63.728 63.805 0.44335 1.4091 2.1772 1269.3 -0.0057280 238.19 0.13902 1.1591 0.86277 466.50 506.09 2.5051 1.1457 1.3532 213.90 0.56978 5.8468 0.010151
-57.625 7.0107 0.00050248 66.107 66.208 0.45451 598.44 0.0016710 65.905 65.986 0.45348 1.4111 2.1810 1262.7 -0.0056951 235.31 0.13842 1.2161 0.82228 467.55 507.30 2.5011 1.1498 1.3581 214.22 0.56265 5.8733 0.010234
-56.625 7.3801 0.00052303 68.296 68.402 0.46464 597.33 0.0016741 68.086 68.172 0.46358 1.4132 2.1848 1256.1 -0.0056617 232.48 0.13781 1.2754 0.78408 468.60 508.50 2.4972 1.1540 1.3631 214.53 0.55564 5.8998 0.010318
-55.625 7.7648 0.00054411 70.489 70.600 0.47474 596.22 0.0016772 70.271 70.361 0.47364 1.4153 2.1887 1249.5 -0.0056279 229.69 0.13721 1.3369 0.74802 469.66 509.71 2.4934 1.1582 1.3681 214.84 0.54875 5.9263 0.010402
-54.625 8.1652 0.00056571 72.685 72.802 0.48482 595.10 0.0016804 72.460 72.554 0.48368 1.4174 2.1927 1242.9 -0.0055937 226.96 0.13661 1.4006 0.71396 470.72 510.91 2.4897 1.1624 1.3731 215.14 0.54199 5.9527 0.010486
-53.625 8.5819 0.00058782 74.886 75.009 0.49487 593.98 0.0016836 74.652 74.752 0.49369 1.4196 2.1967 1236.3 -0.0055589 224.27 0.13601 1.4667 0.68178 471.77 512.11 2.4860 1.1667 1.3782 215.43 0.53535 5.9792 0.010571
-52.625 9.0151 0.00061044 77.090 77.220 0.50489 592.86 0.0016867 76.849 76.954 0.50368 1.4218 2.2007 1229.8 -0.0055237 221.63 0.13541 1.5353 0.65136 472.83 513.32 2.4824 1.1710 1.3834 215.72 0.52882 6.0056 0.010656
-51.625 9.4655 0.00063357 79.299 79.435 0.51488 591.73 0.0016900 79.049 79.159 0.51363 1.4240 2.2048 1223.2 -0.0054880 219.04 0.13482 1.6062 0.62258 473.89 514.52 2.4789 1.1752 1.3886 216.00 0.52241 6.0320 0.010741
-50.625 9.9335 0.00065721 81.512 81.655 0.52485 590.60 0.0016932 81.253 81.369 0.52356 1.4262 2.2089 1216.6 -0.0054519 216.48 0.13422 1.6797 0.59534 474.95 515.73 2.4755 1.1796 1.3938 216.28 0.51612 6.0584 0.010827
-49.625 10.419 0.00068135 83.729 83.879 0.53479 589.47 0.0016964 83.462 83.584 0.53347 1.4285 2.2131 1210.1 -0.0054152 213.98 0.13363 1.7558 0.56954 476.01 516.93 2.4722 1.1839 1.3991 216.55 0.50994 6.0848 0.010913
-48.625 10.924 0.00070598 85.950 86.107 0.54470 588.34 0.0016997 85.674 85.802 0.54334 1.4308 2.2173 1203.5 -0.0053780 211.51 0.13303 1.8345 0.54510 477.07 518.13 2.4689 1.1883 1.4044 216.82 0.50387 6.1112 0.010999
-47.625 11.448 0.00073109 88.176 88.340 0.55459 587.20 0.0017030 87.891 88.025 0.55319 1.4331 2.2216 1196.9 -0.0053403 209.08 0.13244 1.9159 0.52194 478.14 519.33 2.4657 1.1927 1.4098 217.08 0.49792 6.1375 0.011085
-46.625 11.991 0.00075669 90.406 90.578 0.56446 586.06 0.0017063 90.111 90.252 0.56302 1.4354 2.2259 1190.4 -0.0053020 206.69 0.13185 2.0001 0.49997 479.20 520.53 2.4625 1.1971 1.4153 217.33 0.49207 6.1639 0.011172
-45.625 12.554 0.00078276 92.640 92.820 0.57430 584.92 0.0017096 92.336 92.484 0.57282 1.4378 2.2303 1183.8 -0.0052633 204.34 0.13126 2.0872 0.47912 480.27 521.74 2.4594 1.2015 1.4207 217.58 0.48633 6.1902 0.011259
-44.625 13.137 0.00080928 94.878 95.067 0.58411 583.77 0.0017130 94.565 94.720 0.58260 1.4402 2.2347 1177.3 -0.0052240 202.03 0.13067 2.1771 0.45933 481.33 522.94 2.4564 1.2060 1.4263 217.82 0.48069 6.2165 0.011347
-43.625 13.741 0.00083626 97.121 97.318 0.59391 582.62 0.0017164 96.799 96.961 0.59235 1.4426 2.2392 1170.7 -0.0051841 199.75 0.13008 2.2700 0.44053 482.40 524.14 2.4535 1.2104 1.4319 218.05 0.47516 6.2429 0.011435
-42.625 14.367 0.00086367 99.368 99.575 0.60368 581.47 0.0017198 99.036 99.207 0.60208 1.4450 2.2437 1164.2 -0.0051437 197.51 0.12949 2.3659 0.42267 483.46 525.33 2.4506 1.2149 1.4375 218.28 0.46973 6.2692 0.011523
-41.625 15.015 0.00089151 101.62 101.84 0.61342 580.32 0.0017232 101.28 101.46 0.61179 1.4475 2.2483 1157.7 -0.0051027 195.30 0.12891 2.4649 0.40569 484.53 526.53 2.4478 1.2195 1.4432 218.50 0.46440 6.2955 0.011612
-40.625 15.686 0.00091975 103.88 104.10 0.62315 579.16 0.0017266 103.52 103.71 0.62147 1.4500 2.2529 1151.1 -0.0050611 193.13 0.12832 2.5671 0.38954 485.60 527.73 2.4450 1.2240 1.4489 218.72 0.45917 6.3218 0.011701
-39.625 16.380 0.00094839 106.14 106.37 0.63285 578.00 0.0017301 105.78 105.97 0.63113 1.4525 2.2576 1144.6 -0.0050189 190.99 0.12774 2.6725 0.37418 486.67 528.93 2.4423 1.2286 1.4547 218.93 0.45403 6.3481 0.011790
-38.625 17.097 0.00097740 108.40 108.65 0.64253 576.83 0.0017336 108.03 108.24 0.64077 1.4550 2.2623 1138.0 -0.0049761 188.88 0.12716 2.7813 0.35955 487.74 530.12 2.4397 1.2332 1.4606 219.13 0.44900 6.3744 0.011880
-37.625 17.838 0.0010068 110.67 110.93 0.65219 575.66 0.0017371 110.29 110.51 0.65039 1.4576 2.2671 1131.5 -0.0049327 186.81 0.12658 2.8934 0.34562 488.81 531.32 2.4371 1.2378 1.4665 219.33 0.44405 6.4007 0.011970
-36.625 18.604 0.0010365 112.95 113.21 0.66183 574.49 0.0017407 112.56 112.78 0.65999 1.4602 2.2719 1125.0 -0.0048887 184.76 0.12600 3.0089 0.33235 489.88 532.51 2.4346 1.2424 1.4724 219.52 0.43920 6.4270 0.012060
-35.625 19.395 0.0010665 115.23 115.51 0.67144 573.32 0.0017442 114.83 115.06 0.66956 1.4628 2.2768 1118.5 -0.0048440 182.75 0.12542 3.1280 0.31969 490.95 533.70 2.4321 1.2471 1.4784 219.70 0.43444 6.4533 0.012151
-34.625 20.212 0.0010968 117.51 117.80 0.68104 572.14 0.0017478 117.10 117.34 0.67912 1.4654 2.2818 1111.9 -0.0047987 180.76 0.12485 3.2506 0.30763 492.02 534.89 2.4297 1.2517 1.4845 219.88 0.42977 6.4797 0.012243
-33.625 21.056 0.0011274 119.80 120.10 0.69061 570.96 0.0017514 119.38 119.63 0.68865 1.4681 2.2868 1105.4 -0.0047527 178.80 0.12427 3.3770 0.29612 493.09 536.08 2.4273 1.2564 1.4906 220.05 0.42519 6.5060 0.012334
-32.625 21.926 0.0011583 122.09 122.41 0.70017 569.77 0.0017551 121.66 121.93 0.69817 1.4708 2.2918 1098.9 -0.0047061 176.87 0.12370 3.5071 0.28514 494.17 537.27 2.4250 1.2611 1.4968 220.21 0.42070 6.5323 0.012426
-31.625 22.823 0.0011894 124.39 124.72 0.70971 568.58 0.0017588 123.95 124.23 0.70767 1.4735 2.2970 1092.3 -0.0046587 174.97 0.12313 3.6410 0.27465 495.24 538.46 2.4227 1.2659 1.5031 220.36 0.41629 6.5587 0.012519
-30.625 23.749 0.0012206 126.69 127.04 0.71922 567.39 0.0017625 126.24 126.53 0.71714 1.4762 2.3021 1085.8 -0.0046107 173.09 0.12256 3.7787 0.26464 496.31 539.64 2.4205 1.2706 1.5094 220.51 0.41196 6.5850 0.012612
-29.625 24.703 0.0012520 129.00 129.36 0.72872 566.19 0.0017662 128.54 128.84 0.72660 1.4790 2.3074 1079.3 -0.0045619 171.24 0.12200 3.9205 0.25507 497.38 540.83 2.4184 1.2754 1.5157 220.65 0.40772 6.6114 0.012706
-28.625 25.687 0.0012836 131.32 131.69 0.73820 564.99 0.0017699 130.84 131.16 0.73604 1.4818 2.3126 1072.8 -0.0045124 169.42 0.12143 4.0663 0.24592 498.46 542.01 2.4162 1.2802 1.5222 220.79 0.40356 6.6378 0.012800
-27.625 26.700 0.0013152 133.63 134.02 0.74766 563.78 0.0017737 133.15 133.48 0.74547 1.4846 2.3180 1066.2 -0.0044621 167.62 0.12087 4.2163 0.23717 499.53 543.19 2.4142 1.2850 1.5286 220.91 0.39947 6.6642 0.012894
-26.625 27.743 0.0013469 135.96 136.36 0.75710 562.57 0.0017775 135.47 135.81 0.75487 1.4874 2.3234 1059.7 -0.0044111 165.84 0.12031 4.3705 0.22881 500.60 544.37 2.4122 1.2899 1.5352 221.03 0.39547 6.6906 0.012989
-25.625 28.817 0.0013786 138.29 138.70 0.76653 561.36 0.0017814 137.78 138.14 0.76426 1.4902 2.3289 1053.2 -0.0043593 164.09 0.11975 4.5290 0.22080 501.68 545.55 2.4102 1.2947 1.5418 221.14 0.39154 6.7171 0.013084
-24.625 29.923 0.0014103 140.62 141.05 0.77593 560.14 0.0017853 140.11 140.48 0.77363 1.4931 2.3344 1046.7 -0.0043067 162.36 0.11919 4.6918 0.21314 502.75 546.72 2.4083 1.2996 1.5485 221.25 0.38768 6.7436 0.013180
-23.625 31.061 0.0014419 142.96 143.40 0.78532 558.92 0.0017892 142.44 142.82 0.78298 1.4960 2.3400 1040.1 -0.0042533 160.65 0.11863 4.8592 0.20580 503.82 547.90 2.4064 1.3045 1.5552 221.35 0.38391 6.7701 0.013277
-22.625 32.232 0.0014735 145.30 145.76 0.79470 557.69 0.0017931 144.77 145.17 0.79232 1.4990 2.3457 1033.6 -0.0041990 158.97 0.11807 5.0311 0.19877 504.90 549.07 2.4045 1.3095 1.5621 221.44 0.38020 6.7967 0.013374
-21.625 33.435 0.0015048 147.65 148.13 0.80405 556.46 0.0017971 147.11 147.52 0.80164 1.5019 2.3514 1027.1 -0.0041439 157.30 0.11752 5.2076 0.19203 505.97 550.24 2.4027 1.3144 1.5690 221.52 0.37656 6.8232 0.013471
-20.625 34.673 0.0015360 150.00 150.50 0.81339 555.23 0.0018011 149.45 149.88 0.81095 1.5049 2.3572 1020.6 -0.0040879 155.66 0.11697 5.3889 0.18557 507.04 551.40 2.4010 1.3194 1.5759 221.59 0.37300 6.8499 0.013569
-19.625 35.946 0.0015669 152.36 152.88 0.82272 553.99 0.0018051 151.80 152.25 0.82024 1.5079 2.3630 1014.0 -0.0040311 154.04 0.11642 5.5750 0.17937 508.11 552.57 2.3992 1.3244 1.5829 221.66 0.36950 6.8765 0.013668
-18.625 37.253 0.0015975 154.73 155.26 0.83202 552.74 0.0018092 154.16 154.62 0.82952 1.5109 2.3689 1007.5 -0.0039733 152.44 0.11587 5.7660 0.17343 509.19 553.73 2.3976 1.3294 1.5901 221.72 0.36608 6.9032 0.013767
-17.625 38.596 0.0016277 157.10 157.65 0.84132 551.49 0.0018133 156.52 157.00 0.83878 1.5140 2.3749 1001.0 -0.0039145 150.86 0.11532 5.9621 0.16773 510.26 554.89 2.3959 1.3345 1.5972 221.77 0.36272 6.9300 0.013867
-16.625 39.976 0.0016576 159.47 160.05 0.85059 550.24 0.0018174 158.89 159.39 0.84803 1.5171 2.3810 994.44 -0.0038549 149.29 0.11478 6.1632 0.16225 511.33 556.05 2.3943 1.3395 1.6045 221.81 0.35942 6.9568 0.013968
-15.625 41.392 0.0016869 161.85 162.45 0.85986 548.98 0.0018216 161.26 161.78 0.85726 1.5202 2.3871 987.91 -0.0037942 147.75 0.11423 6.3696 0.15700 512.40 557.20 2.3927 1.3446 1.6119 221.85 0.35619 6.9836 0.014069
-14.625 42.846 0.0017157 164.24 164.85 0.86910 547.71 0.0018258 163.64 164.18 0.86649 1.5233 2.3933 981.37 -0.0037325 146.22 0.11369 6.5812 0.15195 513.47 558.36 2.3912 1.3497 1.6193 221.87 0.35302 7.0105 0.014170
-13.625 44.338 0.0017438 166.63 167.27 0.87833 546.44 0.0018300 166.02 166.58 0.87569 1.5264 2.3996 974.83 -0.0036698 144.72 0.11315 6.7983 0.14710 514.54 559.51 2.3897 1.3549 1.6268 221.89 0.34992 7.0375 0.014273
-12.625 45.870 0.0017713 169.03 169.68 0.88755 545.17 0.0018343 168.41 168.99 0.88489 1.5296 2.4059 968.29 -0.0036061 143.23 0.11261 7.0208 0.14243 515.61 560.65 2.3883 1.3600 1.6344 221.90 0.34688 7.0646 0.014376
-11.625 47.440 0.0017980 171.43 172.11 0.89675 543.89 0.0018386 170.81 171.41 0.89407 1.5328 2.4124 961.75 -0.0035413 141.76 0.11208 7.2490 0.13795 516.68 561.80 2.3868 1.3652 1.6421 221.91 0.34389 7.0917 0.014479
-10.625 49.051 0.0018238 173.84 174.54 0.90594 542.60 0.0018430 173.21 173.83 0.90324 1.5360 2.4189 955.20 -0.0034753 140.30 0.11154 7.4829 0.13364 517.75 562.94 2.3854 1.3704 1.6498 221.90 0.34097 7.1188 0.014584
-9.6250 50.703 0.0018487 176.25 176.98 0.91512 541.31 0.0018474 175.61 176.26 0.91240 1.5393 2.4255 948.65 -0.0034082 138.86 0.11101 7.7226 0.12949 518.81 564.08 2.3841 1.3757 1.6577 221.88 0.33810 7.1461 0.014689
-8.6250 52.396 0.0018726 178.67 179.42 0.92428 540.02 0.0018518 178.03 178.70 0.92154 1.5426 2.4321 942.10 -0.0033400 137.44 0.11048 7.9683 0.12550 519.88 565.21 2.3827 1.3809 1.6657 221.86 0.33529 7.1734 0.014795
-7.6250 54.131 0.0018954 181.09 181.87 0.93343 538.72 0.0018563 180.45 181.14 0.93068 1.5459 2.4389 935.55 -0.0032705 136.03 0.10995 8.2200 0.12165 520.94 566.35 2.3814 1.3862 1.6737 221.83 0.33254 7.2008 0.014902
-6.6250 55.909 0.0019170 183.52 184.33 0.94257 537.41 0.0018608 182.87 183.59 0.93980 1.5492 2.4457 928.99 -0.0031998 134.64 0.10942 8.4779 0.11795 522.01 567.48 2.3801 1.3915 1.6819 221.79 0.32984 7.2284 0.015009
-5.6250 57.730 0.0019373 185.96 186.79 0.95169 536.10 0.0018653 185.30 186.05 0.94892 1.5525 2.4526 922.43 -0.0031279 133.27 0.10889 8.7420 0.11439 523.07 568.60 2.3789 1.3969 1.6902 221.74 0.32720 7.2560 0.015117
-4.6250 59.595 0.0019562 188.40 189.26 0.96080 534.78 0.0018699 187.74 188.51 0.95802 1.5559 2.4596 915.87 -0.0030546 131.91 0.10837 9.0126 0.11096 524.13 569.72 2.3777 1.4022 1.6985 221.68 0.32461 7.2837 0.015226
-3.6250 61.505 0.0019735 190.85 191.73 0.96990 533.45 0.0018746 190.19 190.98 0.96711 1.5593 2.4667 909.30 -0.0029800 130.56 0.10785 9.2896 0.10765 525.19 570.84 2.3765 1.4076 1.7070 221.62 0.32207 7.3115 0.015336
-2.6250 63.461 0.0019893 193.30 194.21 0.97898 532.12 0.0018793 192.64 193.46 0.97620 1.5627 2.4739 902.73 -0.0029041 129.23 0.10733 9.5733 0.10446 526.25 571.96 2.3753 1.4131 1.7156 221.54 0.31958 7.3394 0.015447
-1.6250 65.462 0.0020033 195.76 196.70 0.98806 530.78 0.0018840 195.10 195.95 0.98527 1.5662 2.4811 896.16 -0.0028267 127.91 0.10681 9.8638 0.10138 527.31 573.07 2.3742 1.4185 1.7243 221.45 0.31715 7.3674 0.015559
-0.62500 67.510 0.0020154 198.23 199.20 0.99712 529.44 0.0018888 197.56 198.44 0.99434 1.5696 2.4885 889.58 -0.0027478 126.61 0.10629 10.161 0.098414 528.37 574.18 2.3731 1.4240 1.7331 221.36 0.31476 7.3956 0.015671
0.37500 69.606 0.0020255 200.70 201.70 1.0062 528.09 0.0018936 200.03 200.94 1.0034 1.5731 2.4960 883.00 -0.0026675 125.32 0.10578 10.466 0.095552 529.42 575.28 2.3720 1.4295 1.7421 221.26 0.31242 7.4239 0.015785
1.3750 71.749 0.0020335 203.17 204.20 1.0152 526.73 0.0018985 202.51 203.45 1.0124 1.5767 2.5035 876.42 -0.0025856 124.04 0.10527 10.777 0.092790 530.48 576.38 2.3709 1.4350 1.7512 221.14 0.31013 7.4523 0.015899
2.3750 73.941 0.0020392 205.66 206.72 1.0242 525.37 0.0019034 204.99 205.96 1.0215 1.5802 2.5112 869.83 -0.0025022 122.78 0.10476 11.096 0.090123 531.53 577.47 2.3699 1.4406 1.7604 221.02 0.30789 7.4808 0.016015
3.3750 76.183 0.0020424 208.15 209.24 1.0333 523.99 0.0019084 207.48 208.48 1.0305 1.5838 2.5190 863.24 -0.0024171 121.53 0.10425 11.422 0.087549 532.58 578.56 2.3688 1.4462 1.7697 220.89 0.30569 7.5095 0.016131
4.3750 78.475 0.0020431 210.64 211.77 1.0423 522.62 0.0019134 209.98 211.01 1.0395 1.5874 2.5268 856.64 -0.0023303 120.29 0.10374 11.756 0.085062 533.63 579.65 2.3678 1.4518 1.7792 220.75 0.30354 7.5384 0.016249
5.3750 80.817 0.0020411 213.14 214.30 1.0513 521.23 0.0019185 212.48 213.55 1.0486 1.5910 2.5348 850.04 -0.0022417 119.06 0.10324 12.098 0.082660 534.67 580.73 2.3669 1.4575 1.7888 220.60 0.30144 7.5674 0.016368
6.3750 83.211 0.0020361 215.65 216.84 1.0602 519.84 0.0019237 215.00 216.10 1.0576 1.5946 2.5429 843.43 -0.0021514 117.85 0.10273 12.447 0.080340 535.72 581.81 2.3659 1.4632 1.7986 220.44 0.29938 7.5966 0.016487
7.3750 85.657 0.0020280 218.16 219.39 1.0692 518.44 0.0019289 217.51 218.65 1.0666 1.5983 2.5511 836.82 -0.0020593 116.65 0.10223 12.805 0.078096 536.76 582.88 2.3650 1.4689 1.8085 220.27 0.29736 7.6259 0.016608
8.3750 88.156 0.0020166 220.68 221.95 1.0782 517.03 0.0019341 220.04 221.22 1.0756 1.6020 2.5595 830.20 -0.0019652 115.46 0.10173 13.170 0.075928 537.80 583.95 2.3640 1.4746 1.8186 220.08 0.29538 7.6555 0.016730
9.3750 90.708 0.0020017 223.21 224.51 1.0871 515.62 0.0019394 222.57 223.79 1.0846 1.6057 2.5679 823.58 -0.0018691 114.28 0.10124 13.545 0.073830 538.84 585.01 2.3631 1.4804 1.8288 219.89 0.29345 7.6852 0.016853
10.375 93.315 0.0019832 225.74 227.08 1.0961 514.19 0.0019448 225.11 226.37 1.0936 1.6095 2.5765 816.96 -0.0017710 113.11 0.10074 13.927 0.071802 539.87 586.07 2.3622 1.4863 1.8392 219.69 0.29156 7.7151 0.016978
11.375 95.977 0.0019607 228.28 229.66 1.1050 512.76 0.0019502 227.66 228.95 1.1025 1.6132 2.5852 810.32 -0.0016708 111.95 0.10025 14.319 0.069840 540.90 587.12 2.3614 1.4921 1.8498 219.48 0.28971 7.7452 0.017103
12.375 98.694 0.0019341 230.82 232.24 1.1139 511.32 0.0019557 230.22 231.55 1.1115 1.6170 2.5940 803.68 -0.0015685 110.80 0.099756 14.719 0.067941 541.93 588.17 2.3605 1.4980 1.8605 219.26 0.28790 7.7756 0.017230
13.375 101.47 0.0019031 233.37 234.83 1.1229 509.87 0.0019613 232.78 234.15 1.1205 1.6208 2.6030 797.04 -0.0014639 109.67 0.099267 15.128 0.066103 542.96 589.21 2.3597 1.5040 1.8715 219.03 0.28612 7.8061 0.017359
14.375 104.30 0.0018675 235.93 237.43 1.1318 508.42 0.0019669 235.35 236.77 1.1295 1.6247 2.6121 790.39 -0.0013569 108.54 0.098779 15.547 0.064323 543.99 590.24 2.3588 1.5099 1.8826 218.79 0.28439 7.8369 0.017488
15.375 107.19 0.0018269 238.49 240.03 1.1407 506.95 0.0019726 237.93 239.39 1.1384 1.6286 2.6214 783.73 -0.0012476 107.43 0.098294 15.974 0.062600 545.01 591.27 2.3580 1.5159 1.8940 218.53 0.28270 7.8680 0.017619
16.375 110.13 0.0017813 241.06 242.64 1.1496 505.48 0.0019783 240.52 242.02 1.1474 1.6324 2.6308 777.07 -0.0011357 106.32 0.097810 16.412 0.060931 546.03 592.29 2.3572 1.5220 1.9055 218.27 0.28104 7.8993 0.017752
17.375 113.14 0.0017301 243.64 245.26 1.1584 504.00 0.0019841 243.11 244.66 1.1564 1.6364 2.6403 770.40 -0.0010213 105.22 0.097328 16.859 0.059314 547.04 593.31 2.3564 1.5281 1.9172 217.99 0.27942 7.9308 0.017886
18.375 116.21 0.0016732 246.22 247.89 1.1673 502.50 0.0019900 245.72 247.31 1.1653 1.6403 2.6501 763.72 -0.00090422 104.14 0.096848 17.317 0.057747 548.05 594.32 2.3557 1.5342 1.9292 217.71 0.27783 7.9626 0.018021
19.375 119.33 0.0016103 248.81 250.52 1.1762 501.00 0.0019960 248.33 249.97 1.1743 1.6443 2.6599 757.04 -0.00078435 103.06 0.096371 17.785 0.056228 549.06 595.33 2.3549 1.5404 1.9414 217.41 0.27628 7.9947 0.018159
20.375 122.52 0.0015409 251.41 253.17 1.1850 499.49 0.0020020 250.95 252.64 1.1832 1.6483 2.6700 750.35 -0.00066161 101.99 0.095895 18.263 0.054756 550.07 596.32 2.3541 1.5466 1.9538 217.10 0.27477 8.0272 0.018297
21.375 125.77 0.0014647 254.01 255.82 1.1939 497.97 0.0020082 253.57 255.32 1.1922 1.6523 2.6802 743.64 -0.00053589 100.93 0.095420 18.752 0.053328 551.07 597.31 2.3534 1.5528 1.9665 216.78 0.27329 8.0599 0.018438
22.375 129.08 0.0013814 256.62 258.47 1.2027 496.43 0.0020144 256.21 258.00 1.2012 1.6563 2.6906 736.94 -0.00040708 99.877 0.094948 19.252 0.051943 552.07 598.30 2.3526 1.5591 1.9795 216.45 0.27184 8.0929 0.018580
23.375 132.46 0.0012905 259.23 261.14 1.2116 494.89 0.0020206 258.86 260.70 1.2101 1.6604 2.7012 730.22 -0.00027505 98.834 0.094478 19.763 0.050600 553.06 599.27 2.3519 1.5655 1.9927 216.11 0.27043 8.1263 0.018724
24.375 135.90 0.0011917 261.86 263.81 1.2204 493.34 0.0020270 261.51 263.41 1.2191 1.6645 2.7120 723.49 -0.00013968 97.800 0.094009 20.285 0.049297 554.05 600.24 2.3512 1.5718 2.0061 215.75 0.26906 8.1600 0.018870
25.375 139.41 0.0010845 264.49 266.49 1.2292 491.77 0.0020335 264.17 266.13 1.2280 1.6686 2.7230 716.76 -8.3775e-07 96.773 0.093543 20.820 0.048032 555.03 601.20 2.3504 1.5783 2.0199 215.39 0.26771 8.1941 0.019017
26.375 142.98 0.00096838 267.12 269.18 1.2380 490.20 0.0020400 266.84 268.85 1.2370 1.6728 2.7342 710.01 0.00014161 95.755 0.093078 21.366 0.046804 556.01 602.15 2.3497 1.5847 2.0340 215.01 0.26640 8.2286 0.019167
27.375 146.62 0.00084295 269.77 271.87 1.2469 488.61 0.0020466 269.52 271.59 1.2459 1.6770 2.7456 703.26 0.00028782 94.745 0.092615 21.924 0.045612 556.99 603.10 2.3490 1.5913 2.0484 214.62 0.26512 8.2634 0.019319
28.375 150.33 0.00070767 272.42 274.58 1.2557 487.01 0.0020533 272.21 274.34 1.2549 1.6812 2.7573 696.49 0.00043793 93.742 0.092154 22.495 0.044454 557.96 604.03 2.3483 1.5978 2.0631 214.21 0.26387 8.2987 0.019472
29.375 154.10 0.00056198 275.07 277.29 1.2645 485.40 0.0020601 274.91 277.10 1.2638 1.6854 2.7691 689.72 0.00059212 92.747 0.091695 23.079 0.043329 558.92 604.96 2.3476 1.6044 2.0781 213.80 0.26265 8.3344 0.019628
30.375 157.94 0.00040532 277.74 280.01 1.2732 483.78 0.0020671 277.62 279.87 1.2728 1.6897 2.7813 682.93 0.00075055 91.760 0.091238 23.676 0.042237 559.88 605.88 2.3469 1.6111 2.0935 213.37 0.26147 8.3705 0.019786
31.375 161.86 0.00023706 280.41 282.73 1.2820 482.15 0.0020741 280.34 282.66 1.2818 1.6939 2.7936 676.13 0.00091340 90.779 0.090782 24.287 0.041175 560.84 606.79 2.3462 1.6178 2.1092 212.93 0.26031 8.4071 0.019947
32.375 165.84 5.6574e-05 283.09 285.47 1.2908 480.50 0.0020812 283.07 285.45 1.2908 1.6983 2.8063 669.32 0.0010809 89.806 0.090328 24.911 0.040143 561.79 607.69 2.3455 1.6246 2.1254 212.48 0.25919 8.4442 0.020110
33.375 215.28 undefined 285.08 288.17 1.2973 480.00 0.0020833 285.08 288.17 1.2973 1.7020 2.8055 669.53 0.0010619 89.525 0.090259 480.00 0.0020833 285.08 288.17 1.2973 1.7020 2.8055 669.53 0.0010619 89.525 0.090259
34.375 284.19 undefined 286.78 290.87 1.3029 480.00 0.0020833 286.78 290.87 1.3029 1.7055 2.7991 672.71 0.00096400 89.538 0.090355 480.00 0.0020833 286.78 290.87 1.3029 1.7055 2.7991 672.71 0.00096400 89.538 0.090355
35.375 353.15 undefined 288.49 293.56 1.3084 480.00 0.0020833 288.49 293.56 1.3084 1.7091 2.7930 675.85 0.00086869 89.551 0.090450 480.00 0.0020833 288.49 293.56 1.3084 1.7091 2.7930 675.85 0.00086869 89.551 0.090450
36.375 422.16 undefined 290.20 296.27 1.3140 480.00 0.0020833 290.20 296.27 1.3140 1.7126 2.7872 678.94 0.00077582 89.565 0.090547 480.00 0.0020833 290.20 296.27 1.3140 1.7126 2.7872 678.94 0.00077582 89.565 0.090547
37.375 491.22 undefined 291.92 298.97 1.3195 480.00 0.0020833 291.92 298.97 1.3195 1.7162 2.7816 681.98 0.00068531 89.578 0.090643 480.00 0.0020833 291.92 298.97 1.3195 1.7162 2.7816 681.98 0.00068531 89.578 0.090643
38.375 560.31 undefined 293.64 301.68 1.3250 480.00 0.0020833 293.64 301.68 1.3250 1.7198 2.7763 684.99 0.00059704 89.592 0.090740 480.00 0.0020833 293.64 301.68 1.3250 1.7198 2.7763 684.99 0.00059704 89.592 0.090740
39.375 629.45 undefined 295.36 304.40 1.3305 480.00 0.0020833 295.36 304.40 1.3305 1.7235 2.7713 687.96 0.00051093 89.605 0.090837 480.00 0.0020833 295.36 304.40 1.3305 1.7235 2.7713 687.96 0.00051093 89.605 0.090837
40.375 698.63 undefined 297.08 307.12 1.3360 480.00 0.0020833 297.08 307.12 1.3360 1.7271 2.7664 690.89 0.00042690 89.619 0.090935 480.00 0.0020833 297.08 307.12 1.3360 1.7271 2.7664 690.89 0.00042690 89.619 0.090935
41.375 767.84 undefined 298.81 309.84 1.3416 480.00 0.0020833 298.81 309.84 1.3416 1.7308 2.7618 693.78 0.00034487 89.632 0.091033 480.00 0.0020833 298.81 309.84 1.3416 1.7308 2.7618 693.78 0.00034487 89.632 0.091033
42.375 837.08 undefined 300.54 312.57 1.3471 480.00 0.0020833 300.54 312.57 1.3471 1.7345 2.7574 696.64 0.00026476 89.646 0.091132 480.00 0.0020833 300.54 312.57 1.3471 1.7345 2.7574 696.64 0.00026476 89.646 0.091132
43.375 906.36 undefined 302.28 315.30 1.3525 480.00 0.0020833 302.28 315.30 1.3525 1.7383 2.7533 699.46 0.00018650 89.660 0.091230 480.00 0.0020833 302.28 315.30 1.3525 1.7383 2.7533 699.46 0.00018650 89.660 0.091230
44.375 975.66 undefined 304.02 318.03 1.3580 480.00 0.0020833 304.02 318.03 1.3580 1.7420 2.7493 702.25 0.00011003 89.674 0.091330 480.00 0.0020833 304.02 318.03 1.3580 1.7420 2.7493 702.25 0.00011003 89.674 0.091330
45.375 1045.0 undefined 305.76 320.77 1.3635 480.00 0.0020833 305.76 320.77 1.3635 1.7458 2.7455 705.01 3.5277e-05 89.688 0.091429 480.00 0.0020833 305.76 320.77 1.3635 1.7458 2.7455 705.01 3.5277e-05 89.688 0.091429
46.375 1114.3 undefined 307.51 323.52 1.3690 480.00 0.0020833 307.51 323.52 1.3690 1.7496 2.7419 707.73 -3.7810e-05 89.702 0.091529 480.00 0.0020833 307.51 323.52 1.3690 1.7496 2.7419 707.73 -3.7810e-05 89.702 0.091529
47.375 1183.7 undefined 309.26 326.27 1.3745 480.00 0.0020833 309.26 326.27 1.3745 1.7534 2.7385 710.43 -0.00010929 89.716 0.091629 480.00 0.0020833 309.26 326.27 1.3745 1.7534 2.7385 710.43 -0.00010929 89.716 0.091629
48.375 1253.1 undefined 311.02 329.02 1.3799 480.00 0.0020833 311.02 329.02 1.3799 1.7573 2.7352 713.09 -0.00017922 89.730 0.091730 480.00 0.0020833 311.02 329.02 1.3799 1.7573 2.7352 713.09 -0.00017922 89.730 0.091730
49.375 1322.5 undefined 312.78 331.77 1.3854 480.00 0.0020833 312.78 331.77 1.3854 1.7611 2.7321 715.73 -0.00024764 89.744 0.091831 480.00 0.0020833 312.78 331.77 1.3854 1.7611 2.7321 715.73 -0.00024764 89.744 0.091831
50.375 1391.9 undefined 314.54 334.53 1.3909 480.00 0.0020833 314.54 334.53 1.3909 1.7650 2.7292 718.33 -0.00031461 89.758 0.091932 480.00 0.0020833 314.54 334.53 1.3909 1.7650 2.7292 718.33 -0.00031461 89.758 0.091932
51.375 1461.3 undefined 316.31 337.30 1.3963 480.00 0.0020833 316.31 337.30 1.3963 1.7689 2.7264 720.91 -0.00038017 89.772 0.092033 480.00 0.0020833 316.31 337.30 1.3963 1.7689 2.7264 720.91 -0.00038017 89.772 0.092033
52.375 1530.8 undefined 318.08 340.07 1.4018 480.00 0.0020833 318.08 340.07 1.4018 1.7729 2.7237 723.47 -0.00044436 89.786 0.092135 480.00 0.0020833 318.08 340.07 1.4018 1.7729 2.7237 723.47 -0.00044436 89.786 0.092135
53.375 1600.2 undefined 319.85 342.84 1.4072 480.00 0.0020833 319.85 342.84 1.4072 1.7768 2.7212 726.00 -0.00050723 89.801 0.092238 480.00 0.0020833 319.85 342.84 1.4072 1.7768 2.7212 726.00 -0.00050723 89.801 0.092238
54.375 1669.7 undefined 321.63 345.62 1.4126 480.00 0.0020833 321.63 345.62 1.4126 1.7808 2.7189 728.50 -0.00056881 89.815 0.092340 480.00 0.0020833 321.63 345.62 1.4126 1.7808 2.7189 728.50 -0.00056881 89.815 0.092340
55.375 1739.2 undefined 323.42 348.40 1.4181 480.00 0.0020833 323.42 348.40 1.4181 1.7847 2.7167 730.98 -0.00062914 89.829 0.092443 480.00 0.0020833 323.42 348.40 1.4181 1.7847 2.7167 730.98 -0.00062914 89.829 0.092443
56.375 1808.6 undefined 325.20 351.18 1.4235 480.00 0.0020833 325.20 351.18 1.4235 1.7887 2.7146 733.44 -0.00068826 89.844 0.092546 480.00 0.0020833 325.20 351.18 1.4235 1.7887 2.7146 733.44 -0.00068826 89.844 0.092546
57.375 1878.1 undefined 326.99 353.97 1.4289 480.00 0.0020833 326.99 353.97 1.4289 1.7927 2.7126 735.88 -0.00074620 89.858 0.092650 480.00 0.0020833 326.99 353.97 1.4289 1.7927 2.7126 735.88 -0.00074620 89.858 0.092650
58.375 1947.6 undefined 328.79 356.76 1.4344 480.00 0.0020833 328.79 356.76 1.4344 1.7968 2.7108 738.29 -0.00080300 89.873 0.092754 480.00 0.0020833 328.79 356.76 1.4344 1.7968 2.7108 738.29 -0.00080300 89.873 0.092754
59.375 2017.1 undefined 330.59 359.56 1.4398 480.00 0.0020833 330.59 359.56 1.4398 1.8008 2.7090 740.68 -0.00085868 89.888 0.092858 480.00 0.0020833 330.59 359.56 1.4398 1.8008 2.7090 740.68 -0.00085868 89.888 0.092858
60.375 2086.6 undefined 332.39 362.36 1.4452 480.00 0.0020833 332.39 362.36 1.4452 1.8048 2.7074 743.05 -0.00091327 89.902 0.092963 480.00 0.0020833 332.39 362.36 1.4452 1.8048 2.7074 743.05 -0.00091327 89.902 0.092963
61.375 2156.0 undefined 334.20 365.17 1.4506 480.00 0.0020833 334.20 365.17 1.4506 1.8089 2.7059 745.41 -0.00096681 89.917 0.093068 480.00 0.0020833 334.20 365.17 1.4506 1.8089 2.7059 745.41 -0.00096681 89.917 0.093068
62.375 2225.5 undefined 336.01 367.97 1.4560 480.00 0.0020833 336.01 367.97 1.4560 1.8130 2.7045 747.74 -0.0010193 89.932 0.093173 480.00 0.0020833 336.01 367.97 1.4560 1.8130 2.7045 747.74 -0.0010193 89.932 0.093173
63.375 2295.0 undefined 337.82 370.79 1.4614 480.00 0.0020833 337.82 370.79 1.4614 1.8171 2.7032 750.05 -0.0010708 89.947 0.093279 480.00 0.0020833 337.82 370.79 1.4614 1.8171 2.7032 750.05 -0.0010708 89.947 0.093279
64.375 2364.5 undefined 339.64 373.60 1.4668 480.00 0.0020833 339.64 373.60 1.4668 1.8212 2.7021 752.35 -0.0011214 89.961 0.093384 480.00 0.0020833 339.64 373.60 1.4668 1.8212 2.7021 752.35 -0.0011214 89.961 0.093384
65.375 2433.9 undefined 341.46 376.43 1.4722 480.00 0.0020833 341.46 376.43 1.4722 1.8253 2.7010 754.62 -0.0011709 89.976 0.093491 480.00 0.0020833 341.46 376.43 1.4722 1.8253 2.7010 754.62 -0.0011709 89.976 0.093491
66.375 2503.4 undefined 343.29 379.25 1.4776 480.00 0.0020833 343.29 379.25 1.4776 1.8294 2.7000 756.88 -0.0012196 89.991 0.093597 480.00 0.0020833 343.29 379.25 1.4776 1.8294 2.7000 756.88 -0.0012196 89.991 0.093597
67.375 2572.8 undefined 345.12 382.08 1.4830 480.00 0.0020833 345.12 382.08 1.4830 1.8335 2.6991 759.12 -0.0012673 90.006 0.093704 480.00 0.0020833 345.12 382.08 1.4830 1.8335 2.6991 759.12 -0.0012673 90.006 0.093704
68.375 2642.3 undefined 346.96 384.91 1.4884 480.00 0.0020833 346.96 384.91 1.4884 1.8377 2.6983 761.35 -0.0013142 90.021 0.093811 480.00 0.0020833 346.96 384.91 1.4884 1.8377 2.6983 761.35 -0.0013142 90.021 0.093811
69.375 2711.7 undefined 348.80 387.75 1.4937 480.00 0.0020833 348.80 387.75 1.4937 1.8418 2.6975 763.56 -0.0013602 90.037 0.093919 480.00 0.0020833 348.80 387.75 1.4937 1.8418 2.6975 763.56 -0.0013602 90.037 0.093919
70.375 2781.1 undefined 350.64 390.59 1.4991 480.00 0.0020833 350.64 390.59 1.4991 1.8460 2.6969 765.75 -0.0014053 90.052 0.094026 480.00 0.0020833 350.64 390.59 1.4991 1.8460 2.6969 765.75 -0.0014053 90.052 0.094026
71.375 2850.5 undefined 352.49 393.44 1.5045 480.00 0.0020833 352.49 393.44 1.5045 1.8501 2.6964 767.93 -0.0014496 90.067 0.094135 480.00 0.0020833 352.49 393.44 1.5045 1.8501 2.6964 767.93 -0.0014496 90.067 0.094135
72.375 2919.9 undefined 354.34 396.28 1.5098 480.00 0.0020833 354.34 396.28 1.5098 1.8543 2.6959 770.09 -0.0014932 90.082 0.094243 480.00 0.0020833 354.34 396.28 1.5098 1.8543 2.6959 770.09 -0.0014932 90.082 0.094243
73.375 2989.3 undefined 356.20 399.14 1.5152 480.00 0.0020833 356.20 399.14 1.5152 1.8585 2.6955 772.24 -0.0015359 90.097 0.094352 480.00 0.0020833 356.20 399.14 1.5152 1.8585 2.6955 772.24 -0.0015359 90.097 0.094352
74.375 3058.7 undefined 358.06 402.00 1.5206 480.00 0.0020833 358.06 402.00 1.5206 1.8627 2.6952 774.38 -0.0015779 90.113 0.094461 480.00 0.0020833 358.06 402.00 1.5206 1.8627 2.6952 774.38 -0.0015779 90.113 0.094461
75.375 3128.1 undefined 359.92 404.86 1.5259 480.00 0.0020833 359.92 404.86 1.5259 1.8669 2.6949 776.50 -0.0016191 90.128 0.094570 480.00 0.0020833 359.92 404.86 1.5259 1.8669 2.6949 776.50 -0.0016191 90.128 0.094570
76.375 3197.4 undefined 361.79 407.72 1.5313 480.00 0.0020833 361.79 407.72 1.5313 1.8711 2.6948 778.60 -0.0016595 90.144 0.094680 480.00 0.0020833 361.79 407.72 1.5313 1.8711 2.6948 778.60 -0.0016595 90.144 0.094680
77.375 3266.7 undefined 363.67 410.59 1.5366 480.00 0.0020833 363.67 410.59 1.5366 1.8753 2.6947 780.70 -0.0016993 90.159 0.094790 480.00 0.0020833 363.67 410.59 1.5366 1.8753 2.6947 780.70 -0.0016993 90.159 0.094790
78.375 3336.0 undefined 365.54 413.46 1.5420 480.00 0.0020833 365.54 413.46 1.5420 1.8795 2.6947 782.78 -0.0017384 90.175 0.094900 480.00 0.0020833 365.54 413.46 1.5420 1.8795 2.6947 782.78 -0.0017384 90.175 0.094900
79.375 3405.3 undefined 367.43 416.34 1.5473 480.00 0.0020833 367.43 416.34 1.5473 1.8837 2.6947 784.85 -0.0017767 90.190 0.095011 480.00 0.0020833 367.43 416.34 1.5473 1.8837 2.6947 784.85 -0.0017767 90.190 0.095011
80.375 3474.6 undefined 369.31 419.22 1.5527 480.00 0.0020833 369.31 419.22 1.5527 1.8879 2.6948 786.90 -0.0018144 90.206 0.095122 480.00 0.0020833 369.31 419.22 1.5527 1.8879 2.6948 786.90 -0.0018144 90.206 0.095122
81.375 3543.9 undefined 371.20 422.11 1.5580 480.00 0.0020833 371.20 422.11 1.5580 1.8922 2.6950 788.94 -0.0018515 90.221 0.095233 480.00 0.0020833 371.20 422.11 1.5580 1.8922 2.6950 788.94 -0.0018515 90.221 0.095233
82.375 3613.1 undefined 373.10 425.00 1.5633 480.00 0.0020833 373.10 425.00 1.5633 1.8964 2.6952 790.98 -0.0018878 90.237 0.095344 480.00 0.0020833 373.10 425.00 1.5633 1.8964 2.6952 790.98 -0.0018878 90.237 0.095344
83.375 3682.4 undefined 374.99 427.89 1.5687 480.00 0.0020833 374.99 427.89 1.5687 1.9006 2.6955 793.00 -0.0019236 90.253 0.095456 480.00 0.0020833 374.99 427.89 1.5687 1.9006 2.6955 793.00 -0.0019236 90.253 0.095456
84.375 3751.6 undefined 376.90 430.79 1.5740 480.00 0.0020833 376.90 430.79 1.5740 1.9049 2.6959 795.00 -0.0019587 90.269 0.095568 480.00 0.0020833 376.90 430.79 1.5740 1.9049 2.6959 795.00 -0.0019587 90.269 0.095568
85.375 3820.8 undefined 378.80 433.69 1.5793 480.00 0.0020833 378.80 433.69 1.5793 1.9091 2.6963 797.00 -0.0019933 90.284 0.095681 480.00 0.0020833 378.80 433.69 1.5793 1.9091 2.6963 797.00 -0.0019933 90.284 0.095681
86.375 3889.9 undefined 380.72 436.59 1.5847 480.00 0.0020833 380.72 436.59 1.5847 1.9134 2.6967 798.99 -0.0020272 90.300 0.095794 480.00 0.0020833 380.72 436.59 1.5847 1.9134 2.6967 798.99 -0.0020272 90.300 0.095794
87.375 3959.1 undefined 382.63 439.50 1.5900 480.00 0.0020833 382.63 439.50 1.5900 1.9176 2.6973 800.96 -0.0020606 90.316 0.095907 480.00 0.0020833 382.63 439.50 1.5900 1.9176 2.6973 800.96 -0.0020606 90.316 0.095907
88.375 4028.2 undefined 384.55 442.41 1.5953 480.00 0.0020833 384.55 442.41 1.5953 1.9219 2.6978 802.92 -0.0020934 90.332 0.096020 480.00 0.0020833 384.55 442.41 1.5953 1.9219 2.6978 802.92 -0.0020934 90.332 0.096020
89.375 4097.3 undefined 386.47 445.33 1.6006 480.00 0.0020833 386.47 445.33 1.6006 1.9261 2.6985 804.88 -0.0021256 90.348 0.096134 480.00 0.0020833 386.47 445.33 1.6006 1.9261 2.6985 804.88 -0.0021256 90.348 0.096134
90.375 4166.4 undefined 388.40 448.25 1.6059 480.00 0.0020833 388.40 448.25 1.6059 1.9304 2.6992 806.82 -0.0021573 90.364 0.096248 480.00 0.0020833 388.40 448.25 1.6059 1.9304 2.6992 806.82 -0.0021573 90.364 0.096248
91.375 4235.5 undefined 390.34 451.17 1.6112 480.00 0.0020833 390.34 451.17 1.6112 1.9346 2.6999 808.75 -0.0021884 90.380 0.096362 480.00 0.0020833 390.34 451.17 1.6112 1.9346 2.6999 808.75 -0.0021884 90.380 0.096362
92.375 4304.5 undefined 392.27 454.10 1.6165 480.00 0.0020833 392.27 454.10 1.6165 1.9389 2.7007 810.68 -0.0022191 90.396 0.096477 480.00 0.0020833 392.27 454.10 1.6165 1.9389 2.7007 810.68 -0.0022191 90.396 0.096477
93.375 4373.6 undefined 394.21 457.04 1.6218 480.00 0.0020833 394.21 457.04 1.6218 1.9432 2.7015 812.59 -0.0022492 90.412 0.096592 480.00 0.0020833 394.21 457.04 1.6218 1.9432 2.7015 812.59 -0.0022492 90.412 0.096592
94.375 4442.6 undefined 396.16 459.97 1.6271 480.00 0.0020833 396.16 459.97 1.6271 1.9474 2.7024 814.50 -0.0022788 90.428 0.096707 480.00 0.0020833 396.16 459.97 1.6271 1.9474 2.7024 814.50 -0.0022788 90.428 0.096707
95.375 4511.5 undefined 398.11 462.91 1.6324 480.00 0.0020833 398.11 462.91 1.6324 1.9517 2.7033 816.39 -0.0023079 90.444 0.096822 480.00 0.0020833 398.11 462.91 1.6324 1.9517 2.7033 816.39 -0.0023079 90.444 0.096822
96.375 4580.5 undefined 400.06 465.86 1.6377 480.00 0.0020833 400.06 465.86 1.6377 1.9559 2.7042 818.28 -0.0023365 90.461 0.096938 480.00 0.0020833 400.06 465.86 1.6377 1.9559 2.7042 818.28 -0.0023365 90.461 0.096938
97.375 4649.4 undefined 402.02 468.80 1.6430 480.00 0.0020833 402.02 468.80 1.6430 1.9602 2.7052 820.15 -0.0023647 90.477 0.097054 480.00 0.0020833 402.02 468.80 1.6430 1.9602 2.7052 820.15 -0.0023647 90.477 0.097054
98.375 4718.3 undefined 403.98 471.76 1.6483 480.00 0.0020833 403.98 471.76 1.6483 1.9645 2.7063 822.02 -0.0023924 90.493 0.097171 480.00 0.0020833 403.98 471.76 1.6483 1.9645 2.7063 822.02 -0.0023924 90.493 0.097171
99.375 4787.2 undefined 405.95 474.71 1.6536 480.00 0.0020833 405.95 474.71 1.6536 1.9687 2.7074 823.88 -0.0024196 90.510 0.097287 480.00 0.0020833 405.95 474.71 1.6536 1.9687 2.7074 823.88 -0.0024196 90.510 0.097287
100.38 4856.1 undefined 407.92 477.67 1.6589 480.00 0.0020833 407.92 477.67 1.6589 1.9730 2.7085 825.73 -0.0024464 90.526 0.097405 480.00 0.0020833 407.92 477.67 1.6589 1.9730 2.7085 825.73 -0.0024464 90.526 0.097405
101.38 4924.9 undefined 409.89 480.64 1.6642 480.00 0.0020833 409.89 480.64 1.6642 1.9773 2.7097 827.57 -0.0024727 90.542 0.097522 480.00 0.0020833 409.89 480.64 1.6642 1.9773 2.7097 827.57 -0.0024727 90.542 0.097522
102.38 4993.7 undefined 411.87 483.60 1.6694 480.00 0.0020833 411.87 483.60 1.6694 1.9815 2.7109 829.40 -0.0024986 90.559 0.097639 480.00 0.0020833 411.87 483.60 1.6694 1.9815 2.7109 829.40 -0.0024986 90.559 0.097639
103.38 5062.5 undefined 413.86 486.58 1.6747 480.00 0.0020833 413.86 486.58 1.6747 1.9858 2.7121 831.23 -0.0025241 90.575 0.097757 480.00 0.0020833 413.86 486.58 1.6747 1.9858 2.7121 831.23 -0.0025241 90.575 0.097757
104.38 5131.3 undefined 415.85 489.55 1.6800 480.00 0.0020833 415.85 489.55 1.6800 1.9901 2.7134 833.05 -0.0025492 90.592 0.097876 480.00 0.0020833 415.85 489.55 1.6800 1.9901 2.7134 833.05 -0.0025492 90.592 0.097876
105.38 5200.0 undefined 417.84 492.53 1.6853 480.00 0.0020833 417.84 492.53 1.6853 1.9943 2.7147 834.85 -0.0025739 90.608 0.097994 480.00 0.0020833 417.84 492.53 1.6853 1.9943 2.7147 834.85 -0.0025739 90.608 0.097994
106.38 5268.7 undefined 419.83 495.51 1.6905 480.00 0.0020833 419.83 495.51 1.6905 1.9986 2.7161 836.65 -0.0025981 90.625 0.098113 480.00 0.0020833 419.83 495.51 1.6905 1.9986 2.7161 836.65 -0.0025981 90.625 0.098113
107.38 5337.4 undefined 421.84 498.50 1.6958 480.00 0.0020833 421.84 498.50 1.6958 2.0029 2.7174 838.45 -0.0026220 90.641 0.098232 480.00 0.0020833 421.84 498.50 1.6958 2.0029 2.7174 838.45 -0.0026220 90.641 0.098232
108.38 5406.1 undefined 423.84 501.49 1.7011 480.00 0.0020833 423.84 501.49 1.7011 2.0071 2.7189 840.23 -0.0026455 90.658 0.098352 480.00 0.0020833 423.84 501.49 1.7011 2.0071 2.7189 840.23 -0.0026455 90.658 0.098352
109.38 5474.7 undefined 425.85 504.49 1.7063 480.00 0.0020833 425.85 504.49 1.7063 2.0114 2.7203 842.01 -0.0026686 90.675 0.098471 480.00 0.0020833 425.85 504.49 1.7063 2.0114 2.7203 842.01 -0.0026686 90.675 0.098471
110.38 5543.3 undefined 427.86 507.49 1.7116 480.00 0.0020833 427.86 507.49 1.7116 2.0157 2.7218 843.78 -0.0026913 90.691 0.098591 480.00 0.0020833 427.86 507.49 1.7116 2.0157 2.7218 843.78 -0.0026913 90.691 0.098591
111.38 5611.9 undefined 429.88 510.49 1.7168 480.00 0.0020833 429.88 510.49 1.7168 2.0199 2.7233 845.54 -0.0027137 90.708 0.098712 480.00 0.0020833 429.88 510.49 1.7168 2.0199 2.7233 845.54 -0.0027137 90.708 0.098712
112.38 5680.4 undefined 431.90 513.50 1.7221 480.00 0.0020833 431.90 513.50 1.7221 2.0242 2.7248 847.30 -0.0027357 90.725 0.098832 480.00 0.0020833 431.90 513.50 1.7221 2.0242 2.7248 847.30 -0.0027357 90.725 0.098832
113.38 5748.9 undefined 433.93 516.51 1.7273 480.00 0.0020833 433.93 516.51 1.7273 2.0284 2.7264 849.05 -0.0027573 90.742 0.098953 480.00 0.0020833 433.93 516.51 1.7273 2.0284 2.7264 849.05 -0.0027573 90.742 0.098953
114.38 5817.4 undefined 435.96 519.52 1.7326 480.00 0.0020833 435.96 519.52 1.7326 2.0327 2.7280 850.79 -0.0027787 90.758 0.099074 480.00 0.0020833 435.96 519.52 1.7326 2.0327 2.7280 850.79 -0.0027787 90.758 0.099074
115.38 5885.9 undefined 437.99 522.54 1.7378 480.00 0.0020833 437.99 522.54 1.7378 2.0369 2.7296 852.52 -0.0027996 90.775 0.099196 480.00 0.0020833 437.99 522.54 1.7378 2.0369 2.7296 852.52 -0.0027996 90.775 0.099196
116.38 5954.4 undefined 440.03 525.56 1.7431 480.00 0.0020833 440.03 525.56 1.7431 2.0412 2.7313 854.25 -0.0028203 90.792 0.099318 480.00 0.0020833 440.03 525.56 1.7431 2.0412 2.7313 854.25 -0.0028203 90.792 0.099318
117.38 6022.8 undefined 442.08 528.59 1.7483 480.00 0.0020833 442.08 528.59 1.7483 2.0454 2.7330 855.97 -0.0028406 90.809 0.099440 480.00 0.0020833 442.08 528.59 1.7483 2.0454 2.7330 855.97 -0.0028406 90.809 0.099440
118.38 6091.2 undefined 444.12 531.62 1.7535 480.00 0.0020833 444.12 531.62 1.7535 2.0497 2.7347 857.68 -0.0028606 90.826 0.099562 480.00 0.0020833 444.12 531.62 1.7535 2.0497 2.7347 857.68 -0.0028606 90.826 0.099562
119.38 6159.5 undefined 446.18 534.65 1.7588 480.00 0.0020833 446.18 534.65 1.7588 2.0539 2.7364 859.39 -0.0028803 90.843 0.099685 480.00 0.0020833 446.18 534.65 1.7588 2.0539 2.7364 859.39 -0.0028803 90.843 0.099685
120.38 6227.9 undefined 448.23 537.69 1.7640 480.00 0.0020833 448.23 537.69 1.7640 2.0582 2.7382 861.09 -0.0028996 90.860 0.099808 480.00 0.0020833 448.23 537.69 1.7640 2.0582 2.7382 861.09 -0.0028996 90.860 0.099808
121.38 6296.2 undefined 450.29 540.73 1.7692 480.00 0.0020833 450.29 540.73 1.7692 2.0624 2.7400 862.78 -0.0029187 90.877 0.099931 480.00 0.0020833 450.29 540.73 1.7692 2.0624 2.7400 862.78 -0.0029187 90.877 0.099931
122.38 6364.4 undefined 452.36 543.78 1.7745 480.00 0.0020833 452.36 543.78 1.7745 2.0667 2.7418 864.47 -0.0029375 90.894 0.10005 480.00 0.0020833 452.36 543.78 1.7745 2.0667 2.7418 864.47 -0.0029375 90.894 0.10005
123.38 6432.7 undefined 454.43 546.83 1.7797 480.00 0.0020833 454.43 546.83 1.7797 2.0709 2.7436 866.15 -0.0029559 90.911 0.10018 480.00 0.0020833 454.43 546.83 1.7797 2.0709 2.7436 866.15 -0.0029559 90.911 0.10018
124.38 6500.9 undefined 456.50 549.88 1.7849 480.00 0.0020833 456.50 549.88 1.7849 2.0751 2.7455 867.82 -0.0029741 90.928 0.10030 480.00 0.0020833 456.50 549.88 1.7849 2.0751 2.7455 867.82 -0.0029741 90.928 0.10030
125.38 6569.1 undefined 458.58 552.94 1.7901 480.00 0.0020833 458.58 552.94 1.7901 2.0794 2.7473 869.49 -0.0029920 90.945 0.10043 480.00 0.0020833 458.58 552.94 1.7901 2.0794 2.7473 869.49 -0.0029920 90.945 0.10043
126.38 6637.3 undefined 460.66 556.00 1.7953 480.00 0.0020833 460.66 556.00 1.7953 2.0836 2.7492 871.15 -0.0030096 90.962 0.10055 480.00 0.0020833 460.66 556.00 1.7953 2.0836 2.7492 871.15 -0.0030096 90.962 0.10055
127.38 6705.4 undefined 462.74 559.06 1.8005 480.00 0.0020833 462.74 559.06 1.8005 2.0878 2.7512 872.81 -0.0030270 90.979 0.10068 480.00 0.0020833 462.74 559.06 1.8005 2.0878 2.7512 872.81 -0.0030270 90.979 0.10068
128.38 6773.5 undefined 464.83 562.13 1.8058 480.00 0.0020833 464.83 562.13 1.8058 2.0920 2.7531 874.46 -0.0030440 90.997 0.10080 480.00 0.0020833 464.83 562.13 1.8058 2.0920 2.7531 874.46 -0.0030440 90.997 0.10080
129.38 6841.6 undefined 466.93 565.20 1.8110 480.00 0.0020833 466.93 565.20 1.8110 2.0963 2.7551 876.10 -0.0030609 91.014 0.10093 480.00 0.0020833 466.93 565.20 1.8110 2.0963 2.7551 876.10 -0.0030609 91.014 0.10093
130.38 6909.6 undefined 469.03 568.28 1.8162 480.00 0.0020833 469.03 568.28 1.8162 2.1005 2.7570 877.74 -0.0030774 91.031 0.10105 480.00 0.0020833 469.03 568.28 1.8162 2.1005 2.7570 877.74 -0.0030774 91.031 0.10105
131.38 6977.7 undefined 471.13 571.36 1.8214 480.00 0.0020833 471.13 571.36 1.8214 2.1047 2.7590 879.37 -0.0030937 91.048 0.10118 480.00 0.0020833 471.13 571.36 1.8214 2.1047 2.7590 879.37 -0.0030937 91.048 0.10118
132.38 7045.7 undefined 473.24 574.44 1.8266 480.00 0.0020833 473.24 574.44 1.8266 2.1089 2.7611 880.99 -0.0031097 91.066 0.10131 480.00 0.0020833 473.24 574.44 1.8266 2.1089 2.7611 880.99 -0.0031097 91.066 0.10131
133.38 7113.6 undefined 475.35 577.53 1.8318 480.00 0.0020833 475.35 577.53 1.8318 2.1131 2.7631 882.61 -0.0031255 91.083 0.10143 480.00 0.0020833 475.35 577.53 1.8318 2.1131 2.7631 882.61 -0.0031255 91.083 0.10143
134.38 7181.5 undefined 477.46 580.62 1.8370 480.00 0.0020833 477.46 580.62 1.8370 2.1173 2.7652 884.23 -0.0031411 91.100 0.10156 480.00 0.0020833 477.46 580.62 1.8370 2.1173 2.7652 884.23 -0.0031411 91.100 0.10156
135.38 7249.4 undefined 479.58 583.71 1.8422 480.00 0.0020833 479.58 583.71 1.8422 2.1215 2.7672 885.84 -0.0031564 91.118 0.10169 480.00 0.0020833 479.58 583.71 1.8422 2.1215 2.7672 885.84 -0.0031564 91.118 0.10169
136.38 7317.3 undefined 481.70 586.81 1.8474 480.00 0.0020833 481.70 586.81 1.8474 2.1257 2.7693 887.44 -0.0031715 91.135 0.10182 480.00 0.0020833 481.70 586.81 1.8474 2.1257 2.7693 887.44 -0.0031715 91.135 0.10182
137.38 7385.2 undefined 483.83 589.91 1.8526 480.00 0.0020833 483.83 589.91 1.8526 2.1299 2.7715 889.04 -0.0031863 91.152 0.10194 480.00 0.0020833 483.83 589.91 1.8526 2.1299 2.7715 889.04 -0.0031863 91.152 0.10194
138.38 7453.0 undefined 485.96 593.02 1.8577 480.00 0.0020833 485.96 593.02 1.8577 2.1341 2.7736 890.63 -0.0032010 91.170 0.10207 480.00 0.0020833 485.96 593.02 1.8577 2.1341 2.7736 890.63 -0.0032010 91.170 0.10207
139.38 7520.8 undefined 488.10 596.13 1.8629 480.00 0.0020833 488.10 596.13 1.8629 2.1383 2.7757 892.22 -0.0032154 91.187 0.10220 480.00 0.0020833 488.10 596.13 1.8629 2.1383 2.7757 892.22 -0.0032154 91.187 0.10220
140.38 7588.5 undefined 490.24 599.24 1.8681 480.00 0.0020833 490.24 599.24 1.8681 2.1425 2.7779 893.80 -0.0032295 91.205 0.10233 480.00 0.0020833 490.24 599.24 1.8681 2.1425 2.7779 893.80 -0.0032295 91.205 0.10233
141.38 7656.2 undefined 492.39 602.36 1.8733 480.00 0.0020833 492.39 602.36 1.8733 2.1467 2.7801 895.37 -0.0032435 91.222 0.10246 480.00 0.0020833 492.39 602.36 1.8733 2.1467 2.7801 895.37 -0.0032435 91.222 0.10246
142.38 7723.9 undefined 494.53 605.48 1.8785 480.00 0.0020833 494.53 605.48 1.8785 2.1509 2.7823 896.94 -0.0032572 91.240 0.10259 480.00 0.0020833 494.53 605.48 1.8785 2.1509 2.7823 896.94 -0.0032572 91.240 0.10259
143.38 7791.6 undefined 496.69 608.61 1.8836 480.00 0.0020833 496.69 608.61 1.8836 2.1551 2.7845 898.51 -0.0032708 91.257 0.10272 480.00 0.0020833 496.69 608.61 1.8836 2.1551 2.7845 898.51 -0.0032708 91.257 0.10272
144.38 7859.2 undefined 498.84 611.74 1.8888 480.00 0.0020833 498.84 611.74 1.8888 2.1592 2.7867 900.07 -0.0032841 91.275 0.10285 480.00 0.0020833 498.84 611.74 1.8888 2.1592 2.7867 900.07 -0.0032841 91.275 0.10285
145.38 7926.8 undefined 501.01 614.87 1.8940 480.00 0.0020833 501.01 614.87 1.8940 2.1634 2.7889 901.63 -0.0032972 91.292 0.10298 480.00 0.0020833 501.01 614.87 1.8940 2.1634 2.7889 901.63 -0.0032972 91.292 0.10298
146.38 7994.4 undefined 503.17 618.00 1.8992 480.00 0.0020833 503.17 618.00 1.8992 2.1676 2.7912 903.18 -0.0033102 91.310 0.10311 480.00 0.0020833 503.17 618.00 1.8992 2.1676 2.7912 903.18 -0.0033102 91.310 0.10311
147.38 8061.9 undefined 505.34 621.14 1.9043 480.00 0.0020833 505.34 621.14 1.9043 2.1717 2.7935 904.72 -0.0033229 91.328 0.10324 480.00 0.0020833 505.34 621.14 1.9043 2.1717 2.7935 904.72 -0.0033229 91.328 0.10324
148.38 8129.4 undefined 507.51 624.29 1.9095 480.00 0.0020833 507.51 624.29 1.9095 2.1759 2.7957 906.26 -0.0033355 91.345 0.10337 480.00 0.0020833 507.51 624.29 1.9095 2.1759 2.7957 906.26 -0.0033355 91.345 0.10337
149.38 8196.9 undefined 509.69 627.43 1.9146 480.00 0.0020833 509.69 627.43 1.9146 2.1800 2.7980 907.80 -0.0033478 91.363 0.10350 480.00 0.0020833 509.69 627.43 1.9146 2.1800 2.7980 907.80 -0.0033478 91.363 0.10350
150.38 8264.4 undefined 511.87 630.59 1.9198 480.00 0.0020833 511.87 630.59 1.9198 2.1842 2.8003 909.33 -0.0033600 91.380 0.10364 480.00 0.0020833 511.87 630.59 1.9198 2.1842 2.8003 909.33 -0.0033600 91.380 0.10364
151.38 8331.8 undefined 514.06 633.74 1.9250 480.00 0.0020833 514.06 633.74 1.9250 2.1883 2.8027 910.85 -0.0033720 91.398 0.10377 480.00 0.0020833 514.06 633.74 1.9250 2.1883 2.8027 910.85 -0.0033720 91.398 0.10377
152.38 8399.2 undefined 516.25 636.90 1.9301 480.00 0.0020833 516.25 636.90 1.9301 2.1925 2.8050 912.37 -0.0033838 91.416 0.10391 480.00 0.0020833 516.25 636.90 1.9301 2.1925 2.8050 912.37 -0.0033838 91.416 0.10391
153.38 8466.5 undefined 518.45 640.06 1.9353 480.00 0.0020833 518.45 640.06 1.9353 2.1966 2.8073 913.89 -0.0033954 91.434 0.10404 480.00 0.0020833 518.45 640.06 1.9353 2.1966 2.8073 913.89 -0.0033954 91.434 0.10404
154.38 8533.9 undefined 520.64 643.23 1.9404 480.00 0.0020833 520.64 643.23 1.9404 2.2008 2.8097 915.40 -0.0034069 91.451 0.10418 480.00 0.0020833 520.64 643.23 1.9404 2.2008 2.8097 915.40 -0.0034069 91.451 0.10418
155.38 8601.2 undefined 522.85 646.40 1.9456 480.00 0.0020833 522.85 646.40 1.9456 2.2049 2.8120 916.91 -0.0034181 91.469 0.10431 480.00 0.0020833 522.85 646.40 1.9456 2.2049 2.8120 916.91 -0.0034181 91.469 0.10431
156.38 8668.4 undefined 525.05 649.57 1.9507 480.00 0.0020833 525.05 649.57 1.9507 2.2090 2.8144 918.41 -0.0034292 91.487 0.10445 480.00 0.0020833 525.05 649.57 1.9507 2.2090 2.8144 918.41 -0.0034292 91.487 0.10445
157.38 8735.7 undefined 527.27 652.75 1.9558 480.00 0.0020833 527.27 652.75 1.9558 2.2132 2.8168 919.91 -0.0034402 91.505 0.10458 480.00 0.0020833 527.27 652.75 1.9558 2.2132 2.8168 919.91 -0.0034402 91.505 0.10458
158.38 8802.9 undefined 529.48 655.93 1.9610 480.00 0.0020833 529.48 655.93 1.9610 2.2173 2.8192 921.40 -0.0034510 91.523 0.10472 480.00 0.0020833 529.48 655.93 1.9610 2.2173 2.8192 921.40 -0.0034510 91.523 0.10472
159.38 8870.0 undefined 531.70 659.11 1.9661 480.00 0.0020833 531.70 659.11 1.9661 2.2214 2.8216 922.89 -0.0034616 91.540 0.10485 480.00 0.0020833 531.70 659.11 1.9661 2.2214 2.8216 922.89 -0.0034616 91.540 0.10485
160.38 8937.2 undefined 533.92 662.30 1.9713 480.00 0.0020833 533.92 662.30 1.9713 2.2255 2.8241 924.37 -0.0034720 91.558 0.10499 480.00 0.0020833 533.92 662.30 1.9713 2.2255 2.8241 924.37 -0.0034720 91.558 0.10499
161.38 9004.3 undefined 536.15 665.49 1.9764 480.00 0.0020833 536.15 665.49 1.9764 2.2296 2.8265 925.85 -0.0034823 91.576 0.10513 480.00 0.0020833 536.15 665.49 1.9764 2.2296 2.8265 925.85 -0.0034823 91.576 0.10513
162.38 9071.4 undefined 538.38 668.68 1.9815 480.00 0.0020833 538.38 668.68 1.9815 2.2337 2.8289 927.33 -0.0034925 91.594 0.10526 480.00 0.0020833 538.38 668.68 1.9815 2.2337 2.8289 927.33 -0.0034925 91.594 0.10526
163.38 9138.4 undefined 540.62 671.88 1.9866 480.00 0.0020833 540.62 671.88 1.9866 2.2378 2.8314 928.80 -0.0035025 91.612 0.10540 480.00 0.0020833 540.62 671.88 1.9866 2.2378 2.8314 928.80 -0.0035025 91.612 0.10540
164.38 9205.4 undefined 542.86 675.09 1.9918 480.00 0.0020833 542.86 675.09 1.9918 2.2419 2.8338 930.26 -0.0035123 91.630 0.10554 480.00 0.0020833 542.86 675.09 1.9918 2.2419 2.8338 930.26 -0.0035123 91.630 0.10554
165.38 9272.4 undefined 545.10 678.29 1.9969 480.00 0.0020833 545.10 678.29 1.9969 2.2460 2.8363 931.73 -0.0035220 91.648 0.10568 480.00 0.0020833 545.10 678.29 1.9969 2.2460 2.8363 931.73 -0.0035220 91.648 0.10568
166.38 9339.4 undefined 547.35 681.50 2.0020 480.00 0.0020833 547.35 681.50 2.0020 2.2501 2.8388 933.18 -0.0035316 91.666 0.10582 480.00 0.0020833 547.35 681.50 2.0020 2.2501 2.8388 933.18 -0.0035316 91.666 0.10582
167.38 9406.3 undefined 549.60 684.72 2.0071 480.00 0.0020833 549.60 684.72 2.0071 2.2542 2.8413 934.64 -0.0035410 91.684 0.10595 480.00 0.0020833 549.60 684.72 2.0071 2.2542 2.8413 934.64 -0.0035410 91.684 0.10595
168.38 9473.2 undefined 551.86 687.93 2.0122 480.00 0.0020833 551.86 687.93 2.0122 2.2583 2.8438 936.09 -0.0035503 91.702 0.10609 480.00 0.0020833 551.86 687.93 2.0122 2.2583 2.8438 936.09 -0.0035503 91.702 0.10609
169.38 9540.0 undefined 554.12 691.15 2.0174 480.00 0.0020833 554.12 691.15 2.0174 2.2623 2.8463 937.53 -0.0035594 91.720 0.10623 480.00 0.0020833 554.12 691.15 2.0174 2.2623 2.8463 937.53 -0.0035594 91.720 0.10623
170.38 9606.9 undefined 556.38 694.38 2.0225 480.00 0.0020833 556.38 694.38 2.0225 2.2664 2.8488 938.97 -0.0035684 91.738 0.10637 480.00 0.0020833 556.38 694.38 2.0225 2.2664 2.8488 938.97 -0.0035684 91.738 0.10637
171.38 9673.7 undefined 558.65 697.61 2.0276 480.00 0.0020833 558.65 697.61 2.0276 2.2705 2.8513 940.41 -0.0035772 91.756 0.10651 480.00 0.0020833 558.65 697.61 2.0276 2.2705 2.8513 940.41 -0.0035772 91.756 0.10651
172.38 9740.4 undefined 560.92 700.84 2.0327 480.00 0.0020833 560.92 700.84 2.0327 2.2745 2.8538 941.84 -0.0035860 91.774 0.10665 480.00 0.0020833 560.92 700.84 2.0327 2.2745 2.8538 941.84 -0.0035860 91.774 0.10665
173.38 9807.2 undefined 563.20 704.07 2.0378 480.00 0.0020833 563.20 704.07 2.0378 2.2786 2.8564 943.27 -0.0035946 91.792 0.10679 480.00 0.0020833 563.20 704.07 2.0378 2.2786 2.8564 943.27 -0.0035946 91.792 0.10679
174.38 9873.9 undefined 565.48 707.31 2.0429 480.00 0.0020833 565.48 707.31 2.0429 2.2827 2.8589 944.70 -0.0036030 91.810 0.10693 480.00 0.0020833 565.48 707.31 2.0429 2.2827 2.8589 944.70 -0.0036030 91.810 0.10693
175.38 9940.5 undefined 567.77 710.55 2.0480 480.00 0.0020833 567.77 710.55 2.0480 2.2867 2.8615 946.12 -0.0036114 91.828 0.10707 480.00 0.0020833 567.77 710.55 2.0480 2.2867 2.8615 946.12 -0.0036114 91.828 0.10707
176.38 10007. undefined 570.06 713.80 2.0531 480.00 0.0020833 570.06 713.80 2.0531 2.2908 2.8640 947.54 -0.0036196 91.846 0.10722 480.00 0.0020833 570.06 713.80 2.0531 2.2908 2.8640 947.54 -0.0036196 91.846 0.10722
177.38 10074. undefined 572.35 717.05 2.0582 480.00 0.0020833 572.35 717.05 2.0582 2.2948 2.8666 948.95 -0.0036277 91.864 0.10736 480.00 0.0020833 572.35 717.05 2.0582 2.2948 2.8666 948.95 -0.0036277 91.864 0.10736
178.38 10140. undefined 574.64 720.30 2.0633 480.00 0.0020833 574.64 720.30 2.0633 2.2988 2.8692 950.36 -0.0036357 91.882 0.10750 480.00 0.0020833 574.64 720.30 2.0633 2.2988 2.8692 950.36 -0.0036357 91.882 0.10750
179.38 10207. undefined 576.95 723.56 2.0684 480.00 0.0020833 576.95 723.56 2.0684 2.3029 2.8718 951.77 -0.0036435 91.900 0.10764 480.00 0.0020833 576.95 723.56 2.0684 2.3029 2.8718 951.77 -0.0036435 91.900 0.10764
180.38 10273. undefined 579.25 726.82 2.0735 480.00 0.0020833 579.25 726.82 2.0735 2.3069 2.8743 953.17 -0.0036513 91.919 0.10778 480.00 0.0020833 579.25 726.82 2.0735 2.3069 2.8743 953.17 -0.0036513 91.919 0.10778
181.38 10340. undefined 581.56 730.08 2.0785 480.00 0.0020833 581.56 730.08 2.0785 2.3109 2.8769 954.57 -0.0036589 91.937 0.10793 480.00 0.0020833 581.56 730.08 2.0785 2.3109 2.8769 954.57 -0.0036589 91.937 0.10793
182.38 10406. undefined 583.87 733.35 2.0836 480.00 0.0020833 583.87 733.35 2.0836 2.3149 2.8795 955.96 -0.0036664 91.955 0.10807 480.00 0.0020833 583.87 733.35 2.0836 2.3149 2.8795 955.96 -0.0036664 91.955 0.10807
183.38 10473. undefined 586.19 736.62 2.0887 480.00 0.0020833 586.19 736.62 2.0887 2.3189 2.8821 957.35 -0.0036738 91.973 0.10821 480.00 0.0020833 586.19 736.62 2.0887 2.3189 2.8821 957.35 -0.0036738 91.973 0.10821
184.38 10539. undefined 588.51 739.90 2.0938 480.00 0.0020833 588.51 739.90 2.0938 2.3230 2.8848 958.74 -0.0036811 91.991 0.10836 480.00 0.0020833 588.51 739.90 2.0938 2.3230 2.8848 958.74 -0.0036811 91.991 0.10836
185.38 10606. undefined 590.84 743.17 2.0989 480.00 0.0020833 590.84 743.17 2.0989 2.3270 2.8874 960.12 -0.0036882 92.010 0.10850 480.00 0.0020833 590.84 743.17 2.0989 2.3270 2.8874 960.12 -0.0036882 92.010 0.10850
186.38 10672. undefined 593.16 746.46 2.1039 480.00 0.0020833 593.16 746.46 2.1039 2.3310 2.8900 961.50 -0.0036953 92.028 0.10864 480.00 0.0020833 593.16 746.46 2.1039 2.3310 2.8900 961.50 -0.0036953 92.028 0.10864
187.38 10738. undefined 595.50 749.74 2.1090 480.00 0.0020833 595.50 749.74 2.1090 2.3350 2.8926 962.88 -0.0037023 92.046 0.10879 480.00 0.0020833 595.50 749.74 2.1090 2.3350 2.8926 962.88 -0.0037023 92.046 0.10879
188.38 10804. undefined 597.83 753.03 2.1141 480.00 0.0020833 597.83 753.03 2.1141 2.3390 2.8953 964.25 -0.0037091 92.064 0.10893 480.00 0.0020833 597.83 753.03 2.1141 2.3390 2.8953 964.25 -0.0037091 92.064 0.10893
189.38 10871. undefined 600.18 756.32 2.1191 480.00 0.0020833 600.18 756.32 2.1191 2.3429 2.8979 965.62 -0.0037159 92.082 0.10908 480.00 0.0020833 600.18 756.32 2.1191 2.3429 2.8979 965.62 -0.0037159 92.082 0.10908
190.38 10937. undefined 602.52 759.62 2.1242 480.00 0.0020833 602.52 759.62 2.1242 2.3469 2.9005 966.98 -0.0037225 92.101 0.10922 480.00 0.0020833 602.52 759.62 2.1242 2.3469 2.9005 966.98 -0.0037225 92.101 0.10922
191.38 11003. undefined 604.87 762.92 2.1293 480.00 0.0020833 604.87 762.92 2.1293 2.3509 2.9032 968.34 -0.0037291 92.119 0.10937 480.00 0.0020833 604.87 762.92 2.1293 2.3509 2.9032 968.34 -0.0037291 92.119 0.10937
192.38 11069. undefined 607.22 766.22 2.1343 480.00 0.0020833 607.22 766.22 2.1343 2.3549 2.9058 969.70 -0.0037355 92.137 0.10952 480.00 0.0020833 607.22 766.22 2.1343 2.3549 2.9058 969.70 -0.0037355 92.137 0.10952
193.38 11135. undefined 609.58 769.53 2.1394 480.00 0.0020833 609.58 769.53 2.1394 2.3588 2.9085 971.06 -0.0037419 92.156 0.10966 480.00 0.0020833 609.58 769.53 2.1394 2.3588 2.9085 971.06 -0.0037419 92.156 0.10966
194.38 11201. undefined 611.94 772.84 2.1444 480.00 0.0020833 611.94 772.84 2.1444 2.3628 2.9112 972.41 -0.0037481 92.174 0.10981 480.00 0.0020833 611.94 772.84 2.1444 2.3628 2.9112 972.41 -0.0037481 92.174 0.10981
195.38 11267. undefined 614.30 776.15 2.1495 480.00 0.0020833 614.30 776.15 2.1495 2.3668 2.9138 973.76 -0.0037543 92.192 0.10995 480.00 0.0020833 614.30 776.15 2.1495 2.3668 2.9138 973.76 -0.0037543 92.192 0.10995
196.38 11333. undefined 616.67 779.47 2.1545 480.00 0.0020833 616.67 779.47 2.1545 2.3707 2.9165 975.10 -0.0037604 92.211 0.11010 480.00 0.0020833 616.67 779.47 2.1545 2.3707 2.9165 975.10 -0.0037604 92.211 0.11010
197.38 11399. undefined 619.05 782.79 2.1596 480.00 0.0020833 619.05 782.79 2.1596 2.3747 2.9192 976.44 -0.0037664 92.229 0.11025 480.00 0.0020833 619.05 782.79 2.1596 2.3747 2.9192 976.44 -0.0037664 92.229 0.11025
198.38 11465. undefined 621.42 786.11 2.1646 480.00 0.0020833 621.42 786.11 2.1646 2.3786 2.9219 977.78 -0.0037723 92.247 0.11040 480.00 0.0020833 621.42 786.11 2.1646 2.3786 2.9219 977.78 -0.0037723 92.247 0.11040
199.38 11531. undefined 623.80 789.44 2.1697 480.00 0.0020833 623.80 789.44 2.1697 2.3825 2.9246 979.11 -0.0037781 92.266 0.11055 480.00 0.0020833 623.80 789.44 2.1697 2.3825 2.9246 979.11 -0.0037781 92.266 0.11055
200.38 11597. undefined 626.19 792.77 2.1747 480.00 0.0020833 626.19 792.77 2.1747 2.3865 2.9272 980.44 -0.0037838 92.284 0.11069 480.00 0.0020833 626.19 792.77 2.1747 2.3865 2.9272 980.44 -0.0037838 92.284 0.11069
201.38 11663. undefined 628.58 796.10 2.1798 480.00 0.0020833 628.58 796.10 2.1798 2.3904 2.9299 981.77 -0.0037894 92.302 0.11084 480.00 0.0020833 628.58 796.10 2.1798 2.3904 2.9299 981.77 -0.0037894 92.302 0.11084
202.38 11729. undefined 630.97 799.44 2.1848 480.00 0.0020833 630.97 799.44 2.1848 2.3943 2.9326 983.10 -0.0037949 92.321 0.11099 480.00 0.0020833 630.97 799.44 2.1848 2.3943 2.9326 983.10 -0.0037949 92.321 0.11099
203.38 11794. undefined 633.36 802.78 2.1898 480.00 0.0020833 633.36 802.78 2.1898 2.3983 2.9353 984.42 -0.0038004 92.339 0.11114 480.00 0.0020833 633.36 802.78 2.1898 2.3983 2.9353 984.42 -0.0038004 92.339 0.11114
204.38 11860. undefined 635.76 806.13 2.1949 480.00 0.0020833 635.76 806.13 2.1949 2.4022 2.9380 985.74 -0.0038058 92.357 0.11129 480.00 0.0020833 635.76 806.13 2.1949 2.4022 2.9380 985.74 -0.0038058 92.357 0.11129
205.38 11926. undefined 638.17 809.47 2.1999 480.00 0.0020833 638.17 809.47 2.1999 2.4061 2.9408 987.05 -0.0038111 92.376 0.11144 480.00 0.0020833 638.17 809.47 2.1999 2.4061 2.9408 987.05 -0.0038111 92.376 0.11144
206.38 11992. undefined 640.58 812.83 2.2049 480.00 0.0020833 640.58 812.83 2.2049 2.4100 2.9435 988.36 -0.0038163 92.394 0.11159 480.00 0.0020833 640.58 812.83 2.2049 2.4100 2.9435 988.36 -0.0038163 92.394 0.11159
207.38 12057. undefined 642.99 816.18 2.2099 480.00 0.0020833 642.99 816.18 2.2099 2.4139 2.9462 989.67 -0.0038214 92.413 0.11174 480.00 0.0020833 642.99 816.18 2.2099 2.4139 2.9462 989.67 -0.0038214 92.413 0.11174
208.38 12123. undefined 645.40 819.54 2.2150 480.00 0.0020833 645.40 819.54 2.2150 2.4178 2.9489 990.98 -0.0038265 92.431 0.11189 480.00 0.0020833 645.40 819.54 2.2150 2.4178 2.9489 990.98 -0.0038265 92.431 0.11189
209.38 12188. undefined 647.82 822.90 2.2200 480.00 0.0020833 647.82 822.90 2.2200 2.4217 2.9516 992.28 -0.0038314 92.449 0.11204 480.00 0.0020833 647.82 822.90 2.2200 2.4217 2.9516 992.28 -0.0038314 92.449 0.11204
210.38 12254. undefined 650.25 826.27 2.2250 480.00 0.0020833 650.25 826.27 2.2250 2.4256 2.9543 993.58 -0.0038363 92.468 0.11219 480.00 0.0020833 650.25 826.27 2.2250 2.4256 2.9543 993.58 -0.0038363 92.468 0.11219
211.38 12320. undefined 652.68 829.63 2.2300 480.00 0.0020833 652.68 829.63 2.2300 2.4295 2.9571 994.88 -0.0038412 92.486 0.11234 480.00 0.0020833 652.68 829.63 2.2300 2.4295 2.9571 994.88 -0.0038412 92.486 0.11234
212.38 12385. undefined 655.11 833.01 2.2350 480.00 0.0020833 655.11 833.01 2.2350 2.4333 2.9598 996.17 -0.0038459 92.505 0.11250 480.00 0.0020833 655.11 833.01 2.2350 2.4333 2.9598 996.17 -0.0038459 92.505 0.11250
213.38 12451. undefined 657.54 836.38 2.2400 480.00 0.0020833 657.54 836.38 2.2400 2.4372 2.9625 997.46 -0.0038506 92.523 0.11265 480.00 0.0020833 657.54 836.38 2.2400 2.4372 2.9625 997.46 -0.0038506 92.523 0.11265
214.38 12516. undefined 659.98 839.76 2.2450 480.00 0.0020833 659.98 839.76 2.2450 2.4411 2.9653 998.75 -0.0038552 92.542 0.11280 480.00 0.0020833 659.98 839.76 2.2450 2.4411 2.9653 998.75 -0.0038552 92.542 0.11280
215.38 12581. undefined 662.42 843.14 2.2501 480.00 0.0020833 662.42 843.14 2.2501 2.4449 2.9680 1000.0 -0.0038597 92.560 0.11295 480.00 0.0020833 662.42 843.14 2.2501 2.4449 2.9680 1000.0 -0.0038597 92.560 0.11295
216.38 12647. undefined 664.87 846.53 2.2551 480.00 0.0020833 664.87 846.53 2.2551 2.4488 2.9707 1001.3 -0.0038642 92.579 0.11311 480.00 0.0020833 664.87 846.53 2.2551 2.4488 2.9707 1001.3 -0.0038642 92.579 0.11311
217.38 12712. undefined 667.32 849.92 2.2601 480.00 0.0020833 667.32 849.92 2.2601 2.4526 2.9735 1002.6 -0.0038686 92.597 0.11326 480.00 0.0020833 667.32 849.92 2.2601 2.4526 2.9735 1002.6 -0.0038686 92.597 0.11326
218.38 12777. undefined 669.78 853.31 2.2651 480.00 0.0020833 669.78 853.31 2.2651 2.4565 2.9762 1003.9 -0.0038729 92.616 0.11341 480.00 0.0020833 669.78 853.31 2.2651 2.4565 2.9762 1003.9 -0.0038729 92.616 0.11341
219.38 12843. undefined 672.24 856.71 2.2701 480.00 0.0020833 672.24 856.71 2.2701 2.4603 2.9790 1005.1 -0.0038771 92.634 0.11357 480.00 0.0020833 672.24 856.71 2.2701 2.4603 2.9790 1005.1 -0.0038771 92.634 0.11357
220.38 12908. undefined 674.70 860.11 2.2750 480.00 0.0020833 674.70 860.11 2.2750 2.4642 2.9817 1006.4 -0.0038813 92.653 0.11372 480.00 0.0020833 674.70 860.11 2.2750 2.4642 2.9817 1006.4 -0.0038813 92.653 0.11372
221.38 12973. undefined 677.16 863.51 2.2800 480.00 0.0020833 677.16 863.51 2.2800 2.4680 2.9845 1007.7 -0.0038854 92.671 0.11388 480.00 0.0020833 677.16 863.51 2.2800 2.4680 2.9845 1007.7 -0.0038854 92.671 0.11388
222.38 13038. undefined 679.63 866.92 2.2850 480.00 0.0020833 679.63 866.92 2.2850 2.4718 2.9872 1008.9 -0.0038895 92.690 0.11403 480.00 0.0020833 679.63 866.92 2.2850 2.4718 2.9872 1008.9 -0.0038895 92.690 0.11403
223.38 13103. undefined 682.11 870.33 2.2900 480.00 0.0020833 682.11 870.33 2.2900 2.4757 2.9900 1010.2 -0.0038935 92.708 0.11418 480.00 0.0020833 682.11 870.33 2.2900 2.4757 2.9900 1010.2 -0.0038935 92.708 0.11418
224.38 13169. undefined 684.58 873.74 2.2950 480.00 0.0020833 684.58 873.74 2.2950 2.4795 2.9927 1011.5 -0.0038974 92.727 0.11434 480.00 0.0020833 684.58 873.74 2.2950 2.4795 2.9927 1011.5 -0.0038974 92.727 0.11434
225.38 13234. undefined 687.07 877.15 2.3000 480.00 0.0020833 687.07 877.15 2.3000 2.4833 2.9955 1012.7 -0.0039013 92.745 0.11450 480.00 0.0020833 687.07 877.15 2.3000 2.4833 2.9955 1012.7 -0.0039013 92.745 0.11450
226.38 13299. undefined 689.55 880.57 2.3050 480.00 0.0020833 689.55 880.57 2.3050 2.4871 2.9982 1014.0 -0.0039051 92.764 0.11465 480.00 0.0020833 689.55 880.57 2.3050 2.4871 2.9982 1014.0 -0.0039051 92.764 0.11465
227.38 13364. undefined 692.04 884.00 2.3099 480.00 0.0020833 692.04 884.00 2.3099 2.4909 3.0010 1015.2 -0.0039088 92.782 0.11481 480.00 0.0020833 692.04 884.00 2.3099 2.4909 3.0010 1015.2 -0.0039088 92.782 0.11481
228.38 13429. undefined 694.53 887.42 2.3149 480.00 0.0020833 694.53 887.42 2.3149 2.4947 3.0038 1016.5 -0.0039125 92.801 0.11496 480.00 0.0020833 694.53 887.42 2.3149 2.4947 3.0038 1016.5 -0.0039125 92.801 0.11496
229.38 13494. undefined 697.03 890.85 2.3199 480.00 0.0020833 697.03 890.85 2.3199 2.4985 3.0065 1017.7 -0.0039161 92.819 0.11512 480.00 0.0020833 697.03 890.85 2.3199 2.4985 3.0065 1017.7 -0.0039161 92.819 0.11512
230.38 13559. undefined 699.53 894.29 2.3249 480.00 0.0020833 699.53 894.29 2.3249 2.5023 3.0093 1018.9 -0.0039197 92.838 0.11528 480.00 0.0020833 699.53 894.29 2.3249 2.5023 3.0093 1018.9 -0.0039197 92.838 0.11528
231.38 13623. undefined 702.03 897.72 2.3298 480.00 0.0020833 702.03 897.72 2.3298 2.5061 3.0121 1020.2 -0.0039232 92.856 0.11544 480.00 0.0020833 702.03 897.72 2.3298 2.5061 3.0121 1020.2 -0.0039232 92.856 0.11544
232.38 13688. undefined 704.54 901.16 2.3348 480.00 0.0020833 704.54 901.16 2.3348 2.5098 3.0148 1021.4 -0.0039266 92.875 0.11559 480.00 0.0020833 704.54 901.16 2.3348 2.5098 3.0148 1021.4 -0.0039266 92.875 0.11559
233.38 13753. undefined 707.05 904.60 2.3398 480.00 0.0020833 707.05 904.60 2.3398 2.5136 3.0176 1022.7 -0.0039300 92.893 0.11575 480.00 0.0020833 707.05 904.60 2.3398 2.5136 3.0176 1022.7 -0.0039300 92.893 0.11575
234.38 13818. undefined 709.57 908.05 2.3447 480.00 0.0020833 709.57 908.05 2.3447 2.5174 3.0204 1023.9 -0.0039334 92.912 0.11591 480.00 0.0020833 709.57 908.05 2.3447 2.5174 3.0204 1023.9 -0.0039334 92.912 0.11591
235.38 13883. undefined 712.09 911.50 2.3497 480.00 0.0020833 712.09 911.50 2.3497 2.5212 3.0231 1025.1 -0.0039367 92.931 0.11607 480.00 0.0020833 712.09 911.50 2.3497 2.5212 3.0231 1025.1 -0.0039367 92.931 0.11607
236.38 13947. undefined 714.61 914.95 2.3546 480.00 0.0020833 714.61 914.95 2.3546 2.5249 3.0259 1026.3 -0.0039399 92.949 0.11623 480.00 0.0020833 714.61 914.95 2.3546 2.5249 3.0259 1026.3 -0.0039399 92.949 0.11623
237.38 14012. undefined 717.14 918.41 2.3596 480.00 0.0020833 717.14 918.41 2.3596 2.5287 3.0287 1027.6 -0.0039431 92.968 0.11639 480.00 0.0020833 717.14 918.41 2.3596 2.5287 3.0287 1027.6 -0.0039431 92.968 0.11639
238.38 14077. undefined 719.67 921.87 2.3645 480.00 0.0020833 719.67 921.87 2.3645 2.5324 3.0315 1028.8 -0.0039462 92.986 0.11655 480.00 0.0020833 719.67 921.87 2.3645 2.5324 3.0315 1028.8 -0.0039462 92.986 0.11655
239.38 14141. undefined 722.20 925.33 2.3695 480.00 0.0020833 722.20 925.33 2.3695 2.5362 3.0342 1030.0 -0.0039493 93.005 0.11671 480.00 0.0020833 722.20 925.33 2.3695 2.5362 3.0342 1030.0 -0.0039493 93.005 0.11671
240.38 14206. undefined 724.74 928.80 2.3744 480.00 0.0020833 724.74 928.80 2.3744 2.5399 3.0370 1031.2 -0.0039523 93.023 0.11687 480.00 0.0020833 724.74 928.80 2.3744 2.5399 3.0370 1031.2 -0.0039523 93.023 0.11687
241.38 14271. undefined 727.28 932.27 2.3794 480.00 0.0020833 727.28 932.27 2.3794 2.5436 3.0398 1032.4 -0.0039553 93.042 0.11703 480.00 0.0020833 727.28 932.27 2.3794 2.5436 3.0398 1032.4 -0.0039553 93.042 0.11703
242.38 14335. undefined 729.83 935.74 2.3843 480.00 0.0020833 729.83 935.74 2.3843 2.5474 3.0426 1033.6 -0.0039582 93.061 0.11719 480.00 0.0020833 729.83 935.74 2.3843 2.5474 3.0426 1033.6 -0.0039582 93.061 0.11719
243.38 14400. undefined 732.38 939.22 2.3893 480.00 0.0020833 732.38 939.22 2.3893 2.5511 3.0453 1034.8 -0.0039610 93.079 0.11735 480.00 0.0020833 732.38 939.22 2.3893 2.5511 3.0453 1034.8 -0.0039610 93.079 0.11735
244.38 14464. undefined 734.93 942.70 2.3942 480.00 0.0020833 734.93 942.70 2.3942 2.5548 3.0481 1036.1 -0.0039639 93.098 0.11751 480.00 0.0020833 734.93 942.70 2.3942 2.5548 3.0481 1036.1 -0.0039639 93.098 0.11751
245.38 14529. undefined 737.49 946.18 2.3991 480.00 0.0020833 737.49 946.18 2.3991 2.5585 3.0509 1037.3 -0.0039666 93.116 0.11767 480.00 0.0020833 737.49 946.18 2.3991 2.5585 3.0509 1037.3 -0.0039666 93.116 0.11767
246.38 14593. undefined 740.05 949.66 2.4041 480.00 0.0020833 740.05 949.66 2.4041 2.5622 3.0537 1038.5 -0.0039694 93.135 0.11783 480.00 0.0020833 740.05 949.66 2.4041 2.5622 3.0537 1038.5 -0.0039694 93.135 0.11783
247.38 14657. undefined 742.61 953.15 2.4090 480.00 0.0020833 742.61 953.15 2.4090 2.5659 3.0565 1039.7 -0.0039720 93.153 0.11799 480.00 0.0020833 742.61 953.15 2.4090 2.5659 3.0565 1039.7 -0.0039720 93.153 0.11799
248.38 14722. undefined 745.18 956.65 2.4139 480.00 0.0020833 745.18 956.65 2.4139 2.5696 3.0592 1040.8 -0.0039747 93.172 0.11816 480.00 0.0020833 745.18 956.65 2.4139 2.5696 3.0592 1040.8 -0.0039747 93.172 0.11816
249.38 14786. undefined 747.75 960.14 2.4189 480.00 0.0020833 747.75 960.14 2.4189 2.5733 3.0620 1042.0 -0.0039773 93.191 0.11832 480.00 0.0020833 747.75 960.14 2.4189 2.5733 3.0620 1042.0 -0.0039773 93.191 0.11832
250.38 14850. undefined 750.33 963.64 2.4238 480.00 0.0020833 750.33 963.64 2.4238 2.5770 3.0648 1043.2 -0.0039798 93.209 0.11848 480.00 0.0020833 750.33 963.64 2.4238 2.5770 3.0648 1043.2 -0.0039798 93.209 0.11848
251.38 14915. undefined 752.91 967.14 2.4287 480.00 0.0020833 752.91 967.14 2.4287 2.5807 3.0676 1044.4 -0.0039823 93.228 0.11864 480.00 0.0020833 752.91 967.14 2.4287 2.5807 3.0676 1044.4 -0.0039823 93.228 0.11864
252.38 14979. undefined 755.49 970.65 2.4336 480.00 0.0020833 755.49 970.65 2.4336 2.5844 3.0704 1045.6 -0.0039848 93.246 0.11881 480.00 0.0020833 755.49 970.65 2.4336 2.5844 3.0704 1045.6 -0.0039848 93.246 0.11881
253.38 15043. undefined 758.07 974.16 2.4385 480.00 0.0020833 758.07 974.16 2.4385 2.5881 3.0731 1046.8 -0.0039872 93.265 0.11897 480.00 0.0020833 758.07 974.16 2.4385 2.5881 3.0731 1046.8 -0.0039872 93.265 0.11897
254.38 15107. undefined 760.66 977.67 2.4434 480.00 0.0020833 760.66 977.67 2.4434 2.5917 3.0759 1048.0 -0.0039895 93.284 0.11914 480.00 0.0020833 760.66 977.67 2.4434 2.5917 3.0759 1048.0 -0.0039895 93.284 0.11914
255.38 15171. undefined 763.26 981.18 2.4484 480.00 0.0020833 763.26 981.18 2.4484 2.5954 3.0787 1049.1 -0.0039919 93.302 0.11930 480.00 0.0020833 763.26 981.18 2.4484 2.5954 3.0787 1049.1 -0.0039919 93.302 0.11930
256.38 15236. undefined 765.85 984.70 2.4533 480.00 0.0020833 765.85 984.70 2.4533 2.5991 3.0815 1050.3 -0.0039941 93.321 0.11946 480.00 0.0020833 765.85 984.70 2.4533 2.5991 3.0815 1050.3 -0.0039941 93.321 0.11946
257.38 15300. undefined 768.46 988.22 2.4582 480.00 0.0020833 768.46 988.22 2.4582 2.6027 3.0843 1051.5 -0.0039964 93.339 0.11963 480.00 0.0020833 768.46 988.22 2.4582 2.6027 3.0843 1051.5 -0.0039964 93.339 0.11963
258.38 15364. undefined 771.06 991.75 2.4631 480.00 0.0020833 771.06 991.75 2.4631 2.6064 3.0870 1052.7 -0.0039986 93.358 0.11979 480.00 0.0020833 771.06 991.75 2.4631 2.6064 3.0870 1052.7 -0.0039986 93.358 0.11979
259.38 15428. undefined 773.67 995.27 2.4680 480.00 0.0020833 773.67 995.27 2.4680 2.6100 3.0898 1053.8 -0.0040007 93.377 0.11996 480.00 0.0020833 773.67 995.27 2.4680 2.6100 3.0898 1053.8 -0.0040007 93.377 0.11996
260.38 15492. undefined 776.28 998.80 2.4729 480.00 0.0020833 776.28 998.80 2.4729 2.6136 3.0926 1055.0 -0.0040029 93.395 0.12013 480.00 0.0020833 776.28 998.80 2.4729 2.6136 3.0926 1055.0 -0.0040029 93.395 0.12013
261.38 15556. undefined 778.90 1002.3 2.4778 480.00 0.0020833 778.90 1002.3 2.4778 2.6173 3.0954 1056.2 -0.0040049 93.414 0.12029 480.00 0.0020833 778.90 1002.3 2.4778 2.6173 3.0954 1056.2 -0.0040049 93.414 0.12029
262.38 15620. undefined 781.51 1005.9 2.4827 480.00 0.0020833 781.51 1005.9 2.4827 2.6209 3.0982 1057.3 -0.0040070 93.432 0.12046 480.00 0.0020833 781.51 1005.9 2.4827 2.6209 3.0982 1057.3 -0.0040070 93.432 0.12046
263.38 15684. undefined 784.14 1009.4 2.4876 480.00 0.0020833 784.14 1009.4 2.4876 2.6245 3.1010 1058.5 -0.0040090 93.451 0.12063 480.00 0.0020833 784.14 1009.4 2.4876 2.6245 3.1010 1058.5 -0.0040090 93.451 0.12063
264.38 15747. undefined 786.76 1013.0 2.4925 480.00 0.0020833 786.76 1013.0 2.4925 2.6282 3.1037 1059.6 -0.0040110 93.470 0.12079 480.00 0.0020833 786.76 1013.0 2.4925 2.6282 3.1037 1059.6 -0.0040110 93.470 0.12079
265.38 15811. undefined 789.39 1016.5 2.4973 480.00 0.0020833 789.39 1016.5 2.4973 2.6318 3.1065 1060.8 -0.0040129 93.488 0.12096 480.00 0.0020833 789.39 1016.5 2.4973 2.6318 3.1065 1060.8 -0.0040129 93.488 0.12096
266.38 15875. undefined 792.03 1020.1 2.5022 480.00 0.0020833 792.03 1020.1 2.5022 2.6354 3.1093 1062.0 -0.0040148 93.507 0.12113 480.00 0.0020833 792.03 1020.1 2.5022 2.6354 3.1093 1062.0 -0.0040148 93.507 0.12113
267.38 15939. undefined 794.66 1023.6 2.5071 480.00 0.0020833 794.66 1023.6 2.5071 2.6390 3.1121 1063.1 -0.0040166 93.525 0.12130 480.00 0.0020833 794.66 1023.6 2.5071 2.6390 3.1121 1063.1 -0.0040166 93.525 0.12130
268.38 16003. undefined 797.31 1027.2 2.5120 480.00 0.0020833 797.31 1027.2 2.5120 2.6426 3.1148 1064.3 -0.0040185 93.544 0.12146 480.00 0.0020833 797.31 1027.2 2.5120 2.6426 3.1148 1064.3 -0.0040185 93.544 0.12146
269.38 16066. undefined 799.95 1030.7 2.5169 480.00 0.0020833 799.95 1030.7 2.5169 2.6462 3.1176 1065.4 -0.0040202 93.562 0.12163 480.00 0.0020833 799.95 1030.7 2.5169 2.6462 3.1176 1065.4 -0.0040202 93.562 0.12163
270.38 16130. undefined 802.60 1034.3 2.5218 480.00 0.0020833 802.60 1034.3 2.5218 2.6498 3.1204 1066.5 -0.0040220 93.581 0.12180 480.00 0.0020833 802.60 1034.3 2.5218 2.6498 3.1204 1066.5 -0.0040220 93.581 0.12180
271.38 16194. undefined 805.25 1037.9 2.5266 480.00 0.0020833 805.25 1037.9 2.5266 2.6534 3.1232 1067.7 -0.0040237 93.600 0.12197 480.00 0.0020833 805.25 1037.9 2.5266 2.6534 3.1232 1067.7 -0.0040237 93.600 0.12197
272.38 16257. undefined 807.90 1041.4 2.5315 480.00 0.0020833 807.90 1041.4 2.5315 2.6569 3.1260 1068.8 -0.0040254 93.618 0.12214 480.00 0.0020833 807.90 1041.4 2.5315 2.6569 3.1260 1068.8 -0.0040254 93.618 0.12214
273.38 16321. undefined 810.56 1045.0 2.5364 480.00 0.0020833 810.56 1045.0 2.5364 2.6605 3.1287 1070.0 -0.0040270 93.637 0.12231 480.00 0.0020833 810.56 1045.0 2.5364 2.6605 3.1287 1070.0 -0.0040270 93.637 0.12231
274.38 16384. undefined 813.23 1048.6 2.5412 480.00 0.0020833 813.23 1048.6 2.5412 2.6641 3.1315 1071.1 -0.0040286 93.655 0.12248 480.00 0.0020833 813.23 1048.6 2.5412 2.6641 3.1315 1071.1 -0.0040286 93.655 0.12248
275.38 16448. undefined 815.89 1052.2 2.5461 480.00 0.0020833 815.89 1052.2 2.5461 2.6677 3.1343 1072.2 -0.0040302 93.674 0.12265 480.00 0.0020833 815.89 1052.2 2.5461 2.6677 3.1343 1072.2 -0.0040302 93.674 0.12265
276.38 16511. undefined 818.56 1055.7 2.5510 480.00 0.0020833 818.56 1055.7 2.5510 2.6712 3.1371 1073.4 -0.0040318 93.693 0.12282 480.00 0.0020833 818.56 1055.7 2.5510 2.6712 3.1371 1073.4 -0.0040318 93.693 0.12282
277.38 16575. undefined 821.23 1059.3 2.5558 480.00 0.0020833 821.23 1059.3 2.5558 2.6748 3.1398 1074.5 -0.0040333 93.711 0.12299 480.00 0.0020833 821.23 1059.3 2.5558 2.6748 3.1398 1074.5 -0.0040333 93.711 0.12299
278.38 16638. undefined 823.91 1062.9 2.5607 480.00 0.0020833 823.91 1062.9 2.5607 2.6783 3.1426 1075.6 -0.0040348 93.730 0.12316 480.00 0.0020833 823.91 1062.9 2.5607 2.6783 3.1426 1075.6 -0.0040348 93.730 0.12316
279.38 16702. undefined 826.59 1066.5 2.5655 480.00 0.0020833 826.59 1066.5 2.5655 2.6819 3.1454 1076.7 -0.0040362 93.748 0.12333 480.00 0.0020833 826.59 1066.5 2.5655 2.6819 3.1454 1076.7 -0.0040362 93.748 0.12333
280.38 16765. undefined 829.27 1070.1 2.5704 480.00 0.0020833 829.27 1070.1 2.5704 2.6854 3.1481 1077.9 -0.0040376 93.767 0.12350 480.00 0.0020833 829.27 1070.1 2.5704 2.6854 3.1481 1077.9 -0.0040376 93.767 0.12350
281.38 16828. undefined 831.96 1073.7 2.5752 480.00 0.0020833 831.96 1073.7 2.5752 2.6890 3.1509 1079.0 -0.0040390 93.785 0.12368 480.00 0.0020833 831.96 1073.7 2.5752 2.6890 3.1509 1079.0 -0.0040390 93.785 0.12368
282.38 16892. undefined 834.65 1077.3 2.5801 480.00 0.0020833 834.65 1077.3 2.5801 2.6925 3.1537 1080.1 -0.0040404 93.804 0.12351 480.00 0.0020833 834.65 1077.3 2.5801 2.6925 3.1537 1080.1 -0.0040404 93.804 0.12351
283.38 16955. undefined 837.35 1080.9 2.5849 480.00 0.0020833 837.35 1080.9 2.5849 2.6960 3.1565 1081.2 -0.0040417 93.823 0.12368 480.00 0.0020833 837.35 1080.9 2.5849 2.6960 3.1565 1081.2 -0.0040417 93.823 0.12368
284.38 17018. undefined 840.04 1084.5 2.5898 480.00 0.0020833 840.04 1084.5 2.5898 2.6995 3.1592 1082.3 -0.0040430 93.841 0.12385 480.00 0.0020833 840.04 1084.5 2.5898 2.6995 3.1592 1082.3 -0.0040430 93.841 0.12385
285.38 17082. undefined 842.75 1088.1 2.5946 480.00 0.0020833 842.75 1088.1 2.5946 2.7031 3.1620 1083.5 -0.0040443 93.860 0.12402 480.00 0.0020833 842.75 1088.1 2.5946 2.7031 3.1620 1083.5 -0.0040443 93.860 0.12402
286.38 17145. undefined 845.45 1091.7 2.5995 480.00 0.0020833 845.45 1091.7 2.5995 2.7066 3.1648 1084.6 -0.0040455 93.878 0.12420 480.00 0.0020833 845.45 1091.7 2.5995 2.7066 3.1648 1084.6 -0.0040455 93.878 0.12420
287.38 17208. undefined 848.16 1095.3 2.6043 480.00 0.0020833 848.16 1095.3 2.6043 2.7101 3.1675 1085.7 -0.0040467 93.897 0.12437 480.00 0.0020833 848.16 1095.3 2.6043 2.7101 3.1675 1085.7 -0.0040467 93.897 0.12437
288.38 17271. undefined 850.87 1099.0 2.6091 480.00 0.0020833 850.87 1099.0 2.6091 2.7136 3.1703 1086.8 -0.0040479 93.915 0.12454 480.00 0.0020833 850.87 1099.0 2.6091 2.7136 3.1703 1086.8 -0.0040479 93.915 0.12454
289.38 17334. undefined 853.59 1102.6 2.6140 480.00 0.0020833 853.59 1102.6 2.6140 2.7171 3.1730 1087.9 -0.0040491 93.934 0.12472 480.00 0.0020833 853.59 1102.6 2.6140 2.7171 3.1730 1087.9 -0.0040491 93.934 0.12472
290.38 17397. undefined 856.30 1106.2 2.6188 480.00 0.0020833 856.30 1106.2 2.6188 2.7206 3.1758 1089.0 -0.0040502 93.952 0.12489 480.00 0.0020833 856.30 1106.2 2.6188 2.7206 3.1758 1089.0 -0.0040502 93.952 0.12489
291.38 17460. undefined 859.03 1109.8 2.6236 480.00 0.0020833 859.03 1109.8 2.6236 2.7241 3.1786 1090.1 -0.0040513 93.971 0.12506 480.00 0.0020833 859.03 1109.8 2.6236 2.7241 3.1786 1090.1 -0.0040513 93.971 0.12506
292.38 17523. undefined 861.75 1113.5 2.6284 480.00 0.0020833 861.75 1113.5 2.6284 2.7275 3.1813 1091.2 -0.0040524 93.989 0.12524 480.00 0.0020833 861.75 1113.5 2.6284 2.7275 3.1813 1091.2 -0.0040524 93.989 0.12524
293.38 17586. undefined 864.48 1117.1 2.6333 480.00 0.0020833 864.48 1117.1 2.6333 2.7310 3.1841 1092.3 -0.0040534 94.008 0.12541 480.00 0.0020833 864.48 1117.1 2.6333 2.7310 3.1841 1092.3 -0.0040534 94.008 0.12541
294.38 17649. undefined 867.21 1120.7 2.6381 480.00 0.0020833 867.21 1120.7 2.6381 2.7345 3.1868 1093.4 -0.0040545 94.027 0.12559 480.00 0.0020833 867.21 1120.7 2.6381 2.7345 3.1868 1093.4 -0.0040545 94.027 0.12559
295.38 17712. undefined 869.95 1124.4 2.6429 480.00 0.0020833 869.95 1124.4 2.6429 2.7380 3.1896 1094.5 -0.0040555 94.045 0.12576 480.00 0.0020833 869.95 1124.4 2.6429 2.7380 3.1896 1094.5 -0.0040555 94.045 0.12576
296.38 17775. undefined 872.69 1128.0 2.6477 480.00 0.0020833 872.69 1128.0 2.6477 2.7414 3.1923 1095.6 -0.0040564 94.064 0.12594 480.00 0.0020833 872.69 1128.0 2.6477 2.7414 3.1923 1095.6 -0.0040564 94.064 0.12594
297.38 17838. undefined 875.43 1131.7 2.6525 480.00 0.0020833 875.43 1131.7 2.6525 2.7449 3.1951 1096.6 -0.0040574 94.082 0.12611 480.00 0.0020833 875.43 1131.7 2.6525 2.7449 3.1951 1096.6 -0.0040574 94.082 0.12611
298.38 17901. undefined 878.18 1135.3 2.6573 480.00 0.0020833 878.18 1135.3 2.6573 2.7483 3.1978 1097.7 -0.0040583 94.101 0.12629 480.00 0.0020833 878.18 1135.3 2.6573 2.7483 3.1978 1097.7 -0.0040583 94.101 0.12629
299.38 17964. undefined 880.93 1139.0 2.6621 480.00 0.0020833 880.93 1139.0 2.6621 2.7518 3.2006 1098.8 -0.0040592 94.119 0.12647 480.00 0.0020833 880.93 1139.0 2.6621 2.7518 3.2006 1098.8 -0.0040592 94.119 0.12647
300.38 18027. undefined 883.68 1142.6 2.6669 480.00 0.0020833 883.68 1142.6 2.6669 2.7552 3.2033 1099.9 -0.0040601 94.138 0.12664 480.00 0.0020833 883.68 1142.6 2.6669 2.7552 3.2033 1099.9 -0.0040601 94.138 0.12664