Temperature (C) Pressure (psia) Quality (l+v) Internal Energy (l+v, kJ/kg) Enthalpy (l+v, kJ/kg) Entropy (l+v, J/g*K) Density (l, kg/m3) Volume (l, m3/kg) Internal Energy (l, kJ/kg) Enthalpy (l, kJ/kg) Entropy (l, J/g*K) Cv (l, J/g*K) Cp (l, J/g*K) Sound Spd. (l, m/s) Joule-Thomson (l, F/psia) Viscosity (l, uPa*s) Therm. Cond. (l, W/m*K) Density (v, kg/m3) Volume (v, m3/kg) Internal Energy (v, kJ/kg) Enthalpy (v, kJ/kg) Entropy (v, J/g*K) Cv (v, J/g*K) Cp (v, J/g*K) Sound Spd. (v, m/s) Joule-Thomson (v, F/psia) Viscosity (v, uPa*s) Therm. Cond. (v, W/m*K)
-187.62 2.4953e-08 1.6326e-10 -196.64 -196.64 -1.3959 733.13 0.0013640 -196.64 -196.64 -1.3959 1.3553 1.9158 2136.4 -0.0077592 10960. 0.20792 1.0669e-08 9.3732e+07 350.13 366.26 5.1858 0.69067 0.87923 143.28 6.1051 2.3259 0.0017061
-186.62 3.7339e-08 2.4145e-10 -194.73 -194.73 -1.3736 732.08 0.0013660 -194.73 -194.73 -1.3736 1.3539 1.9166 2129.6 -0.0077546 10073. 0.20765 1.5780e-08 6.3371e+07 350.82 367.14 5.1200 0.69462 0.88317 144.03 5.9178 2.3534 0.0017533
-185.62 5.5322e-08 3.5359e-10 -192.81 -192.81 -1.3516 731.04 0.0013679 -192.81 -192.81 -1.3516 1.3525 1.9174 2122.9 -0.0077498 9276.1 0.20737 2.3112e-08 4.3267e+07 351.52 368.02 5.0561 0.69857 0.88713 144.77 5.7383 2.3808 0.0018007
-184.62 8.1182e-08 5.1295e-10 -190.89 -190.89 -1.3298 730.00 0.0013699 -190.89 -190.89 -1.3298 1.3513 1.9182 2116.1 -0.0077448 8557.8 0.20708 3.3533e-08 2.9821e+07 352.22 368.91 4.9939 0.70253 0.89108 145.51 5.5662 2.4083 0.0018485
-183.62 1.1803e-07 7.3738e-10 -188.97 -188.97 -1.3083 728.96 0.0013718 -188.97 -188.97 -1.3083 1.3501 1.9191 2109.3 -0.0077395 7909.8 0.20678 4.8211e-08 2.0742e+07 352.92 369.81 4.9333 0.70648 0.89504 146.24 5.4011 2.4357 0.0018965
-182.62 1.7009e-07 1.0507e-09 -187.05 -187.05 -1.2869 727.92 0.0013738 -187.05 -187.05 -1.2869 1.3490 1.9201 2102.5 -0.0077340 7324.3 0.20647 6.8704e-08 1.4555e+07 353.63 370.70 4.8744 0.71043 0.89899 146.97 5.2426 2.4632 0.0019448
-181.62 2.4299e-07 1.4844e-09 -185.13 -185.13 -1.2658 726.88 0.0013757 -185.13 -185.13 -1.2658 1.3480 1.9210 2095.7 -0.0077283 6794.5 0.20616 9.7079e-08 1.0301e+07 354.35 371.60 4.8170 0.71438 0.90294 147.69 5.0904 2.4906 0.0019934
-180.62 3.4425e-07 2.0800e-09 -183.21 -183.21 -1.2450 725.85 0.0013777 -183.21 -183.21 -1.2450 1.3470 1.9220 2088.9 -0.0077225 6314.4 0.20584 1.3605e-07 7.3504e+06 355.06 372.51 4.7612 0.71833 0.90688 148.41 4.9442 2.5181 0.0020423
-179.62 4.8378e-07 2.8915e-09 -181.29 -181.29 -1.2243 724.81 0.0013797 -181.29 -181.29 -1.2243 1.3461 1.9231 2082.0 -0.0077164 5878.8 0.20551 1.8915e-07 5.2868e+06 355.78 373.42 4.7068 0.72227 0.91082 149.13 4.8038 2.5456 0.0020915
-178.62 6.7459e-07 3.9888e-09 -179.37 -179.37 -1.2038 723.78 0.0013816 -179.37 -179.37 -1.2038 1.3453 1.9241 2075.2 -0.0077102 5482.9 0.20517 2.6096e-07 3.8320e+06 356.51 374.33 4.6538 0.72620 0.91475 149.84 4.6688 2.5731 0.0021410
-177.62 9.3358e-07 5.4617e-09 -177.44 -177.44 -1.1836 722.75 0.0013836 -177.44 -177.44 -1.1836 1.3445 1.9252 2068.4 -0.0077039 5122.6 0.20483 3.5737e-07 2.7982e+06 357.23 375.25 4.6022 0.73012 0.91867 150.54 4.5390 2.6005 0.0021907
-176.62 1.2826e-06 7.4248e-09 -175.52 -175.52 -1.1635 721.72 0.0013856 -175.52 -175.52 -1.1635 1.3437 1.9263 2061.5 -0.0076973 4794.1 0.20447 4.8588e-07 2.0581e+06 357.97 376.17 4.5519 0.73403 0.92258 151.25 4.4142 2.6280 0.0022408
-175.62 1.7496e-06 1.0023e-08 -173.59 -173.59 -1.1437 720.69 0.0013876 -173.59 -173.59 -1.1437 1.3430 1.9274 2054.7 -0.0076907 4494.3 0.20411 6.5601e-07 1.5244e+06 358.70 377.09 4.5029 0.73792 0.92648 151.95 4.2941 2.6555 0.0022912
-174.62 2.3705e-06 1.3440e-08 -171.66 -171.66 -1.1240 719.66 0.0013895 -171.66 -171.66 -1.1240 1.3423 1.9286 2047.9 -0.0076838 4220.2 0.20375 8.7976e-07 1.1367e+06 359.44 378.02 4.4551 0.74181 0.93036 152.64 4.1784 2.6830 0.0023418
-173.62 3.1903e-06 1.7905e-08 -169.73 -169.73 -1.1045 718.64 0.0013915 -169.73 -169.73 -1.1045 1.3417 1.9298 2041.0 -0.0076769 3969.3 0.20338 1.1721e-06 8.5314e+05 360.19 378.95 4.4085 0.74568 0.93423 153.33 4.0671 2.7105 0.0023928
-172.62 4.2661e-06 2.3701e-08 -167.80 -167.80 -1.0852 717.61 0.0013935 -167.80 -167.80 -1.0852 1.3411 1.9310 2034.2 -0.0076698 3739.3 0.20300 1.5518e-06 6.4441e+05 360.93 379.89 4.3631 0.74953 0.93809 154.02 3.9599 2.7379 0.0024440
-171.62 5.6692e-06 3.1182e-08 -165.87 -165.87 -1.0661 716.58 0.0013955 -165.87 -165.87 -1.0661 1.3405 1.9322 2027.3 -0.0076625 3528.0 0.20261 2.0419e-06 4.8974e+05 361.69 380.83 4.3188 0.75337 0.94193 154.71 3.8566 2.7654 0.0024955
-170.62 7.4884e-06 4.0781e-08 -163.94 -163.94 -1.0472 715.56 0.0013975 -163.94 -163.94 -1.0472 1.3400 1.9334 2020.5 -0.0076552 3333.8 0.20222 2.6708e-06 3.7442e+05 362.44 381.77 4.2755 0.75720 0.94575 155.39 3.7570 2.7929 0.0025473
-169.62 9.8334e-06 5.3027e-08 -162.00 -162.00 -1.0284 714.54 0.0013995 -162.00 -162.00 -1.0284 1.3395 1.9347 2013.6 -0.0076477 3154.9 0.20182 3.4733e-06 2.8791e+05 363.20 382.72 4.2334 0.76100 0.94956 156.07 3.6609 2.8204 0.0025994
-168.62 1.2839e-05 6.8566e-08 -160.07 -160.07 -1.0098 713.52 0.0014015 -160.07 -160.07 -1.0098 1.3390 1.9359 2006.8 -0.0076401 2989.9 0.20141 4.4917e-06 2.2263e+05 363.96 383.67 4.1922 0.76479 0.95335 156.74 3.5683 2.8479 0.0026518
-167.62 1.6672e-05 8.8177e-08 -158.13 -158.13 -0.99134 712.49 0.0014035 -158.13 -158.13 -0.99134 1.3386 1.9372 2000.0 -0.0076323 2837.5 0.20100 5.7771e-06 1.7310e+05 364.73 384.63 4.1521 0.76856 0.95712 157.41 3.4790 2.8754 0.0027045
-166.62 2.1533e-05 1.1280e-07 -156.19 -156.19 -0.97306 711.47 0.0014055 -156.19 -156.19 -0.97306 1.3382 1.9385 1993.1 -0.0076245 2696.5 0.20058 7.3914e-06 1.3529e+05 365.50 385.59 4.1129 0.77232 0.96087 158.08 3.3927 2.9029 0.0027575
-165.62 2.7666e-05 1.4356e-07 -154.25 -154.25 -0.95494 710.45 0.0014075 -154.25 -154.25 -0.95494 1.3378 1.9398 1986.3 -0.0076165 2566.0 0.20016 9.4084e-06 1.0629e+05 366.27 386.55 4.0746 0.77605 0.96460 158.75 3.3095 2.9304 0.0028108
-164.62 3.5367e-05 1.8181e-07 -152.31 -152.31 -0.93698 709.44 0.0014096 -152.31 -152.31 -0.93698 1.3375 1.9411 1979.4 -0.0076084 2444.9 0.19973 1.1916e-05 83918. 367.05 387.52 4.0372 0.77976 0.96832 159.41 3.2291 2.9579 0.0028643
-163.62 4.4989e-05 2.2913e-07 -150.37 -150.37 -0.91917 708.42 0.0014116 -150.37 -150.37 -0.91917 1.3371 1.9424 1972.6 -0.0076002 2332.3 0.19930 1.5020e-05 66577. 367.83 388.49 4.0008 0.78346 0.97201 160.07 3.1514 2.9854 0.0029182
-162.62 5.6956e-05 2.8742e-07 -148.43 -148.43 -0.90151 707.40 0.0014136 -148.43 -148.43 -0.90151 1.3368 1.9437 1965.8 -0.0075919 2227.7 0.19886 1.8844e-05 53068. 368.62 389.46 3.9651 0.78713 0.97569 160.72 3.0764 3.0129 0.0029723
-161.62 7.1773e-05 3.5890e-07 -146.48 -146.48 -0.88399 706.38 0.0014157 -146.48 -146.48 -0.88400 1.3365 1.9451 1959.0 -0.0075834 2130.2 0.19841 2.3533e-05 42494. 369.41 390.44 3.9304 0.79079 0.97935 161.38 3.0038 3.0404 0.0030268
-160.62 9.0036e-05 4.4616e-07 -144.54 -144.54 -0.86663 705.37 0.0014177 -144.54 -144.54 -0.86663 1.3363 1.9465 1952.1 -0.0075748 2039.2 0.19796 2.9258e-05 34178. 370.20 391.42 3.8964 0.79443 0.98298 162.03 2.9337 3.0679 0.0030815
-159.62 0.00011245 5.5225e-07 -142.59 -142.59 -0.84940 704.35 0.0014197 -142.59 -142.59 -0.84940 1.3360 1.9478 1945.3 -0.0075661 1954.2 0.19751 3.6221e-05 27609. 371.00 392.40 3.8632 0.79805 0.98660 162.68 2.8658 3.0955 0.0031365
-158.62 0.00013985 6.8071e-07 -140.64 -140.64 -0.83231 703.34 0.0014218 -140.64 -140.64 -0.83231 1.3358 1.9492 1938.5 -0.0075573 1874.8 0.19705 4.4652e-05 22395. 371.80 393.39 3.8307 0.80164 0.99020 163.32 2.8002 3.1230 0.0031918
-157.62 0.00017320 8.3564e-07 -138.69 -138.69 -0.81536 702.32 0.0014238 -138.69 -138.69 -0.81536 1.3356 1.9506 1931.7 -0.0075484 1800.3 0.19658 5.4822e-05 18241. 372.60 394.38 3.7990 0.80522 0.99378 163.96 2.7367 3.1505 0.0032474
-156.62 0.00021364 1.0217e-06 -136.74 -136.74 -0.79854 701.31 0.0014259 -136.74 -136.74 -0.79854 1.3354 1.9520 1924.9 -0.0075393 1730.5 0.19611 6.7040e-05 14916. 373.41 395.38 3.7680 0.80878 0.99734 164.60 2.6752 3.1780 0.0033033
-155.62 0.00026248 1.2445e-06 -134.79 -134.79 -0.78185 700.30 0.0014280 -134.79 -134.79 -0.78185 1.3352 1.9534 1918.1 -0.0075302 1664.9 0.19564 8.1666e-05 12245. 374.22 396.38 3.7377 0.81232 1.0009 165.24 2.6157 3.2055 0.0033595
-154.62 0.00032125 1.5101e-06 -132.83 -132.83 -0.76529 699.29 0.0014300 -132.83 -132.83 -0.76530 1.3350 1.9548 1911.3 -0.0075209 1603.3 0.19516 9.9109e-05 10090. 375.03 397.38 3.7081 0.81585 1.0044 165.87 2.5580 3.2330 0.0034160
-153.62 0.00039171 1.8257e-06 -130.88 -130.88 -0.74886 698.27 0.0014321 -130.88 -130.88 -0.74887 1.3349 1.9563 1904.5 -0.0075114 1545.3 0.19468 0.00011984 8344.6 375.85 398.39 3.6792 0.81935 1.0079 166.50 2.5022 3.2606 0.0034727
-152.62 0.00047590 2.1993e-06 -128.92 -128.92 -0.73255 697.26 0.0014342 -128.92 -128.92 -0.73256 1.3348 1.9577 1897.8 -0.0075019 1490.6 0.19419 0.00014439 6925.9 376.67 399.40 3.6509 0.82284 1.0114 167.13 2.4481 3.2881 0.0035298
-151.62 0.00057613 2.6403e-06 -126.96 -126.96 -0.71637 696.25 0.0014363 -126.96 -126.96 -0.71638 1.3346 1.9592 1891.0 -0.0074922 1438.9 0.19370 0.00017336 5768.4 377.49 400.41 3.6232 0.82631 1.0149 167.76 2.3957 3.3156 0.0035872
-150.62 0.00069507 3.1589e-06 -125.00 -125.00 -0.70031 695.24 0.0014384 -125.00 -125.00 -0.70032 1.3345 1.9606 1884.2 -0.0074824 1390.2 0.19320 0.00020744 4820.7 378.32 401.42 3.5962 0.82976 1.0183 168.38 2.3448 3.3431 0.0036448
-149.62 0.00083574 3.7670e-06 -123.04 -123.04 -0.68436 694.23 0.0014404 -123.04 -123.04 -0.68438 1.3345 1.9621 1877.4 -0.0074724 1344.0 0.19270 0.00024740 4042.0 379.15 402.44 3.5697 0.83319 1.0218 169.00 2.2956 3.3706 0.0037027
-148.62 0.0010016 4.4777e-06 -121.08 -121.08 -0.66853 693.22 0.0014425 -121.08 -121.08 -0.66855 1.3344 1.9636 1870.7 -0.0074623 1300.3 0.19220 0.00029412 3400.0 379.99 403.47 3.5438 0.83661 1.0252 169.62 2.2478 3.3982 0.0037610
-147.62 0.0011965 5.3057e-06 -119.11 -119.11 -0.65282 692.21 0.0014447 -119.11 -119.11 -0.65284 1.3343 1.9651 1863.9 -0.0074521 1258.9 0.19169 0.00034856 2869.0 380.83 404.49 3.5185 0.84001 1.0286 170.24 2.2014 3.4257 0.0038195
-146.62 0.0014249 6.2677e-06 -117.15 -117.15 -0.63721 691.20 0.0014468 -117.15 -117.15 -0.63724 1.3343 1.9666 1857.2 -0.0074417 1219.6 0.19117 0.00041181 2428.3 381.67 405.52 3.4938 0.84340 1.0320 170.85 2.1565 3.4532 0.0038783
-145.62 0.0016917 7.3821e-06 -115.18 -115.18 -0.62172 690.19 0.0014489 -115.18 -115.18 -0.62175 1.3343 1.9682 1850.4 -0.0074312 1182.3 0.19066 0.00048510 2061.4 382.51 406.56 3.4695 0.84677 1.0353 171.46 2.1128 3.4807 0.0039374
-144.62 0.0020026 8.6693e-06 -113.21 -113.21 -0.60634 689.18 0.0014510 -113.21 -113.21 -0.60637 1.3343 1.9697 1843.7 -0.0074206 1146.8 0.19014 0.00056976 1755.1 383.36 407.59 3.4458 0.85012 1.0387 172.07 2.0705 3.5082 0.0039967
-143.62 0.0023637 1.0152e-05 -111.24 -111.24 -0.59106 688.17 0.0014531 -111.24 -111.24 -0.59110 1.3343 1.9713 1836.9 -0.0074098 1113.0 0.18962 0.00066731 1498.6 384.21 408.63 3.4226 0.85346 1.0420 172.68 2.0294 3.5358 0.0040564
-142.62 0.0027820 1.1856e-05 -109.26 -109.26 -0.57588 687.16 0.0014553 -109.27 -109.27 -0.57593 1.3343 1.9728 1830.2 -0.0073988 1080.8 0.18909 0.00077939 1283.1 385.07 409.68 3.3999 0.85679 1.0454 173.28 1.9896 3.5633 0.0041164
-141.62 0.0032653 1.3808e-05 -107.29 -107.29 -0.56081 686.15 0.0014574 -107.30 -107.30 -0.56087 1.3343 1.9744 1823.5 -0.0073878 1050.1 0.18856 0.00090784 1101.5 385.93 410.72 3.3777 0.86011 1.0487 173.88 1.9508 3.5908 0.0041766
-140.62 0.0038222 1.6039e-05 -105.31 -105.31 -0.54585 685.14 0.0014596 -105.32 -105.32 -0.54591 1.3344 1.9760 1816.7 -0.0073765 1020.7 0.18803 0.0010547 948.16 386.79 411.77 3.3560 0.86341 1.0520 174.48 1.9133 3.6183 0.0042372
-139.62 0.0044623 1.8582e-05 -103.34 -103.33 -0.53098 684.13 0.0014617 -103.34 -103.34 -0.53105 1.3344 1.9776 1810.0 -0.0073651 992.74 0.18749 0.0012221 818.26 387.65 412.83 3.3347 0.86670 1.0553 175.08 1.8768 3.6459 0.0042980
-138.62 0.0051963 2.1475e-05 -101.36 -101.36 -0.51620 683.12 0.0014639 -101.37 -101.37 -0.51629 1.3345 1.9792 1803.3 -0.0073536 965.97 0.18695 0.0014125 707.94 388.52 413.88 3.3139 0.86998 1.0586 175.67 1.8413 3.6734 0.0043592
-137.62 0.0060358 2.4757e-05 -99.374 -99.373 -0.50153 682.11 0.0014660 -99.386 -99.386 -0.50162 1.3346 1.9808 1796.6 -0.0073419 940.35 0.18641 0.0016287 614.00 389.39 414.94 3.2935 0.87325 1.0619 176.26 1.8069 3.7009 0.0044206
-136.62 0.0069938 2.8472e-05 -97.391 -97.390 -0.48695 681.10 0.0014682 -97.404 -97.404 -0.48705 1.3347 1.9825 1789.9 -0.0073301 915.81 0.18586 0.0018733 533.80 390.26 416.00 3.2735 0.87650 1.0651 176.85 1.7734 3.7284 0.0044823
-135.62 0.0080843 3.2668e-05 -95.405 -95.404 -0.47246 680.09 0.0014704 -95.421 -95.421 -0.47258 1.3348 1.9841 1783.2 -0.0073180 892.30 0.18531 0.0021497 465.17 391.14 417.07 3.2540 0.87975 1.0684 177.44 1.7409 3.7559 0.0045443
-134.62 0.0093230 3.7397e-05 -93.418 -93.417 -0.45806 679.08 0.0014726 -93.436 -93.436 -0.45820 1.3350 1.9858 1776.5 -0.0073059 869.75 0.18476 0.0024613 406.30 392.02 418.14 3.2348 0.88299 1.0716 178.02 1.7093 3.7834 0.0046066
-133.62 0.010727 4.2714e-05 -91.429 -91.428 -0.44375 678.07 0.0014748 -91.450 -91.449 -0.44391 1.3351 1.9875 1769.8 -0.0072935 848.11 0.18421 0.0028116 355.67 392.91 419.21 3.2161 0.88622 1.0749 178.61 1.6786 3.8109 0.0046691
-132.62 0.012315 4.8681e-05 -89.438 -89.436 -0.42953 677.06 0.0014770 -89.461 -89.461 -0.42971 1.3353 1.9892 1763.1 -0.0072810 827.32 0.18365 0.0032049 312.03 393.79 420.29 3.1977 0.88944 1.0781 179.19 1.6488 3.8385 0.0047320
-131.62 0.014106 5.5363e-05 -87.444 -87.443 -0.41540 676.04 0.0014792 -87.471 -87.471 -0.41560 1.3354 1.9909 1756.4 -0.0072684 807.34 0.18309 0.0036453 274.33 394.68 421.36 3.1798 0.89266 1.0813 179.76 1.6197 3.8660 0.0047951
-130.62 0.016124 6.2830e-05 -85.449 -85.447 -0.40135 675.03 0.0014814 -85.479 -85.479 -0.40157 1.3356 1.9926 1749.7 -0.0072555 788.12 0.18253 0.0041375 241.69 395.58 422.44 3.1622 0.89586 1.0846 180.34 1.5915 3.8935 0.0048586
-129.62 0.018392 7.1158e-05 -83.452 -83.450 -0.38738 674.02 0.0014836 -83.486 -83.486 -0.38763 1.3358 1.9944 1743.0 -0.0072425 769.63 0.18196 0.0046867 213.37 396.47 423.53 3.1450 0.89906 1.0878 180.91 1.5641 3.9210 0.0049223
-128.62 0.020935 8.0430e-05 -81.452 -81.450 -0.37350 673.01 0.0014859 -81.491 -81.490 -0.37378 1.3360 1.9961 1736.3 -0.0072294 751.83 0.18140 0.0052981 188.75 397.37 424.62 3.1281 0.90226 1.0910 181.48 1.5374 3.9485 0.0049863
-127.62 0.023783 9.0732e-05 -79.450 -79.448 -0.35970 672.00 0.0014881 -79.494 -79.493 -0.36001 1.3363 1.9979 1729.6 -0.0072160 734.67 0.18083 0.0059776 167.29 398.27 425.71 3.1116 0.90545 1.0942 182.05 1.5114 3.9760 0.0050506
-126.62 0.026966 0.00010216 -77.446 -77.443 -0.34597 670.98 0.0014904 -77.495 -77.495 -0.34632 1.3365 1.9997 1722.9 -0.0072025 718.14 0.18025 0.0067313 148.56 399.18 426.80 3.0954 0.90863 1.0974 182.62 1.4861 4.0035 0.0051152
-125.62 0.030515 0.00011481 -75.440 -75.436 -0.33232 669.97 0.0014926 -75.494 -75.494 -0.33272 1.3368 2.0015 1716.2 -0.0071888 702.18 0.17968 0.0075660 132.17 400.09 427.89 3.0795 0.91181 1.1006 183.18 1.4615 4.0310 0.0051800
-124.62 0.034467 0.00012879 -73.431 -73.427 -0.31875 668.95 0.0014949 -73.492 -73.492 -0.31919 1.3371 2.0033 1709.5 -0.0071749 686.79 0.17910 0.0084885 117.81 401.00 428.99 3.0640 0.91499 1.1038 183.74 1.4375 4.0584 0.0052452
-123.62 0.038859 0.00014421 -71.419 -71.415 -0.30526 667.94 0.0014971 -71.488 -71.487 -0.30574 1.3374 2.0051 1702.8 -0.0071609 671.93 0.17852 0.0095065 105.19 401.91 430.10 3.0488 0.91816 1.1070 184.30 1.4141 4.0859 0.0053106
-122.62 0.043731 0.00016120 -69.405 -69.400 -0.29183 666.92 0.0014994 -69.482 -69.481 -0.29237 1.3377 2.0070 1696.2 -0.0071466 657.57 0.17794 0.010628 94.092 402.83 431.20 3.0339 0.92134 1.1102 184.86 1.3913 4.1134 0.0053764
-121.62 0.049128 0.00017988 -67.389 -67.383 -0.27848 665.91 0.0015017 -67.474 -67.473 -0.27907 1.3380 2.0089 1689.5 -0.0071322 643.70 0.17736 0.011861 84.309 403.75 432.31 3.0193 0.92451 1.1134 185.41 1.3691 4.1409 0.0054424
-120.62 0.055096 0.00020038 -65.370 -65.363 -0.26520 664.89 0.0015040 -65.464 -65.463 -0.26585 1.3384 2.0107 1682.8 -0.0071176 630.28 0.17678 0.013215 75.669 404.67 433.42 3.0050 0.92767 1.1166 185.96 1.3475 4.1683 0.0055087
-119.62 0.061684 0.00022286 -63.348 -63.341 -0.25198 663.87 0.0015063 -63.452 -63.452 -0.25271 1.3387 2.0126 1676.1 -0.0071028 617.30 0.17619 0.014700 68.027 405.60 434.53 2.9909 0.93084 1.1198 186.51 1.3264 4.1958 0.0055752
-118.62 0.068946 0.00024746 -61.323 -61.315 -0.23884 662.86 0.0015086 -61.439 -61.438 -0.23963 1.3391 2.0146 1669.4 -0.0070878 604.74 0.17560 0.016325 61.255 406.53 435.64 2.9772 0.93401 1.1231 187.06 1.3058 4.2233 0.0056421
-117.62 0.076937 0.00027434 -59.295 -59.286 -0.22576 661.84 0.0015109 -59.423 -59.422 -0.22663 1.3395 2.0165 1662.8 -0.0070726 592.58 0.17501 0.018101 55.245 407.46 436.76 2.9638 0.93718 1.1263 187.60 1.2857 4.2507 0.0057092
-116.62 0.085718 0.00030368 -57.264 -57.254 -0.21274 660.82 0.0015133 -57.406 -57.405 -0.21370 1.3400 2.0184 1656.1 -0.0070573 580.80 0.17442 0.020040 49.901 408.39 437.88 2.9506 0.94035 1.1295 188.14 1.2660 4.2782 0.0057767
-115.62 0.095353 0.00033564 -55.230 -55.219 -0.19979 659.80 0.0015156 -55.386 -55.385 -0.20084 1.3404 2.0204 1649.4 -0.0070417 569.38 0.17383 0.022152 45.142 409.33 439.01 2.9377 0.94352 1.1327 188.68 1.2468 4.3056 0.0058444
-114.62 0.10591 0.00037042 -53.193 -53.181 -0.18690 658.78 0.0015180 -53.365 -53.364 -0.18805 1.3409 2.0224 1642.7 -0.0070260 558.32 0.17323 0.024451 40.898 410.27 440.13 2.9250 0.94669 1.1360 189.22 1.2281 4.3330 0.0059123
-113.62 0.11746 0.00040820 -51.153 -51.139 -0.17407 657.76 0.0015203 -51.342 -51.340 -0.17533 1.3413 2.0244 1636.0 -0.0070100 547.59 0.17264 0.026949 37.107 411.21 441.26 2.9126 0.94987 1.1392 189.75 1.2097 4.3604 0.0059806
-112.62 0.13008 0.00044920 -49.109 -49.094 -0.16129 656.73 0.0015227 -49.316 -49.315 -0.16267 1.3418 2.0264 1629.3 -0.0069938 537.18 0.17204 0.029661 33.715 412.16 442.39 2.9005 0.95305 1.1424 190.28 1.1918 4.3879 0.0060491
-111.62 0.14384 0.00049363 -47.061 -47.045 -0.14858 655.71 0.0015251 -47.289 -47.287 -0.15008 1.3424 2.0285 1622.7 -0.0069774 527.08 0.17144 0.032600 30.675 413.10 443.53 2.8885 0.95623 1.1457 190.81 1.1742 4.4153 0.0061180
-110.62 0.15884 0.00054172 -45.010 -44.992 -0.13592 654.69 0.0015274 -45.259 -45.258 -0.13755 1.3429 2.0305 1616.0 -0.0069609 517.28 0.17084 0.035781 27.948 414.06 444.66 2.8769 0.95942 1.1490 191.34 1.1570 4.4427 0.0061871
-109.62 0.17516 0.00059369 -42.956 -42.936 -0.12332 653.66 0.0015298 -43.228 -43.226 -0.12509 1.3435 2.0326 1609.3 -0.0069441 507.76 0.17024 0.039220 25.497 415.01 445.80 2.8654 0.96261 1.1522 191.86 1.1402 4.4701 0.0062564
-108.62 0.19290 0.00064980 -40.897 -40.875 -0.11077 652.64 0.0015322 -41.194 -41.192 -0.11269 1.3441 2.0347 1602.6 -0.0069271 498.51 0.16964 0.042933 23.292 415.96 446.94 2.8542 0.96581 1.1555 192.38 1.1236 4.4974 0.0063261
-107.62 0.21215 0.00071030 -38.834 -38.810 -0.098266 651.61 0.0015347 -39.158 -39.156 -0.10036 1.3447 2.0369 1595.9 -0.0069098 489.52 0.16903 0.046937 21.305 416.92 448.09 2.8433 0.96901 1.1588 192.90 1.1075 4.5248 0.0063960
-106.62 0.23301 0.00077546 -36.768 -36.741 -0.085818 650.58 0.0015371 -37.120 -37.118 -0.088082 1.3453 2.0390 1589.2 -0.0068924 480.79 0.16843 0.051250 19.512 417.88 449.23 2.8325 0.97222 1.1621 193.41 1.0916 4.5522 0.0064662
-105.62 0.25561 0.00084554 -34.697 -34.667 -0.073418 649.55 0.0015395 -35.080 -35.078 -0.075868 1.3460 2.0412 1582.6 -0.0068747 472.30 0.16782 0.055891 17.892 418.85 450.38 2.8220 0.97544 1.1655 193.93 1.0760 4.5795 0.0065367
-104.62 0.28004 0.00092084 -32.621 -32.589 -0.061067 648.52 0.0015420 -33.038 -33.035 -0.063714 1.3467 2.0434 1575.9 -0.0068569 464.04 0.16721 0.060878 16.426 419.81 451.53 2.8116 0.97867 1.1688 194.44 1.0608 4.6069 0.0066074
-103.62 0.30643 0.0010017 -30.541 -30.506 -0.048761 647.49 0.0015444 -30.994 -30.991 -0.051619 1.3474 2.0456 1569.2 -0.0068387 456.00 0.16660 0.066231 15.099 420.78 452.68 2.8015 0.98191 1.1722 194.94 1.0458 4.6342 0.0066785
-102.62 0.33490 0.0010883 -28.457 -28.418 -0.036501 646.46 0.0015469 -28.947 -28.944 -0.039582 1.3481 2.0478 1562.5 -0.0068204 448.18 0.16600 0.071971 13.894 421.75 453.84 2.7916 0.98516 1.1755 195.44 1.0310 4.6615 0.0067498
-101.62 0.36558 0.0011811 -26.367 -26.325 -0.024283 645.43 0.0015494 -26.898 -26.894 -0.027602 1.3489 2.0501 1555.8 -0.0068018 440.57 0.16539 0.078120 12.801 422.73 454.99 2.7818 0.98841 1.1789 195.95 1.0166 4.6888 0.0068213
-100.62 0.39862 0.0012804 -24.273 -24.227 -0.012108 644.39 0.0015519 -24.847 -24.843 -0.015678 1.3497 2.0524 1549.1 -0.0067830 433.16 0.16478 0.084699 11.807 423.70 456.15 2.7723 0.99168 1.1823 196.44 1.0024 4.7161 0.0068932
-99.625 0.43414 0.0013865 -22.173 -22.123 2.5772e-05 643.36 0.0015544 -22.794 -22.789 -0.0038103 1.3505 2.0547 1542.4 -0.0067639 425.95 0.16416 0.091731 10.901 424.68 457.31 2.7630 0.99496 1.1858 196.94 0.98838 4.7434 0.0069653
-98.625 0.47230 0.0014997 -20.069 -20.014 0.012121 642.32 0.0015569 -20.738 -20.733 0.0080027 1.3514 2.0570 1535.7 -0.0067447 418.92 0.16355 0.099240 10.077 425.66 458.48 2.7538 0.99825 1.1892 197.43 0.97464 4.7707 0.0070377
-97.625 0.51325 0.0016205 -17.958 -17.899 0.024178 641.28 0.0015594 -18.680 -18.674 0.019762 1.3522 2.0594 1529.0 -0.0067251 412.07 0.16294 0.10725 9.3239 426.65 459.64 2.7448 1.0016 1.1927 197.92 0.96112 4.7979 0.0071103
-96.625 0.55714 0.0017493 -15.842 -15.778 0.036198 640.24 0.0015619 -16.620 -16.614 0.031467 1.3531 2.0618 1522.3 -0.0067053 405.39 0.16233 0.11579 8.6365 427.63 460.81 2.7360 1.0049 1.1962 198.40 0.94783 4.8251 0.0071832
-95.625 0.60416 0.0018863 -13.721 -13.651 0.048183 639.20 0.0015645 -14.557 -14.550 0.043120 1.3540 2.0642 1515.7 -0.0066853 398.88 0.16171 0.12488 8.0078 428.62 461.98 2.7274 1.0082 1.1997 198.88 0.93475 4.8524 0.0072564
-94.625 0.65446 0.0020320 -11.593 -11.518 0.060135 638.16 0.0015670 -12.491 -12.484 0.054721 1.3550 2.0667 1509.0 -0.0066650 392.53 0.16110 0.13455 7.4323 429.61 463.15 2.7189 1.0116 1.2032 199.36 0.92188 4.8796 0.0073299
-93.625 0.70822 0.0021869 -9.4592 -9.3778 0.072054 637.12 0.0015696 -10.424 -10.416 0.066271 1.3560 2.0691 1502.3 -0.0066444 386.34 0.16048 0.14482 6.9050 430.60 464.32 2.7107 1.0149 1.2068 199.83 0.90921 4.9068 0.0074036
-92.625 0.76564 0.0023513 -7.3191 -7.2311 0.083942 636.07 0.0015722 -8.3535 -8.3452 0.077771 1.3570 2.0716 1495.6 -0.0066236 380.31 0.15987 0.15573 6.4212 431.60 465.49 2.7025 1.0183 1.2104 200.30 0.89673 4.9340 0.0074776
-91.625 0.82689 0.0025257 -5.1724 -5.0774 0.095801 635.02 0.0015747 -6.2808 -6.2719 0.089220 1.3580 2.0742 1488.9 -0.0066025 374.41 0.15925 0.16731 5.9769 432.59 466.67 2.6946 1.0217 1.2140 200.77 0.88445 4.9611 0.0075518
-90.625 0.89218 0.0027105 -3.0190 -2.9165 0.10763 633.98 0.0015773 -4.2056 -4.1959 0.10062 1.3591 2.0767 1482.2 -0.0065811 368.66 0.15864 0.17958 5.5685 433.59 467.84 2.6868 1.0251 1.2177 201.24 0.87236 4.9883 0.0076263
-89.625 0.96172 0.0029062 -0.85866 -0.74815 0.11943 632.93 0.0015800 -2.1279 -2.1174 0.11197 1.3602 2.0793 1475.5 -0.0065595 363.05 0.15802 0.19258 5.1928 434.59 469.02 2.6791 1.0285 1.2213 201.70 0.86045 5.0154 0.0077011
-88.625 1.0357 0.0031133 1.3088 1.4278 0.13121 631.88 0.0015826 -0.047516 -0.036215 0.12328 1.3613 2.0819 1468.8 -0.0065375 357.56 0.15740 0.20633 4.8466 435.59 470.20 2.6717 1.0320 1.2250 202.15 0.84873 5.0425 0.0077761
-87.625 1.1144 0.0033322 3.4835 3.6116 0.14297 630.83 0.0015852 2.0355 2.0476 0.13454 1.3625 2.0846 1462.1 -0.0065153 352.21 0.15679 0.22087 4.5276 436.60 471.39 2.6643 1.0354 1.2288 202.61 0.83718 5.0696 0.0078514
-86.625 1.1979 0.0035634 5.6658 5.8034 0.15470 629.77 0.0015879 4.1211 4.1342 0.14575 1.3637 2.0873 1455.4 -0.0064928 346.98 0.15617 0.23623 4.2331 437.61 472.57 2.6571 1.0389 1.2325 203.06 0.82580 5.0967 0.0079270
-85.625 1.2866 0.0038075 7.8557 8.0036 0.16641 628.72 0.0015905 6.2094 6.2235 0.15691 1.3649 2.0900 1448.8 -0.0064701 341.87 0.15555 0.25245 3.9612 438.61 473.75 2.6501 1.0424 1.2363 203.50 0.81460 5.1237 0.0080028
-84.625 1.3806 0.0040650 10.054 10.212 0.17810 627.66 0.0015932 8.3004 8.3155 0.16803 1.3661 2.0927 1442.1 -0.0064470 336.87 0.15494 0.26956 3.7097 439.63 474.94 2.6432 1.0460 1.2402 203.95 0.80356 5.1508 0.0080789
-83.625 1.4803 0.0043363 12.260 12.430 0.18977 626.60 0.0015959 10.394 10.410 0.17911 1.3674 2.0955 1435.4 -0.0064236 331.99 0.15432 0.28760 3.4771 440.64 476.13 2.6364 1.0495 1.2440 204.38 0.79269 5.1778 0.0081553
-82.625 1.5858 0.0046221 14.474 14.656 0.20142 625.54 0.0015986 12.491 12.508 0.19014 1.3687 2.0983 1428.7 -0.0063999 327.22 0.15370 0.30659 3.2616 441.65 477.31 2.6298 1.0531 1.2479 204.82 0.78199 5.2048 0.0082319
-81.625 1.6975 0.0049228 16.697 16.892 0.21306 624.48 0.0016013 14.590 14.609 0.20113 1.3700 2.1012 1422.0 -0.0063759 322.55 0.15309 0.32659 3.0619 442.67 478.50 2.6233 1.0567 1.2519 205.25 0.77144 5.2318 0.0083088
-80.625 1.8155 0.0052391 18.929 19.138 0.22468 623.42 0.0016041 16.692 16.712 0.21208 1.3714 2.1041 1415.4 -0.0063516 317.99 0.15247 0.34763 2.8766 443.69 479.70 2.6169 1.0603 1.2558 205.67 0.76106 5.2587 0.0083860
-79.625 1.9402 0.0055715 21.170 21.393 0.23629 622.36 0.0016068 18.797 18.819 0.22299 1.3728 2.1070 1408.7 -0.0063270 313.52 0.15186 0.36974 2.7046 444.71 480.89 2.6106 1.0639 1.2598 206.10 0.75083 5.2857 0.0084634
-78.625 2.0718 0.0059206 23.420 23.658 0.24789 621.29 0.0016096 20.905 20.928 0.23385 1.3742 2.1099 1402.0 -0.0063021 309.15 0.15124 0.39296 2.5448 445.73 482.08 2.6045 1.0676 1.2639 206.51 0.74076 5.3126 0.0085411
-77.625 2.2107 0.0062871 25.680 25.934 0.25947 620.22 0.0016123 23.016 23.040 0.24468 1.3757 2.1129 1395.3 -0.0062768 304.88 0.15062 0.41735 2.3961 446.75 483.27 2.5985 1.0712 1.2680 206.93 0.73084 5.3395 0.0086190
-76.625 2.3571 0.0066715 27.949 28.220 0.27105 619.15 0.0016151 25.130 25.156 0.25546 1.3772 2.1159 1388.7 -0.0062512 300.69 0.15001 0.44292 2.2577 447.78 484.47 2.5926 1.0749 1.2721 207.34 0.72107 5.3664 0.0086972
-75.625 2.5113 0.0070744 30.229 30.517 0.28262 618.08 0.0016179 27.247 27.275 0.26620 1.3787 2.1190 1382.0 -0.0062253 296.59 0.14939 0.46974 2.1288 448.81 485.67 2.5869 1.0787 1.2762 207.74 0.71146 5.3933 0.0087757
-74.625 2.6736 0.0074964 32.518 32.826 0.29418 617.01 0.0016207 29.366 29.396 0.27691 1.3802 2.1221 1375.4 -0.0061990 292.58 0.14878 0.49783 2.0087 449.83 486.86 2.5812 1.0824 1.2804 208.14 0.70200 5.4201 0.0088544
-73.625 2.8444 0.0079383 34.818 35.145 0.30574 615.93 0.0016236 31.489 31.521 0.28758 1.3818 2.1252 1368.7 -0.0061724 288.65 0.14816 0.52725 1.8966 450.86 488.06 2.5757 1.0862 1.2847 208.54 0.69268 5.4469 0.0089334
-72.625 3.0240 0.0084007 37.129 37.477 0.31729 614.85 0.0016264 33.615 33.649 0.29821 1.3834 2.1284 1362.0 -0.0061454 284.81 0.14755 0.55804 1.7920 451.90 489.26 2.5703 1.0900 1.2889 208.93 0.68351 5.4737 0.0090126
-71.625 3.2127 0.0088843 39.451 39.820 0.32884 613.78 0.0016293 35.745 35.781 0.30880 1.3851 2.1316 1355.4 -0.0061181 281.03 0.14694 0.59024 1.6942 452.93 490.46 2.5650 1.0938 1.2932 209.32 0.67448 5.5005 0.0090922
-70.625 3.4108 0.0093896 41.784 42.176 0.34039 612.69 0.0016321 37.877 37.915 0.31935 1.3867 2.1349 1348.7 -0.0060904 277.34 0.14632 0.62390 1.6028 453.96 491.66 2.5598 1.0976 1.2976 209.70 0.66560 5.5273 0.0091720
-69.625 3.6187 0.0099175 44.128 44.544 0.35194 611.61 0.0016350 40.013 40.053 0.32987 1.3884 2.1382 1342.1 -0.0060624 273.72 0.14571 0.65906 1.5173 455.00 492.86 2.5547 1.1015 1.3020 210.08 0.65687 5.5540 0.0092520
-68.625 3.8367 0.010469 46.484 46.925 0.36348 610.53 0.0016379 42.152 42.195 0.34036 1.3902 2.1415 1335.5 -0.0060339 270.17 0.14510 0.69577 1.4372 456.04 494.06 2.5497 1.1054 1.3064 210.45 0.64827 5.5807 0.0093324
-67.625 4.0652 0.011044 48.852 49.319 0.37503 609.44 0.0016409 44.294 44.340 0.35080 1.3919 2.1449 1328.8 -0.0060051 266.69 0.14449 0.73408 1.3622 457.08 495.26 2.5448 1.1093 1.3109 210.82 0.63981 5.6074 0.0094130
-66.625 4.3046 0.011643 51.232 51.727 0.38659 608.35 0.0016438 46.439 46.488 0.36122 1.3937 2.1483 1322.2 -0.0059760 263.28 0.14388 0.77404 1.2919 458.12 496.46 2.5400 1.1133 1.3154 211.18 0.63150 5.6341 0.0094939
-65.625 4.5551 0.012268 53.625 54.149 0.39814 607.26 0.0016467 48.588 48.640 0.37160 1.3955 2.1518 1315.6 -0.0059464 259.93 0.14327 0.81570 1.2259 459.16 497.67 2.5353 1.1172 1.3200 211.54 0.62332 5.6608 0.0095750
-64.625 4.8173 0.012919 56.030 56.584 0.40971 606.16 0.0016497 50.740 50.795 0.38195 1.3974 2.1553 1308.9 -0.0059164 256.65 0.14266 0.85910 1.1640 460.21 498.87 2.5307 1.1212 1.3246 211.89 0.61527 5.6874 0.0096564
-63.625 5.0915 0.013597 58.449 59.034 0.42128 605.07 0.0016527 52.896 52.954 0.39226 1.3993 2.1588 1302.3 -0.0058861 253.42 0.14205 0.90429 1.1058 461.25 500.07 2.5262 1.1252 1.3293 212.24 0.60736 5.7140 0.0097382
-62.625 5.3781 0.014303 60.880 61.498 0.43285 603.97 0.0016557 55.055 55.117 0.40254 1.4012 2.1624 1295.7 -0.0058553 250.26 0.14144 0.95134 1.0511 462.30 501.28 2.5218 1.1293 1.3340 212.58 0.59958 5.7406 0.0098201
-61.625 5.6774 0.015037 63.325 63.978 0.44444 602.87 0.0016587 57.218 57.283 0.41279 1.4031 2.1660 1289.1 -0.0058241 247.16 0.14084 1.0003 0.99972 463.35 502.48 2.5175 1.1333 1.3387 212.92 0.59194 5.7672 0.0099024
-60.625 5.9899 0.015800 65.784 66.472 0.45604 601.77 0.0016618 59.385 59.453 0.42301 1.4051 2.1697 1282.5 -0.0057925 244.12 0.14023 1.0512 0.95131 464.40 503.68 2.5133 1.1374 1.3435 213.26 0.58442 5.7938 0.0099850
-59.625 6.3160 0.016594 68.257 68.982 0.46764 600.66 0.0016648 61.554 61.627 0.43320 1.4071 2.1734 1275.9 -0.0057605 241.13 0.13962 1.1041 0.90573 465.45 504.89 2.5091 1.1415 1.3483 213.58 0.57704 5.8203 0.010068
-58.625 6.6561 0.017418 70.744 71.508 0.47926 599.55 0.0016679 63.728 63.805 0.44335 1.4091 2.1772 1269.3 -0.0057280 238.19 0.13902 1.1591 0.86277 466.50 506.09 2.5051 1.1457 1.3532 213.90 0.56978 5.8468 0.010151
-57.625 7.0107 0.018274 73.245 74.051 0.49090 598.44 0.0016710 65.905 65.986 0.45348 1.4111 2.1810 1262.7 -0.0056951 235.31 0.13842 1.2161 0.82228 467.55 507.30 2.5011 1.1498 1.3581 214.22 0.56265 5.8733 0.010234
-56.625 7.3801 0.019162 75.761 76.609 0.50254 597.33 0.0016741 68.086 68.172 0.46358 1.4132 2.1848 1256.1 -0.0056617 232.48 0.13781 1.2754 0.78408 468.60 508.50 2.4972 1.1540 1.3631 214.53 0.55564 5.8998 0.010318
-55.625 7.7648 0.020084 78.293 79.185 0.51421 596.22 0.0016772 70.271 70.361 0.47364 1.4153 2.1887 1249.5 -0.0056279 229.69 0.13721 1.3369 0.74802 469.66 509.71 2.4934 1.1582 1.3681 214.84 0.54875 5.9263 0.010402
-54.625 8.1652 0.021040 80.839 81.777 0.52589 595.10 0.0016804 72.460 72.554 0.48368 1.4174 2.1927 1242.9 -0.0055937 226.96 0.13661 1.4006 0.71396 470.72 510.91 2.4897 1.1624 1.3731 215.14 0.54199 5.9527 0.010486
-53.625 8.5819 0.022031 83.401 84.387 0.53759 593.98 0.0016836 74.652 74.752 0.49369 1.4196 2.1967 1236.3 -0.0055589 224.27 0.13601 1.4667 0.68178 471.77 512.11 2.4860 1.1667 1.3782 215.43 0.53535 5.9792 0.010571
-52.625 9.0151 0.023058 85.979 87.015 0.54930 592.86 0.0016867 76.849 76.954 0.50368 1.4218 2.2007 1229.8 -0.0055237 221.63 0.13541 1.5353 0.65136 472.83 513.32 2.4824 1.1710 1.3834 215.72 0.52882 6.0056 0.010656
-51.625 9.4655 0.024121 88.573 89.661 0.56104 591.73 0.0016900 79.049 79.159 0.51363 1.4240 2.2048 1223.2 -0.0054880 219.04 0.13482 1.6062 0.62258 473.89 514.52 2.4789 1.1752 1.3886 216.00 0.52241 6.0320 0.010741
-50.625 9.9335 0.025223 91.184 92.325 0.57280 590.60 0.0016932 81.253 81.369 0.52356 1.4262 2.2089 1216.6 -0.0054519 216.48 0.13422 1.6797 0.59534 474.95 515.73 2.4755 1.1796 1.3938 216.28 0.51612 6.0584 0.010827
-49.625 10.419 0.026363 93.811 95.008 0.58458 589.47 0.0016964 83.462 83.584 0.53347 1.4285 2.2131 1210.1 -0.0054152 213.98 0.13363 1.7558 0.56954 476.01 516.93 2.4722 1.1839 1.3991 216.55 0.50994 6.0848 0.010913
-48.625 10.924 0.027543 96.454 97.710 0.59638 588.34 0.0016997 85.674 85.802 0.54334 1.4308 2.2173 1203.5 -0.0053780 211.51 0.13303 1.8345 0.54510 477.07 518.13 2.4689 1.1883 1.4044 216.82 0.50387 6.1112 0.010999
-47.625 11.448 0.028763 99.115 100.43 0.60820 587.20 0.0017030 87.891 88.025 0.55319 1.4331 2.2216 1196.9 -0.0053403 209.08 0.13244 1.9159 0.52194 478.14 519.33 2.4657 1.1927 1.4098 217.08 0.49792 6.1375 0.011085
-46.625 11.991 0.030025 101.79 103.17 0.62005 586.06 0.0017063 90.111 90.252 0.56302 1.4354 2.2259 1190.4 -0.0053020 206.69 0.13185 2.0001 0.49997 479.20 520.53 2.4625 1.1971 1.4153 217.33 0.49207 6.1639 0.011172
-45.625 12.554 0.031330 104.49 105.93 0.63193 584.92 0.0017096 92.336 92.484 0.57282 1.4378 2.2303 1183.8 -0.0052633 204.34 0.13126 2.0872 0.47912 480.27 521.74 2.4594 1.2015 1.4207 217.58 0.48633 6.1902 0.011259
-44.625 13.137 0.032677 107.20 108.71 0.64383 583.77 0.0017130 94.565 94.720 0.58260 1.4402 2.2347 1177.3 -0.0052240 202.03 0.13067 2.1771 0.45933 481.33 522.94 2.4564 1.2060 1.4263 217.82 0.48069 6.2165 0.011347
-43.625 13.741 0.034070 109.94 111.51 0.65576 582.62 0.0017164 96.799 96.961 0.59235 1.4426 2.2392 1170.7 -0.0051841 199.75 0.13008 2.2700 0.44053 482.40 524.14 2.4535 1.2104 1.4319 218.05 0.47516 6.2429 0.011435
-42.625 14.367 0.035507 112.69 114.34 0.66772 581.47 0.0017198 99.036 99.207 0.60208 1.4450 2.2437 1164.2 -0.0051437 197.51 0.12949 2.3659 0.42267 483.46 525.33 2.4506 1.2149 1.4375 218.28 0.46973 6.2692 0.011523
-41.625 15.015 0.036992 115.46 117.18 0.67970 580.32 0.0017232 101.28 101.46 0.61179 1.4475 2.2483 1157.7 -0.0051027 195.30 0.12891 2.4649 0.40569 484.53 526.53 2.4478 1.2195 1.4432 218.50 0.46440 6.2955 0.011612
-40.625 15.686 0.038524 118.24 120.05 0.69172 579.16 0.0017266 103.52 103.71 0.62147 1.4500 2.2529 1151.1 -0.0050611 193.13 0.12832 2.5671 0.38954 485.60 527.73 2.4450 1.2240 1.4489 218.72 0.45917 6.3218 0.011701
-39.625 16.380 0.040104 121.05 122.93 0.70377 578.00 0.0017301 105.78 105.97 0.63113 1.4525 2.2576 1144.6 -0.0050189 190.99 0.12774 2.6725 0.37418 486.67 528.93 2.4423 1.2286 1.4547 218.93 0.45403 6.3481 0.011790
-38.625 17.097 0.041734 123.88 125.84 0.71585 576.83 0.0017336 108.03 108.24 0.64077 1.4550 2.2623 1138.0 -0.0049761 188.88 0.12716 2.7813 0.35955 487.74 530.12 2.4397 1.2332 1.4606 219.13 0.44900 6.3744 0.011880
-37.625 17.838 0.043415 126.72 128.77 0.72796 575.66 0.0017371 110.29 110.51 0.65039 1.4576 2.2671 1131.5 -0.0049327 186.81 0.12658 2.8934 0.34562 488.81 531.32 2.4371 1.2378 1.4665 219.33 0.44405 6.4007 0.011970
-36.625 18.604 0.045148 129.59 131.73 0.74010 574.49 0.0017407 112.56 112.78 0.65999 1.4602 2.2719 1125.0 -0.0048887 184.76 0.12600 3.0089 0.33235 489.88 532.51 2.4346 1.2424 1.4724 219.52 0.43920 6.4270 0.012060
-35.625 19.395 0.046933 132.48 134.71 0.75228 573.32 0.0017442 114.83 115.06 0.66956 1.4628 2.2768 1118.5 -0.0048440 182.75 0.12542 3.1280 0.31969 490.95 533.70 2.4321 1.2471 1.4784 219.70 0.43444 6.4533 0.012151
-34.625 20.212 0.048773 135.39 137.71 0.76450 572.14 0.0017478 117.10 117.34 0.67912 1.4654 2.2818 1111.9 -0.0047987 180.76 0.12485 3.2506 0.30763 492.02 534.89 2.4297 1.2517 1.4845 219.88 0.42977 6.4797 0.012243
-33.625 21.056 0.050668 138.31 140.73 0.77675 570.96 0.0017514 119.38 119.63 0.68865 1.4681 2.2868 1105.4 -0.0047527 178.80 0.12427 3.3770 0.29612 493.09 536.08 2.4273 1.2564 1.4906 220.05 0.42519 6.5060 0.012334
-32.625 21.926 0.052620 141.26 143.78 0.78903 569.77 0.0017551 121.66 121.93 0.69817 1.4708 2.2918 1098.9 -0.0047061 176.87 0.12370 3.5071 0.28514 494.17 537.27 2.4250 1.2611 1.4968 220.21 0.42070 6.5323 0.012426
-31.625 22.823 0.054629 144.23 146.86 0.80136 568.58 0.0017588 123.95 124.23 0.70767 1.4735 2.2970 1092.3 -0.0046587 174.97 0.12313 3.6410 0.27465 495.24 538.46 2.4227 1.2659 1.5031 220.36 0.41629 6.5587 0.012519
-30.625 23.749 0.056697 147.22 149.95 0.81372 567.39 0.0017625 126.24 126.53 0.71714 1.4762 2.3021 1085.8 -0.0046107 173.09 0.12256 3.7787 0.26464 496.31 539.64 2.4205 1.2706 1.5094 220.51 0.41196 6.5850 0.012612
-29.625 24.703 0.058825 150.24 153.08 0.82612 566.19 0.0017662 128.54 128.84 0.72660 1.4790 2.3074 1079.3 -0.0045619 171.24 0.12200 3.9205 0.25507 497.38 540.83 2.4184 1.2754 1.5157 220.65 0.40772 6.6114 0.012706
-28.625 25.687 0.061014 153.27 156.23 0.83856 564.99 0.0017699 130.84 131.16 0.73604 1.4818 2.3126 1072.8 -0.0045124 169.42 0.12143 4.0663 0.24592 498.46 542.01 2.4162 1.2802 1.5222 220.79 0.40356 6.6378 0.012800
-27.625 26.700 0.063266 156.33 159.40 0.85104 563.78 0.0017737 133.15 133.48 0.74547 1.4846 2.3180 1066.2 -0.0044621 167.62 0.12087 4.2163 0.23717 499.53 543.19 2.4142 1.2850 1.5286 220.91 0.39947 6.6642 0.012894
-26.625 27.743 0.065582 159.41 162.60 0.86356 562.57 0.0017775 135.47 135.81 0.75487 1.4874 2.3234 1059.7 -0.0044111 165.84 0.12031 4.3705 0.22881 500.60 544.37 2.4122 1.2899 1.5352 221.03 0.39547 6.6906 0.012989
-25.625 28.817 0.067963 162.52 165.83 0.87612 561.36 0.0017814 137.78 138.14 0.76426 1.4902 2.3289 1053.2 -0.0043593 164.09 0.11975 4.5290 0.22080 501.68 545.55 2.4102 1.2947 1.5418 221.14 0.39154 6.7171 0.013084
-24.625 29.923 0.070411 165.64 169.08 0.88872 560.14 0.0017853 140.11 140.48 0.77363 1.4931 2.3344 1046.7 -0.0043067 162.36 0.11919 4.6918 0.21314 502.75 546.72 2.4083 1.2996 1.5485 221.25 0.38768 6.7436 0.013180
-23.625 31.061 0.072926 168.79 172.36 0.90137 558.92 0.0017892 142.44 142.82 0.78298 1.4960 2.3400 1040.1 -0.0042533 160.65 0.11863 4.8592 0.20580 503.82 547.90 2.4064 1.3045 1.5552 221.35 0.38391 6.7701 0.013277
-22.625 32.232 0.075511 171.96 175.67 0.91406 557.69 0.0017931 144.77 145.17 0.79232 1.4990 2.3457 1033.6 -0.0041990 158.97 0.11807 5.0311 0.19877 504.90 549.07 2.4045 1.3095 1.5621 221.44 0.38020 6.7967 0.013374
-21.625 33.435 0.078166 175.16 179.00 0.92680 556.46 0.0017971 147.11 147.52 0.80164 1.5019 2.3514 1027.1 -0.0041439 157.30 0.11752 5.2076 0.19203 505.97 550.24 2.4027 1.3144 1.5690 221.52 0.37656 6.8232 0.013471
-20.625 34.673 0.080894 178.38 182.36 0.93957 555.23 0.0018011 149.45 149.88 0.81095 1.5049 2.3572 1020.6 -0.0040879 155.66 0.11697 5.3889 0.18557 507.04 551.40 2.4010 1.3194 1.5759 221.59 0.37300 6.8499 0.013569
-19.625 35.946 0.083695 181.63 185.76 0.95240 553.99 0.0018051 151.80 152.25 0.82024 1.5079 2.3630 1014.0 -0.0040311 154.04 0.11642 5.5750 0.17937 508.11 552.57 2.3992 1.3244 1.5829 221.66 0.36950 6.8765 0.013668
-18.625 37.253 0.086572 184.89 189.18 0.96527 552.74 0.0018092 154.16 154.62 0.82952 1.5109 2.3689 1007.5 -0.0039733 152.44 0.11587 5.7660 0.17343 509.19 553.73 2.3976 1.3294 1.5901 221.72 0.36608 6.9032 0.013767
-17.625 38.596 0.089525 188.19 192.62 0.97818 551.49 0.0018133 156.52 157.00 0.83878 1.5140 2.3749 1001.0 -0.0039145 150.86 0.11532 5.9621 0.16773 510.26 554.89 2.3959 1.3345 1.5972 221.77 0.36272 6.9300 0.013867
-16.625 39.976 0.092556 191.51 196.10 0.99115 550.24 0.0018174 158.89 159.39 0.84803 1.5171 2.3810 994.44 -0.0038549 149.29 0.11478 6.1632 0.16225 511.33 556.05 2.3943 1.3395 1.6045 221.81 0.35942 6.9568 0.013968
-15.625 41.392 0.095667 194.85 199.61 1.0042 548.98 0.0018216 161.26 161.78 0.85726 1.5202 2.3871 987.91 -0.0037942 147.75 0.11423 6.3696 0.15700 512.40 557.20 2.3927 1.3446 1.6119 221.85 0.35619 6.9836 0.014069
-14.625 42.846 0.098859 198.22 203.14 1.0172 547.71 0.0018258 163.64 164.18 0.86649 1.5233 2.3933 981.37 -0.0037325 146.22 0.11369 6.5812 0.15195 513.47 558.36 2.3912 1.3497 1.6193 221.87 0.35302 7.0105 0.014170
-13.625 44.338 0.10213 201.62 206.71 1.0303 546.44 0.0018300 166.02 166.58 0.87569 1.5264 2.3996 974.83 -0.0036698 144.72 0.11315 6.7983 0.14710 514.54 559.51 2.3897 1.3549 1.6268 221.89 0.34992 7.0375 0.014273
-12.625 45.870 0.10549 205.04 210.31 1.0435 545.17 0.0018343 168.41 168.99 0.88489 1.5296 2.4059 968.29 -0.0036061 143.23 0.11261 7.0208 0.14243 515.61 560.65 2.3883 1.3600 1.6344 221.90 0.34688 7.0646 0.014376
-11.625 47.440 0.10894 208.49 213.94 1.0567 543.89 0.0018386 170.81 171.41 0.89407 1.5328 2.4124 961.75 -0.0035413 141.76 0.11208 7.2490 0.13795 516.68 561.80 2.3868 1.3652 1.6421 221.91 0.34389 7.0917 0.014479
-10.625 49.051 0.11248 211.96 217.60 1.0699 542.60 0.0018430 173.21 173.83 0.90324 1.5360 2.4189 955.20 -0.0034753 140.30 0.11154 7.4829 0.13364 517.75 562.94 2.3854 1.3704 1.6498 221.90 0.34097 7.1188 0.014584
-9.6250 50.703 0.11610 215.46 221.29 1.0833 541.31 0.0018474 175.61 176.26 0.91240 1.5393 2.4255 948.65 -0.0034082 138.86 0.11101 7.7226 0.12949 518.81 564.08 2.3841 1.3757 1.6577 221.88 0.33810 7.1461 0.014689
-8.6250 52.396 0.11982 218.99 225.01 1.0966 540.02 0.0018518 178.03 178.70 0.92154 1.5426 2.4321 942.10 -0.0033400 137.44 0.11048 7.9683 0.12550 519.88 565.21 2.3827 1.3809 1.6657 221.86 0.33529 7.1734 0.014795
-7.6250 54.131 0.12363 222.54 228.76 1.1100 538.72 0.0018563 180.45 181.14 0.93068 1.5459 2.4389 935.55 -0.0032705 136.03 0.10995 8.2200 0.12165 520.94 566.35 2.3814 1.3862 1.6737 221.83 0.33254 7.2008 0.014902
-6.6250 55.909 0.12753 226.12 232.55 1.1235 537.41 0.0018608 182.87 183.59 0.93980 1.5492 2.4457 928.99 -0.0031998 134.64 0.10942 8.4779 0.11795 522.01 567.48 2.3801 1.3915 1.6819 221.79 0.32984 7.2284 0.015009
-5.6250 57.730 0.13154 229.73 236.37 1.1370 536.10 0.0018653 185.30 186.05 0.94892 1.5525 2.4526 922.43 -0.0031279 133.27 0.10889 8.7420 0.11439 523.07 568.60 2.3789 1.3969 1.6902 221.74 0.32720 7.2560 0.015117
-4.6250 59.595 0.13564 233.37 240.22 1.1506 534.78 0.0018699 187.74 188.51 0.95802 1.5559 2.4596 915.87 -0.0030546 131.91 0.10837 9.0126 0.11096 524.13 569.72 2.3777 1.4022 1.6985 221.68 0.32461 7.2837 0.015226
-3.6250 61.505 0.13985 237.04 244.10 1.1642 533.45 0.0018746 190.19 190.98 0.96711 1.5593 2.4667 909.30 -0.0029800 130.56 0.10785 9.2896 0.10765 525.19 570.84 2.3765 1.4076 1.7070 221.62 0.32207 7.3115 0.015336
-2.6250 63.461 0.14416 240.73 248.02 1.1779 532.12 0.0018793 192.64 193.46 0.97620 1.5627 2.4739 902.73 -0.0029041 129.23 0.10733 9.5733 0.10446 526.25 571.96 2.3753 1.4131 1.7156 221.54 0.31958 7.3394 0.015447
-1.6250 65.462 0.14857 244.45 251.98 1.1916 530.78 0.0018840 195.10 195.95 0.98527 1.5662 2.4811 896.16 -0.0028267 127.91 0.10681 9.8638 0.10138 527.31 573.07 2.3742 1.4185 1.7243 221.45 0.31715 7.3674 0.015559
-0.62500 67.510 0.15310 248.21 255.96 1.2054 529.44 0.0018888 197.56 198.44 0.99434 1.5696 2.4885 889.58 -0.0027478 126.61 0.10629 10.161 0.098414 528.37 574.18 2.3731 1.4240 1.7331 221.36 0.31476 7.3956 0.015671
0.37500 69.606 0.15773 251.99 259.98 1.2193 528.09 0.0018936 200.03 200.94 1.0034 1.5731 2.4960 883.00 -0.0026675 125.32 0.10578 10.466 0.095552 529.42 575.28 2.3720 1.4295 1.7421 221.26 0.31242 7.4239 0.015785
1.3750 71.749 0.16248 255.80 264.04 1.2332 526.73 0.0018985 202.51 203.45 1.0124 1.5767 2.5035 876.42 -0.0025856 124.04 0.10527 10.777 0.092790 530.48 576.38 2.3709 1.4350 1.7512 221.14 0.31013 7.4523 0.015899
2.3750 73.941 0.16735 259.64 268.13 1.2471 525.37 0.0019034 204.99 205.96 1.0215 1.5802 2.5112 869.83 -0.0025022 122.78 0.10476 11.096 0.090123 531.53 577.47 2.3699 1.4406 1.7604 221.02 0.30789 7.4808 0.016015
3.3750 76.183 0.17233 263.50 272.26 1.2611 523.99 0.0019084 207.48 208.48 1.0305 1.5838 2.5190 863.24 -0.0024171 121.53 0.10425 11.422 0.087549 532.58 578.56 2.3688 1.4462 1.7697 220.89 0.30569 7.5095 0.016131
4.3750 78.475 0.17743 267.40 276.42 1.2752 522.62 0.0019134 209.98 211.01 1.0395 1.5874 2.5268 856.64 -0.0023303 120.29 0.10374 11.756 0.085062 533.63 579.65 2.3678 1.4518 1.7792 220.75 0.30354 7.5384 0.016249
5.3750 80.817 0.18266 271.33 280.62 1.2894 521.23 0.0019185 212.48 213.55 1.0486 1.5910 2.5348 850.04 -0.0022417 119.06 0.10324 12.098 0.082660 534.67 580.73 2.3669 1.4575 1.7888 220.60 0.30144 7.5674 0.016368
6.3750 83.211 0.18801 275.29 284.86 1.3036 519.84 0.0019237 215.00 216.10 1.0576 1.5946 2.5429 843.43 -0.0021514 117.85 0.10273 12.447 0.080340 535.72 581.81 2.3659 1.4632 1.7986 220.44 0.29938 7.5966 0.016487
7.3750 85.657 0.19349 279.29 289.13 1.3178 518.44 0.0019289 217.51 218.65 1.0666 1.5983 2.5511 836.82 -0.0020593 116.65 0.10223 12.805 0.078096 536.76 582.88 2.3650 1.4689 1.8085 220.27 0.29736 7.6259 0.016608
8.3750 88.156 0.19911 283.31 293.44 1.3321 517.03 0.0019341 220.04 221.22 1.0756 1.6020 2.5595 830.20 -0.0019652 115.46 0.10173 13.170 0.075928 537.80 583.95 2.3640 1.4746 1.8186 220.08 0.29538 7.6555 0.016730
9.3750 90.708 0.20486 287.36 297.79 1.3465 515.62 0.0019394 222.57 223.79 1.0846 1.6057 2.5679 823.58 -0.0018691 114.28 0.10124 13.545 0.073830 538.84 585.01 2.3631 1.4804 1.8288 219.89 0.29345 7.6852 0.016853
10.375 93.315 0.21074 291.45 302.17 1.3609 514.19 0.0019448 225.11 226.37 1.0936 1.6095 2.5765 816.96 -0.0017710 113.11 0.10074 13.927 0.071802 539.87 586.07 2.3622 1.4863 1.8392 219.69 0.29156 7.7151 0.016978
11.375 95.977 0.21677 295.56 306.59 1.3754 512.76 0.0019502 227.66 228.95 1.1025 1.6132 2.5852 810.32 -0.0016708 111.95 0.10025 14.319 0.069840 540.90 587.12 2.3614 1.4921 1.8498 219.48 0.28971 7.7452 0.017103
12.375 98.694 0.22294 299.71 311.05 1.3900 511.32 0.0019557 230.22 231.55 1.1115 1.6170 2.5940 803.68 -0.0015685 110.80 0.099756 14.719 0.067941 541.93 588.17 2.3605 1.4980 1.8605 219.26 0.28790 7.7756 0.017230
13.375 101.47 0.22927 303.89 315.55 1.4046 509.87 0.0019613 232.78 234.15 1.1205 1.6208 2.6030 797.04 -0.0014639 109.67 0.099267 15.128 0.066103 542.96 589.21 2.3597 1.5040 1.8715 219.03 0.28612 7.8061 0.017359
14.375 104.30 0.23574 308.11 320.09 1.4193 508.42 0.0019669 235.35 236.77 1.1295 1.6247 2.6121 790.39 -0.0013569 108.54 0.098779 15.547 0.064323 543.99 590.24 2.3588 1.5099 1.8826 218.79 0.28439 7.8369 0.017488
15.375 107.19 0.24237 312.36 324.67 1.4340 506.95 0.0019726 237.93 239.39 1.1384 1.6286 2.6214 783.73 -0.0012476 107.43 0.098294 15.974 0.062600 545.01 591.27 2.3580 1.5159 1.8940 218.53 0.28270 7.8680 0.017619
16.375 110.13 0.24916 316.64 329.29 1.4488 505.48 0.0019783 240.52 242.02 1.1474 1.6324 2.6308 777.07 -0.0011357 106.32 0.097810 16.412 0.060931 546.03 592.29 2.3572 1.5220 1.9055 218.27 0.28104 7.8993 0.017752
17.375 113.14 0.25611 320.95 333.95 1.4637 504.00 0.0019841 243.11 244.66 1.1564 1.6364 2.6403 770.40 -0.0010213 105.22 0.097328 16.859 0.059314 547.04 593.31 2.3564 1.5281 1.9172 217.99 0.27942 7.9308 0.017886
18.375 116.21 0.26323 325.30 338.65 1.4787 502.50 0.0019900 245.72 247.31 1.1653 1.6403 2.6501 763.72 -0.00090422 104.14 0.096848 17.317 0.057747 548.05 594.32 2.3557 1.5342 1.9292 217.71 0.27783 7.9626 0.018021
19.375 119.33 0.27052 329.68 343.39 1.4937 501.00 0.0019960 248.33 249.97 1.1743 1.6443 2.6599 757.04 -0.00078435 103.06 0.096371 17.785 0.056228 549.06 595.33 2.3549 1.5404 1.9414 217.41 0.27628 7.9947 0.018159
20.375 122.52 0.27798 334.10 348.18 1.5087 499.49 0.0020020 250.95 252.64 1.1832 1.6483 2.6700 750.35 -0.00066161 101.99 0.095895 18.263 0.054756 550.07 596.32 2.3541 1.5466 1.9538 217.10 0.27477 8.0272 0.018297
21.375 125.77 0.28563 338.55 353.00 1.5239 497.97 0.0020082 253.57 255.32 1.1922 1.6523 2.6802 743.64 -0.00053589 100.93 0.095420 18.752 0.053328 551.07 597.31 2.3534 1.5528 1.9665 216.78 0.27329 8.0599 0.018438
22.375 129.08 0.29346 343.03 357.87 1.5391 496.43 0.0020144 256.21 258.00 1.2012 1.6563 2.6906 736.94 -0.00040708 99.877 0.094948 19.252 0.051943 552.07 598.30 2.3526 1.5591 1.9795 216.45 0.27184 8.0929 0.018580
23.375 132.46 0.30149 347.55 362.77 1.5543 494.89 0.0020206 258.86 260.70 1.2101 1.6604 2.7012 730.22 -0.00027505 98.834 0.094478 19.763 0.050600 553.06 599.27 2.3519 1.5655 1.9927 216.11 0.27043 8.1263 0.018724
24.375 135.90 0.30971 352.11 367.73 1.5697 493.34 0.0020270 261.51 263.41 1.2191 1.6645 2.7120 723.49 -0.00013968 97.800 0.094009 20.285 0.049297 554.05 600.24 2.3512 1.5718 2.0061 215.75 0.26906 8.1600 0.018870
25.375 139.41 0.31813 356.70 372.72 1.5851 491.77 0.0020335 264.17 266.13 1.2280 1.6686 2.7230 716.76 -8.3775e-07 96.773 0.093543 20.820 0.048032 555.03 601.20 2.3504 1.5783 2.0199 215.39 0.26771 8.1941 0.019017
26.375 142.98 0.32675 361.33 377.76 1.6006 490.20 0.0020400 266.84 268.85 1.2370 1.6728 2.7342 710.01 0.00014161 95.755 0.093078 21.366 0.046804 556.01 602.15 2.3497 1.5847 2.0340 215.01 0.26640 8.2286 0.019167
27.375 146.62 0.33559 365.99 382.84 1.6161 488.61 0.0020466 269.52 271.59 1.2459 1.6770 2.7456 703.26 0.00028782 94.745 0.092615 21.924 0.045612 556.99 603.10 2.3490 1.5913 2.0484 214.62 0.26512 8.2634 0.019319
28.375 150.33 0.34465 370.70 387.97 1.6317 487.01 0.0020533 272.21 274.34 1.2549 1.6812 2.7573 696.49 0.00043793 93.742 0.092154 22.495 0.044454 557.96 604.03 2.3483 1.5978 2.0631 214.21 0.26387 8.2987 0.019472
29.375 154.10 0.35393 375.43 393.14 1.6474 485.40 0.0020601 274.91 277.10 1.2638 1.6854 2.7691 689.72 0.00059212 92.747 0.091695 23.079 0.043329 558.92 604.96 2.3476 1.6044 2.0781 213.80 0.26265 8.3344 0.019628
30.375 157.94 0.36345 380.21 398.36 1.6632 483.78 0.0020671 277.62 279.87 1.2728 1.6897 2.7813 682.93 0.00075055 91.760 0.091238 23.676 0.042237 559.88 605.88 2.3469 1.6111 2.0935 213.37 0.26147 8.3705 0.019786
31.375 161.86 0.37320 385.02 403.62 1.6790 482.15 0.0020741 280.34 282.66 1.2818 1.6939 2.7936 676.13 0.00091340 90.779 0.090782 24.287 0.041175 560.84 606.79 2.3462 1.6178 2.1092 212.93 0.26031 8.4071 0.019947
32.375 165.84 0.38321 389.88 408.93 1.6949 480.50 0.0020812 283.07 285.45 1.2908 1.6983 2.8063 669.32 0.0010809 89.806 0.090328 24.911 0.040143 561.79 607.69 2.3455 1.6246 2.1254 212.48 0.25919 8.4442 0.020110
33.375 169.90 0.39346 394.77 414.29 1.7109 478.83 0.0020884 285.81 288.26 1.2997 1.7026 2.8192 662.50 0.0012532 88.840 0.089876 25.549 0.039140 562.73 608.58 2.3448 1.6314 2.1419 212.01 0.25809 8.4818 0.020275
34.375 174.02 0.40398 399.70 419.69 1.7270 477.16 0.0020957 288.56 291.07 1.3087 1.7070 2.8324 655.67 0.0014305 87.880 0.089426 26.202 0.038164 563.67 609.46 2.3440 1.6383 2.1589 211.53 0.25702 8.5199 0.020443
35.375 178.22 0.41476 404.67 425.15 1.7431 475.47 0.0021032 291.32 293.90 1.3177 1.7114 2.8459 648.82 0.0016131 86.927 0.088977 26.870 0.037216 564.60 610.33 2.3433 1.6452 2.1763 211.04 0.25599 8.5586 0.020613
36.375 182.50 0.42583 409.67 430.64 1.7593 473.77 0.0021107 294.09 296.74 1.3267 1.7158 2.8597 641.96 0.0018012 85.980 0.088531 27.553 0.036293 565.52 611.19 2.3426 1.6522 2.1942 210.53 0.25498 8.5978 0.020786
37.375 186.84 0.43719 414.72 436.19 1.7756 472.05 0.0021184 296.87 299.60 1.3357 1.7203 2.8739 635.08 0.0019950 85.040 0.088085 28.252 0.035395 566.44 612.04 2.3419 1.6592 2.2125 210.01 0.25400 8.6376 0.020962
38.375 191.27 0.44884 419.81 441.79 1.7919 470.31 0.0021262 299.66 302.46 1.3447 1.7248 2.8884 628.19 0.0021949 84.105 0.087642 28.967 0.034522 567.35 612.88 2.3411 1.6663 2.2314 209.47 0.25305 8.6780 0.021141
39.375 195.77 0.46080 424.94 447.44 1.8084 468.56 0.0021342 302.46 305.34 1.3537 1.7293 2.9033 621.29 0.0024011 83.177 0.087200 29.699 0.033671 568.26 613.70 2.3404 1.6734 2.2508 208.92 0.25213 8.7190 0.021323
40.375 200.34 0.47309 430.11 453.13 1.8249 466.80 0.0021423 305.27 308.23 1.3627 1.7339 2.9185 614.37 0.0026140 82.254 0.086760 30.447 0.032844 569.15 614.52 2.3396 1.6806 2.2708 208.36 0.25123 8.7608 0.021508
41.375 205.00 0.48570 435.32 458.88 1.8415 465.01 0.0021505 308.10 311.14 1.3718 1.7385 2.9342 607.43 0.0028338 81.338 0.086322 31.214 0.032037 570.04 615.32 2.3389 1.6879 2.2913 207.78 0.25037 8.8032 0.021696
42.375 209.73 0.49866 440.58 464.68 1.8582 463.21 0.0021588 310.94 314.06 1.3808 1.7432 2.9502 600.47 0.0030609 80.426 0.085885 31.998 0.031252 570.92 616.11 2.3381 1.6952 2.3125 207.19 0.24953 8.8463 0.021888
43.375 214.54 0.51198 445.88 470.53 1.8749 461.40 0.0021673 313.79 316.99 1.3899 1.7478 2.9667 593.50 0.0032957 79.520 0.085449 32.800 0.030488 571.79 616.88 2.3373 1.7027 2.3344 206.58 0.24871 8.8902 0.022084
44.375 219.43 0.52566 451.22 476.43 1.8918 459.56 0.0021760 316.65 319.94 1.3989 1.7525 2.9837 586.51 0.0035386 78.619 0.085015 33.622 0.029742 572.65 617.65 2.3365 1.7101 2.3569 205.96 0.24793 8.9349 0.022283
45.375 224.41 0.53974 456.60 482.39 1.9087 457.71 0.0021848 319.52 322.90 1.4080 1.7573 3.0012 579.50 0.0037900 77.723 0.084583 34.463 0.029016 573.50 618.40 2.3357 1.7177 2.3802 205.32 0.24717 8.9805 0.022485
46.375 229.46 0.55421 462.03 488.40 1.9257 455.83 0.0021938 322.41 325.88 1.4171 1.7621 3.0192 572.46 0.0040504 76.832 0.084152 35.325 0.028308 574.34 619.13 2.3349 1.7253 2.4042 204.67 0.24644 9.0269 0.022692
47.375 234.60 0.56910 467.51 494.46 1.9428 453.94 0.0022029 325.31 328.87 1.4262 1.7669 3.0377 565.41 0.0043202 75.946 0.083723 36.208 0.027618 575.17 619.85 2.3340 1.7329 2.4291 204.00 0.24573 9.0742 0.022903
48.375 239.83 0.58442 473.03 500.58 1.9600 452.03 0.0022123 328.22 331.88 1.4353 1.7718 3.0569 558.34 0.0046000 75.064 0.083295 37.112 0.026945 576.00 620.55 2.3332 1.7407 2.4548 203.31 0.24505 9.1224 0.023119
49.375 245.13 0.60019 478.59 506.76 1.9773 450.09 0.0022218 331.15 334.90 1.4445 1.7767 3.0766 551.24 0.0048904 74.186 0.082868 38.039 0.026289 576.81 621.24 2.3323 1.7485 2.4815 202.61 0.24440 9.1716 0.023339
50.375 250.53 0.61644 484.20 512.99 1.9947 448.13 0.0022315 334.09 337.94 1.4536 1.7817 3.0970 544.13 0.0051920 73.313 0.082442 38.989 0.025648 577.61 621.91 2.3314 1.7564 2.5092 201.89 0.24377 9.2219 0.023564
51.375 256.01 0.63318 489.86 519.28 2.0122 446.15 0.0022414 337.04 341.00 1.4628 1.7867 3.1181 536.98 0.0055054 72.443 0.082018 39.962 0.025024 578.39 622.56 2.3304 1.7644 2.5379 201.16 0.24317 9.2733 0.023794
52.375 261.57 0.65044 495.57 525.63 2.0297 444.15 0.0022515 340.01 344.07 1.4720 1.7918 3.1400 529.82 0.0058313 71.577 0.081595 40.961 0.024414 579.17 623.20 2.3295 1.7724 2.5677 200.41 0.24260 9.3258 0.024029
53.375 267.23 0.66824 501.33 532.03 2.0474 442.12 0.0022618 343.00 347.17 1.4812 1.7969 3.1627 522.62 0.0061705 70.715 0.081174 41.985 0.023818 579.93 623.81 2.3285 1.7805 2.5987 199.63 0.24205 9.3795 0.024270
54.375 272.97 0.68661 507.13 538.50 2.0651 440.06 0.0022724 346.00 350.28 1.4904 1.8021 3.1862 515.40 0.0065239 69.856 0.080753 43.036 0.023237 580.68 624.41 2.3274 1.7887 2.6310 198.85 0.24154 9.4344 0.024516
55.375 278.81 0.70558 512.99 545.03 2.0830 437.98 0.0022832 349.02 353.40 1.4997 1.8073 3.2106 508.15 0.0068923 69.001 0.080334 44.114 0.022669 581.41 624.99 2.3264 1.7969 2.6646 198.04 0.24105 9.4907 0.024769
56.375 284.74 0.72517 518.89 551.61 2.1009 435.87 0.0022943 352.05 356.55 1.5090 1.8126 3.2360 500.87 0.0072767 68.148 0.079915 45.221 0.022114 582.13 625.54 2.3253 1.8052 2.6998 197.22 0.24059 9.5484 0.025028
57.375 290.76 0.74542 524.85 558.26 2.1190 433.73 0.0023056 355.10 359.72 1.5183 1.8179 3.2624 493.56 0.0076782 67.299 0.079498 46.358 0.021571 582.83 626.07 2.3241 1.8136 2.7365 196.37 0.24016 9.6075 0.025294
58.375 296.87 0.76636 530.86 564.98 2.1372 431.56 0.0023172 358.17 362.91 1.5276 1.8233 3.2900 486.22 0.0080980 66.451 0.079082 47.525 0.021041 583.52 626.58 2.3230 1.8220 2.7749 195.51 0.23976 9.6682 0.025568
59.375 303.08 0.78804 536.93 571.76 2.1554 429.36 0.0023290 361.25 366.12 1.5370 1.8288 3.3188 478.84 0.0085373 65.606 0.078666 48.726 0.020523 584.18 627.07 2.3218 1.8305 2.8152 194.63 0.23939 9.7305 0.025849
60.375 309.38 0.81049 543.05 578.60 2.1738 427.13 0.0023412 364.36 369.35 1.5464 1.8343 3.3489 471.43 0.0089976 64.763 0.078251 49.960 0.020016 584.83 627.53 2.3205 1.8391 2.8576 193.73 0.23905 9.7945 0.026138
61.375 315.78 0.83377 549.23 585.51 2.1923 424.87 0.0023537 367.48 372.60 1.5558 1.8400 3.3805 463.99 0.0094803 63.922 0.077838 51.229 0.019520 585.46 627.96 2.3192 1.8479 2.9022 192.82 0.23873 9.8603 0.026436
62.375 322.28 0.85792 555.46 592.49 2.2109 422.56 0.0023665 370.62 375.88 1.5653 1.8457 3.4136 456.50 0.0099871 63.083 0.077425 52.535 0.019035 586.07 628.37 2.3178 1.8567 2.9492 191.88 0.23845 9.9281 0.026744
63.375 328.88 0.88299 561.75 599.54 2.2296 420.22 0.0023797 373.79 379.18 1.5748 1.8514 3.4483 448.97 0.010520 62.244 0.077012 53.879 0.018560 586.66 628.74 2.3164 1.8656 2.9989 190.92 0.23819 9.9979 0.027061
64.375 335.58 0.90905 568.10 606.66 2.2485 417.85 0.0023932 376.97 382.51 1.5844 1.8573 3.4850 441.40 0.011081 61.407 0.076600 55.265 0.018095 587.22 629.09 2.3149 1.8747 3.0517 189.95 0.23796 10.070 0.027389
65.375 342.38 0.93616 574.51 613.85 2.2674 415.42 0.0024072 380.18 385.86 1.5939 1.8633 3.5236 433.79 0.011672 60.570 0.076189 56.692 0.017639 587.76 629.40 2.3133 1.8839 3.1077 188.95 0.23775 10.144 0.027729
66.375 349.28 0.96440 580.98 621.12 2.2865 412.96 0.0024215 383.41 389.25 1.6036 1.8693 3.5645 426.12 0.012296 59.733 0.075779 58.165 0.017193 588.28 629.68 2.3117 1.8933 3.1674 187.93 0.23757 10.221 0.028080
67.375 356.28 0.99384 587.52 628.46 2.3057 410.45 0.0024363 386.67 392.65 1.6133 1.8755 3.6078 418.41 0.012956 58.897 0.075368 59.684 0.016755 588.76 629.92 2.3100 1.9030 3.2311 186.89 0.23740 10.300 0.028446
68.375 359.69 undefined 590.38 631.71 2.3141 60.000 0.016667 590.38 631.71 2.3141 1.9051 3.2196 187.37 0.23440 10.342 0.028591 60.000 0.016667 590.38 631.71 2.3141 1.9051 3.2196 187.37 0.23440 10.342 0.028591
69.375 362.14 undefined 592.28 633.90 2.3197 60.000 0.016667 592.28 633.90 2.3197 1.9055 3.1897 188.23 0.23077 10.374 0.028679 60.000 0.016667 592.28 633.90 2.3197 1.9055 3.1897 188.23 0.23077 10.374 0.028679
70.375 364.59 undefined 594.19 636.08 2.3252 60.000 0.016667 594.19 636.08 2.3252 1.9061 3.1616 189.08 0.22723 10.406 0.028771 60.000 0.016667 594.19 636.08 2.3252 1.9061 3.1616 189.08 0.22723 10.406 0.028771
71.375 367.03 undefined 596.09 638.27 2.3308 60.000 0.016667 596.09 638.27 2.3308 1.9067 3.1350 189.93 0.22378 10.438 0.028864 60.000 0.016667 596.09 638.27 2.3308 1.9067 3.1350 189.93 0.22378 10.438 0.028864
72.375 369.46 undefined 598.00 640.46 2.3363 60.000 0.016667 598.00 640.46 2.3363 1.9075 3.1099 190.77 0.22042 10.470 0.028960 60.000 0.016667 598.00 640.46 2.3363 1.9075 3.1099 190.77 0.22042 10.470 0.028960
73.375 371.88 undefined 599.91 642.64 2.3418 60.000 0.016667 599.91 642.64 2.3418 1.9084 3.0861 191.60 0.21714 10.502 0.029059 60.000 0.016667 599.91 642.64 2.3418 1.9084 3.0861 191.60 0.21714 10.502 0.029059
74.375 374.29 undefined 601.82 644.83 2.3473 60.000 0.016667 601.82 644.83 2.3473 1.9094 3.0636 192.43 0.21395 10.534 0.029159 60.000 0.016667 601.82 644.83 2.3473 1.9094 3.0636 192.43 0.21395 10.534 0.029159
75.375 376.70 undefined 603.73 647.02 2.3528 60.000 0.016667 603.73 647.02 2.3528 1.9105 3.0423 193.25 0.21084 10.565 0.029261 60.000 0.016667 603.73 647.02 2.3528 1.9105 3.0423 193.25 0.21084 10.565 0.029261
76.375 379.10 undefined 605.64 649.20 2.3583 60.000 0.016667 605.64 649.20 2.3583 1.9117 3.0220 194.07 0.20780 10.597 0.029365 60.000 0.016667 605.64 649.20 2.3583 1.9117 3.0220 194.07 0.20780 10.597 0.029365
77.375 381.49 undefined 607.55 651.39 2.3638 60.000 0.016667 607.55 651.39 2.3638 1.9129 3.0027 194.88 0.20485 10.629 0.029470 60.000 0.016667 607.55 651.39 2.3638 1.9129 3.0027 194.88 0.20485 10.629 0.029470
78.375 383.87 undefined 609.47 653.58 2.3692 60.000 0.016667 609.47 653.58 2.3692 1.9142 2.9845 195.68 0.20197 10.661 0.029578 60.000 0.016667 609.47 653.58 2.3692 1.9142 2.9845 195.68 0.20197 10.661 0.029578
79.375 386.25 undefined 611.38 655.76 2.3746 60.000 0.016667 611.38 655.76 2.3746 1.9155 2.9671 196.48 0.19916 10.692 0.029686 60.000 0.016667 611.38 655.76 2.3746 1.9155 2.9671 196.48 0.19916 10.692 0.029686
80.375 388.62 undefined 613.30 657.95 2.3801 60.000 0.016667 613.30 657.95 2.3801 1.9169 2.9505 197.27 0.19641 10.724 0.029797 60.000 0.016667 613.30 657.95 2.3801 1.9169 2.9505 197.27 0.19641 10.724 0.029797
81.375 390.98 undefined 615.21 660.14 2.3855 60.000 0.016667 615.21 660.14 2.3855 1.9183 2.9348 198.06 0.19374 10.755 0.029908 60.000 0.016667 615.21 660.14 2.3855 1.9183 2.9348 198.06 0.19374 10.755 0.029908
82.375 393.33 undefined 617.13 662.33 2.3909 60.000 0.016667 617.13 662.33 2.3909 1.9199 2.9199 198.85 0.19113 10.787 0.030021 60.000 0.016667 617.13 662.33 2.3909 1.9199 2.9199 198.85 0.19113 10.787 0.030021
83.375 395.69 undefined 619.05 664.52 2.3963 60.000 0.016667 619.05 664.52 2.3963 1.9215 2.9057 199.63 0.18858 10.818 0.030136 60.000 0.016667 619.05 664.52 2.3963 1.9215 2.9057 199.63 0.18858 10.818 0.030136
84.375 398.03 undefined 620.98 666.71 2.4017 60.000 0.016667 620.98 666.71 2.4017 1.9231 2.8922 200.40 0.18609 10.850 0.030251 60.000 0.016667 620.98 666.71 2.4017 1.9231 2.8922 200.40 0.18609 10.850 0.030251
85.375 400.37 undefined 622.90 668.91 2.4070 60.000 0.016667 622.90 668.91 2.4070 1.9249 2.8794 201.18 0.18365 10.881 0.030368 60.000 0.016667 622.90 668.91 2.4070 1.9249 2.8794 201.18 0.18365 10.881 0.030368
86.375 402.70 undefined 624.83 671.10 2.4124 60.000 0.016667 624.83 671.10 2.4124 1.9267 2.8672 201.94 0.18127 10.913 0.030486 60.000 0.016667 624.83 671.10 2.4124 1.9267 2.8672 201.94 0.18127 10.913 0.030486
87.375 405.03 undefined 626.75 673.30 2.4178 60.000 0.016667 626.75 673.30 2.4178 1.9285 2.8556 202.71 0.17894 10.944 0.030605 60.000 0.016667 626.75 673.30 2.4178 1.9285 2.8556 202.71 0.17894 10.944 0.030605
88.375 407.35 undefined 628.68 675.49 2.4231 60.000 0.016667 628.68 675.49 2.4231 1.9305 2.8446 203.47 0.17667 10.975 0.030725 60.000 0.016667 628.68 675.49 2.4231 1.9305 2.8446 203.47 0.17667 10.975 0.030725
89.375 409.67 undefined 630.61 677.69 2.4284 60.000 0.016667 630.61 677.69 2.4284 1.9325 2.8341 204.22 0.17444 11.007 0.030846 60.000 0.016667 630.61 677.69 2.4284 1.9325 2.8341 204.22 0.17444 11.007 0.030846
90.375 411.98 undefined 632.55 679.89 2.4338 60.000 0.016667 632.55 679.89 2.4338 1.9346 2.8241 204.97 0.17225 11.038 0.030968 60.000 0.016667 632.55 679.89 2.4338 1.9346 2.8241 204.97 0.17225 11.038 0.030968
91.375 414.29 undefined 634.48 682.09 2.4391 60.000 0.016667 634.48 682.09 2.4391 1.9368 2.8146 205.72 0.17011 11.069 0.031091 60.000 0.016667 634.48 682.09 2.4391 1.9368 2.8146 205.72 0.17011 11.069 0.031091
92.375 416.59 undefined 636.42 684.29 2.4444 60.000 0.016667 636.42 684.29 2.4444 1.9390 2.8056 206.46 0.16802 11.100 0.031215 60.000 0.016667 636.42 684.29 2.4444 1.9390 2.8056 206.46 0.16802 11.100 0.031215
93.375 418.89 undefined 638.36 686.50 2.4497 60.000 0.016667 638.36 686.50 2.4497 1.9413 2.7971 207.20 0.16597 11.131 0.031340 60.000 0.016667 638.36 686.50 2.4497 1.9413 2.7971 207.20 0.16597 11.131 0.031340
94.375 421.18 undefined 640.30 688.70 2.4550 60.000 0.016667 640.30 688.70 2.4550 1.9437 2.7889 207.94 0.16395 11.162 0.031466 60.000 0.016667 640.30 688.70 2.4550 1.9437 2.7889 207.94 0.16395 11.162 0.031466
95.375 423.47 undefined 642.25 690.91 2.4603 60.000 0.016667 642.25 690.91 2.4603 1.9461 2.7811 208.67 0.16198 11.194 0.031592 60.000 0.016667 642.25 690.91 2.4603 1.9461 2.7811 208.67 0.16198 11.194 0.031592
96.375 425.75 undefined 644.20 693.12 2.4656 60.000 0.016667 644.20 693.12 2.4656 1.9486 2.7738 209.40 0.16005 11.225 0.031720 60.000 0.016667 644.20 693.12 2.4656 1.9486 2.7738 209.40 0.16005 11.225 0.031720
97.375 428.03 undefined 646.15 695.33 2.4708 60.000 0.016667 646.15 695.33 2.4708 1.9511 2.7667 210.13 0.15815 11.256 0.031848 60.000 0.016667 646.15 695.33 2.4708 1.9511 2.7667 210.13 0.15815 11.256 0.031848
98.375 430.31 undefined 648.10 697.55 2.4761 60.000 0.016667 648.10 697.55 2.4761 1.9537 2.7600 210.85 0.15629 11.286 0.031977 60.000 0.016667 648.10 697.55 2.4761 1.9537 2.7600 210.85 0.15629 11.286 0.031977
99.375 432.58 undefined 650.05 699.76 2.4813 60.000 0.016667 650.05 699.76 2.4813 1.9563 2.7537 211.56 0.15446 11.317 0.032107 60.000 0.016667 650.05 699.76 2.4813 1.9563 2.7537 211.56 0.15446 11.317 0.032107
100.38 434.85 undefined 652.01 701.98 2.4866 60.000 0.016667 652.01 701.98 2.4866 1.9590 2.7476 212.28 0.15267 11.348 0.032237 60.000 0.016667 652.01 701.98 2.4866 1.9590 2.7476 212.28 0.15267 11.348 0.032237
101.38 437.11 undefined 653.97 704.20 2.4918 60.000 0.016667 653.97 704.20 2.4918 1.9617 2.7418 212.99 0.15091 11.379 0.032368 60.000 0.016667 653.97 704.20 2.4918 1.9617 2.7418 212.99 0.15091 11.379 0.032368
102.38 439.37 undefined 655.93 706.42 2.4971 60.000 0.016667 655.93 706.42 2.4971 1.9644 2.7363 213.70 0.14918 11.410 0.032500 60.000 0.016667 655.93 706.42 2.4971 1.9644 2.7363 213.70 0.14918 11.410 0.032500
103.38 441.63 undefined 657.90 708.65 2.5023 60.000 0.016667 657.90 708.65 2.5023 1.9672 2.7311 214.40 0.14748 11.441 0.032632 60.000 0.016667 657.90 708.65 2.5023 1.9672 2.7311 214.40 0.14748 11.441 0.032632
104.38 443.89 undefined 659.87 710.88 2.5075 60.000 0.016667 659.87 710.88 2.5075 1.9700 2.7261 215.11 0.14581 11.471 0.032765 60.000 0.016667 659.87 710.88 2.5075 1.9700 2.7261 215.11 0.14581 11.471 0.032765
105.38 446.14 undefined 661.84 713.11 2.5127 60.000 0.016667 661.84 713.11 2.5127 1.9729 2.7214 215.80 0.14418 11.502 0.032899 60.000 0.016667 661.84 713.11 2.5127 1.9729 2.7214 215.80 0.14418 11.502 0.032899
106.38 448.38 undefined 663.81 715.34 2.5179 60.000 0.016667 663.81 715.34 2.5179 1.9757 2.7169 216.50 0.14257 11.533 0.033033 60.000 0.016667 663.81 715.34 2.5179 1.9757 2.7169 216.50 0.14257 11.533 0.033033
107.38 450.63 undefined 665.79 717.57 2.5231 60.000 0.016667 665.79 717.57 2.5231 1.9787 2.7126 217.19 0.14099 11.563 0.033168 60.000 0.016667 665.79 717.57 2.5231 1.9787 2.7126 217.19 0.14099 11.563 0.033168
108.38 452.87 undefined 667.77 719.81 2.5283 60.000 0.016667 667.77 719.81 2.5283 1.9816 2.7085 217.88 0.13943 11.594 0.033304 60.000 0.016667 667.77 719.81 2.5283 1.9816 2.7085 217.88 0.13943 11.594 0.033304
109.38 455.10 undefined 669.76 722.05 2.5335 60.000 0.016667 669.76 722.05 2.5335 1.9846 2.7047 218.57 0.13791 11.625 0.033440 60.000 0.016667 669.76 722.05 2.5335 1.9846 2.7047 218.57 0.13791 11.625 0.033440
110.38 457.34 undefined 671.74 724.30 2.5387 60.000 0.016667 671.74 724.30 2.5387 1.9876 2.7010 219.25 0.13641 11.655 0.033576 60.000 0.016667 671.74 724.30 2.5387 1.9876 2.7010 219.25 0.13641 11.655 0.033576
111.38 459.57 undefined 673.73 726.54 2.5439 60.000 0.016667 673.73 726.54 2.5439 1.9906 2.6975 219.93 0.13493 11.686 0.033714 60.000 0.016667 673.73 726.54 2.5439 1.9906 2.6975 219.93 0.13493 11.686 0.033714
112.38 461.80 undefined 675.72 728.79 2.5491 60.000 0.016667 675.72 728.79 2.5491 1.9936 2.6942 220.61 0.13348 11.716 0.033851 60.000 0.016667 675.72 728.79 2.5491 1.9936 2.6942 220.61 0.13348 11.716 0.033851
113.38 464.02 undefined 677.72 731.04 2.5542 60.000 0.016667 677.72 731.04 2.5542 1.9967 2.6911 221.29 0.13205 11.747 0.033990 60.000 0.016667 677.72 731.04 2.5542 1.9967 2.6911 221.29 0.13205 11.747 0.033990
114.38 466.24 undefined 679.72 733.29 2.5594 60.000 0.016667 679.72 733.29 2.5594 1.9998 2.6882 221.96 0.13065 11.777 0.034129 60.000 0.016667 679.72 733.29 2.5594 1.9998 2.6882 221.96 0.13065 11.777 0.034129
115.38 468.46 undefined 681.72 735.55 2.5646 60.000 0.016667 681.72 735.55 2.5646 2.0029 2.6854 222.63 0.12927 11.807 0.034268 60.000 0.016667 681.72 735.55 2.5646 2.0029 2.6854 222.63 0.12927 11.807 0.034268
116.38 470.68 undefined 683.72 737.81 2.5697 60.000 0.016667 683.72 737.81 2.5697 2.0060 2.6828 223.30 0.12791 11.838 0.034408 60.000 0.016667 683.72 737.81 2.5697 2.0060 2.6828 223.30 0.12791 11.838 0.034408
117.38 472.89 undefined 685.73 740.07 2.5749 60.000 0.016667 685.73 740.07 2.5749 2.0092 2.6803 223.96 0.12658 11.868 0.034548 60.000 0.016667 685.73 740.07 2.5749 2.0092 2.6803 223.96 0.12658 11.868 0.034548
118.38 475.10 undefined 687.74 742.34 2.5800 60.000 0.016667 687.74 742.34 2.5800 2.0123 2.6780 224.62 0.12526 11.898 0.034689 60.000 0.016667 687.74 742.34 2.5800 2.0123 2.6780 224.62 0.12526 11.898 0.034689
119.38 477.31 undefined 689.75 744.60 2.5851 60.000 0.016667 689.75 744.60 2.5851 2.0155 2.6758 225.28 0.12397 11.928 0.034831 60.000 0.016667 689.75 744.60 2.5851 2.0155 2.6758 225.28 0.12397 11.928 0.034831
120.38 479.51 undefined 691.77 746.87 2.5903 60.000 0.016667 691.77 746.87 2.5903 2.0187 2.6737 225.94 0.12270 11.959 0.034973 60.000 0.016667 691.77 746.87 2.5903 2.0187 2.6737 225.94 0.12270 11.959 0.034973
121.38 481.72 undefined 693.79 749.15 2.5954 60.000 0.016667 693.79 749.15 2.5954 2.0219 2.6718 226.59 0.12144 11.989 0.035115 60.000 0.016667 693.79 749.15 2.5954 2.0219 2.6718 226.59 0.12144 11.989 0.035115
122.38 483.92 undefined 695.82 751.42 2.6005 60.000 0.016667 695.82 751.42 2.6005 2.0252 2.6700 227.24 0.12021 12.019 0.035258 60.000 0.016667 695.82 751.42 2.6005 2.0252 2.6700 227.24 0.12021 12.019 0.035258
123.38 486.12 undefined 697.84 753.70 2.6056 60.000 0.016667 697.84 753.70 2.6056 2.0284 2.6683 227.89 0.11899 12.049 0.035401 60.000 0.016667 697.84 753.70 2.6056 2.0284 2.6683 227.89 0.11899 12.049 0.035401
124.38 488.31 undefined 699.87 755.99 2.6107 60.000 0.016667 699.87 755.99 2.6107 2.0317 2.6667 228.54 0.11780 12.079 0.035545 60.000 0.016667 699.87 755.99 2.6107 2.0317 2.6667 228.54 0.11780 12.079 0.035545
125.38 490.50 undefined 701.91 758.27 2.6159 60.000 0.016667 701.91 758.27 2.6159 2.0350 2.6653 229.19 0.11662 12.109 0.035690 60.000 0.016667 701.91 758.27 2.6159 2.0350 2.6653 229.19 0.11662 12.109 0.035690
126.38 492.69 undefined 703.94 760.56 2.6210 60.000 0.016667 703.94 760.56 2.6210 2.0383 2.6640 229.83 0.11546 12.139 0.035834 60.000 0.016667 703.94 760.56 2.6210 2.0383 2.6640 229.83 0.11546 12.139 0.035834
127.38 494.88 undefined 705.98 762.85 2.6261 60.000 0.016667 705.98 762.85 2.6261 2.0416 2.6627 230.47 0.11432 12.169 0.035979 60.000 0.016667 705.98 762.85 2.6261 2.0416 2.6627 230.47 0.11432 12.169 0.035979
128.38 497.07 undefined 708.03 765.14 2.6312 60.000 0.016667 708.03 765.14 2.6312 2.0449 2.6616 231.11 0.11319 12.199 0.036125 60.000 0.016667 708.03 765.14 2.6312 2.0449 2.6616 231.11 0.11319 12.199 0.036125
129.38 499.25 undefined 710.07 767.44 2.6362 60.000 0.016667 710.07 767.44 2.6362 2.0482 2.6606 231.74 0.11208 12.229 0.036271 60.000 0.016667 710.07 767.44 2.6362 2.0482 2.6606 231.74 0.11208 12.229 0.036271
130.38 501.43 undefined 712.12 769.74 2.6413 60.000 0.016667 712.12 769.74 2.6413 2.0516 2.6597 232.37 0.11099 12.259 0.036418 60.000 0.016667 712.12 769.74 2.6413 2.0516 2.6597 232.37 0.11099 12.259 0.036418
131.38 503.61 undefined 714.17 772.05 2.6464 60.000 0.016667 714.17 772.05 2.6464 2.0549 2.6588 233.00 0.10991 12.289 0.036565 60.000 0.016667 714.17 772.05 2.6464 2.0549 2.6588 233.00 0.10991 12.289 0.036565
132.38 505.79 undefined 716.23 774.35 2.6515 60.000 0.016667 716.23 774.35 2.6515 2.0583 2.6581 233.63 0.10885 12.318 0.036712 60.000 0.016667 716.23 774.35 2.6515 2.0583 2.6581 233.63 0.10885 12.318 0.036712
133.38 507.96 undefined 718.29 776.66 2.6566 60.000 0.016667 718.29 776.66 2.6566 2.0617 2.6574 234.26 0.10781 12.348 0.036860 60.000 0.016667 718.29 776.66 2.6566 2.0617 2.6574 234.26 0.10781 12.348 0.036860
134.38 510.14 undefined 720.35 778.98 2.6616 60.000 0.016667 720.35 778.98 2.6616 2.0651 2.6569 234.88 0.10678 12.378 0.037008 60.000 0.016667 720.35 778.98 2.6616 2.0651 2.6569 234.88 0.10678 12.378 0.037008
135.38 512.31 undefined 722.42 781.29 2.6667 60.000 0.016667 722.42 781.29 2.6667 2.0685 2.6564 235.51 0.10576 12.408 0.037157 60.000 0.016667 722.42 781.29 2.6667 2.0685 2.6564 235.51 0.10576 12.408 0.037157
136.38 514.48 undefined 724.49 783.61 2.6718 60.000 0.016667 724.49 783.61 2.6718 2.0719 2.6560 236.13 0.10476 12.437 0.037306 60.000 0.016667 724.49 783.61 2.6718 2.0719 2.6560 236.13 0.10476 12.437 0.037306
137.38 516.64 undefined 726.57 785.93 2.6768 60.000 0.016667 726.57 785.93 2.6768 2.0753 2.6557 236.75 0.10377 12.467 0.037455 60.000 0.016667 726.57 785.93 2.6768 2.0753 2.6557 236.75 0.10377 12.467 0.037455
138.38 518.81 undefined 728.64 788.26 2.6819 60.000 0.016667 728.64 788.26 2.6819 2.0787 2.6554 237.36 0.10280 12.496 0.037605 60.000 0.016667 728.64 788.26 2.6819 2.0787 2.6554 237.36 0.10280 12.496 0.037605
139.38 520.97 undefined 730.72 790.59 2.6869 60.000 0.016667 730.72 790.59 2.6869 2.0821 2.6553 237.98 0.10184 12.526 0.037755 60.000 0.016667 730.72 790.59 2.6869 2.0821 2.6553 237.98 0.10184 12.526 0.037755
140.38 523.13 undefined 732.81 792.92 2.6920 60.000 0.016667 732.81 792.92 2.6920 2.0856 2.6552 238.59 0.10090 12.556 0.037906 60.000 0.016667 732.81 792.92 2.6920 2.0856 2.6552 238.59 0.10090 12.556 0.037906
141.38 525.29 undefined 734.89 795.26 2.6970 60.000 0.016667 734.89 795.26 2.6970 2.0890 2.6552 239.20 0.099965 12.585 0.038057 60.000 0.016667 734.89 795.26 2.6970 2.0890 2.6552 239.20 0.099965 12.585 0.038057
142.38 527.45 undefined 736.98 797.59 2.7020 60.000 0.016667 736.98 797.59 2.7020 2.0925 2.6552 239.81 0.099046 12.615 0.038209 60.000 0.016667 736.98 797.59 2.7020 2.0925 2.6552 239.81 0.099046 12.615 0.038209
143.38 529.60 undefined 739.08 799.94 2.7071 60.000 0.016667 739.08 799.94 2.7071 2.0960 2.6553 240.41 0.098139 12.644 0.038360 60.000 0.016667 739.08 799.94 2.7071 2.0960 2.6553 240.41 0.098139 12.644 0.038360
144.38 531.75 undefined 741.18 802.28 2.7121 60.000 0.016667 741.18 802.28 2.7121 2.0994 2.6555 241.02 0.097244 12.673 0.038513 60.000 0.016667 741.18 802.28 2.7121 2.0994 2.6555 241.02 0.097244 12.673 0.038513
145.38 533.90 undefined 743.28 804.63 2.7171 60.000 0.016667 743.28 804.63 2.7171 2.1029 2.6558 241.62 0.096362 12.703 0.038665 60.000 0.016667 743.28 804.63 2.7171 2.1029 2.6558 241.62 0.096362 12.703 0.038665
146.38 536.05 undefined 745.38 806.98 2.7222 60.000 0.016667 745.38 806.98 2.7222 2.1064 2.6561 242.22 0.095492 12.732 0.038818 60.000 0.016667 745.38 806.98 2.7222 2.1064 2.6561 242.22 0.095492 12.732 0.038818
147.38 538.20 undefined 747.49 809.34 2.7272 60.000 0.016667 747.49 809.34 2.7272 2.1099 2.6564 242.82 0.094633 12.761 0.038972 60.000 0.016667 747.49 809.34 2.7272 2.1099 2.6564 242.82 0.094633 12.761 0.038972
148.38 540.35 undefined 749.60 811.70 2.7322 60.000 0.016667 749.60 811.70 2.7322 2.1134 2.6569 243.42 0.093786 12.791 0.039125 60.000 0.016667 749.60 811.70 2.7322 2.1134 2.6569 243.42 0.093786 12.791 0.039125
149.38 542.49 undefined 751.72 814.06 2.7372 60.000 0.016667 751.72 814.06 2.7372 2.1169 2.6574 244.01 0.092951 12.820 0.039279 60.000 0.016667 751.72 814.06 2.7372 2.1169 2.6574 244.01 0.092951 12.820 0.039279
150.38 544.63 undefined 753.84 816.42 2.7422 60.000 0.016667 753.84 816.42 2.7422 2.1204 2.6579 244.60 0.092126 12.849 0.039434 60.000 0.016667 753.84 816.42 2.7422 2.1204 2.6579 244.60 0.092126 12.849 0.039434
151.38 546.78 undefined 755.96 818.79 2.7472 60.000 0.016667 755.96 818.79 2.7472 2.1239 2.6585 245.20 0.091312 12.878 0.039589 60.000 0.016667 755.96 818.79 2.7472 2.1239 2.6585 245.20 0.091312 12.878 0.039589
152.38 548.92 undefined 758.08 821.16 2.7522 60.000 0.016667 758.08 821.16 2.7522 2.1275 2.6592 245.79 0.090509 12.907 0.039744 60.000 0.016667 758.08 821.16 2.7522 2.1275 2.6592 245.79 0.090509 12.907 0.039744
153.38 551.05 undefined 760.21 823.54 2.7572 60.000 0.016667 760.21 823.54 2.7572 2.1310 2.6599 246.37 0.089717 12.937 0.039900 60.000 0.016667 760.21 823.54 2.7572 2.1310 2.6599 246.37 0.089717 12.937 0.039900
154.38 553.19 undefined 762.35 825.91 2.7622 60.000 0.016667 762.35 825.91 2.7622 2.1345 2.6606 246.96 0.088935 12.966 0.040056 60.000 0.016667 762.35 825.91 2.7622 2.1345 2.6606 246.96 0.088935 12.966 0.040056
155.38 555.32 undefined 764.48 828.30 2.7672 60.000 0.016667 764.48 828.30 2.7672 2.1381 2.6614 247.54 0.088163 12.995 0.040212 60.000 0.016667 764.48 828.30 2.7672 2.1381 2.6614 247.54 0.088163 12.995 0.040212
156.38 557.46 undefined 766.62 830.68 2.7722 60.000 0.016667 766.62 830.68 2.7722 2.1416 2.6623 248.13 0.087401 13.024 0.040369 60.000 0.016667 766.62 830.68 2.7722 2.1416 2.6623 248.13 0.087401 13.024 0.040369
157.38 559.59 undefined 768.77 833.07 2.7772 60.000 0.016667 768.77 833.07 2.7772 2.1452 2.6632 248.71 0.086648 13.053 0.040526 60.000 0.016667 768.77 833.07 2.7772 2.1452 2.6632 248.71 0.086648 13.053 0.040526
158.38 561.72 undefined 770.91 835.46 2.7822 60.000 0.016667 770.91 835.46 2.7822 2.1487 2.6641 249.29 0.085906 13.082 0.040683 60.000 0.016667 770.91 835.46 2.7822 2.1487 2.6641 249.29 0.085906 13.082 0.040683
159.38 563.85 undefined 773.06 837.86 2.7871 60.000 0.016667 773.06 837.86 2.7871 2.1523 2.6651 249.87 0.085173 13.111 0.040841 60.000 0.016667 773.06 837.86 2.7871 2.1523 2.6651 249.87 0.085173 13.111 0.040841
160.38 565.97 undefined 775.22 840.25 2.7921 60.000 0.016667 775.22 840.25 2.7921 2.1558 2.6661 250.44 0.084449 13.140 0.040999 60.000 0.016667 775.22 840.25 2.7921 2.1558 2.6661 250.44 0.084449 13.140 0.040999
161.38 568.10 undefined 777.37 842.66 2.7971 60.000 0.016667 777.37 842.66 2.7971 2.1594 2.6672 251.02 0.083734 13.168 0.041158 60.000 0.016667 777.37 842.66 2.7971 2.1594 2.6672 251.02 0.083734 13.168 0.041158
162.38 570.22 undefined 779.54 845.06 2.8020 60.000 0.016667 779.54 845.06 2.8020 2.1630 2.6683 251.59 0.083028 13.197 0.041316 60.000 0.016667 779.54 845.06 2.8020 2.1630 2.6683 251.59 0.083028 13.197 0.041316
163.38 572.35 undefined 781.70 847.47 2.8070 60.000 0.016667 781.70 847.47 2.8070 2.1666 2.6695 252.16 0.082331 13.226 0.041476 60.000 0.016667 781.70 847.47 2.8070 2.1666 2.6695 252.16 0.082331 13.226 0.041476
164.38 574.47 undefined 783.87 849.88 2.8120 60.000 0.016667 783.87 849.88 2.8120 2.1701 2.6707 252.73 0.081643 13.255 0.041635 60.000 0.016667 783.87 849.88 2.8120 2.1701 2.6707 252.73 0.081643 13.255 0.041635
165.38 576.59 undefined 786.04 852.30 2.8169 60.000 0.016667 786.04 852.30 2.8169 2.1737 2.6719 253.30 0.080963 13.284 0.041795 60.000 0.016667 786.04 852.30 2.8169 2.1737 2.6719 253.30 0.080963 13.284 0.041795
166.38 578.71 undefined 788.22 854.72 2.8219 60.000 0.016667 788.22 854.72 2.8219 2.1773 2.6732 253.87 0.080292 13.312 0.041955 60.000 0.016667 788.22 854.72 2.8219 2.1773 2.6732 253.87 0.080292 13.312 0.041955
167.38 580.82 undefined 790.40 857.14 2.8268 60.000 0.016667 790.40 857.14 2.8268 2.1809 2.6745 254.43 0.079629 13.341 0.042116 60.000 0.016667 790.40 857.14 2.8268 2.1809 2.6745 254.43 0.079629 13.341 0.042116
168.38 582.94 undefined 792.58 859.57 2.8318 60.000 0.016667 792.58 859.57 2.8318 2.1845 2.6759 254.99 0.078974 13.370 0.042277 60.000 0.016667 792.58 859.57 2.8318 2.1845 2.6759 254.99 0.078974 13.370 0.042277
169.38 585.05 undefined 794.76 861.99 2.8367 60.000 0.016667 794.76 861.99 2.8367 2.1881 2.6772 255.56 0.078327 13.398 0.042438 60.000 0.016667 794.76 861.99 2.8367 2.1881 2.6772 255.56 0.078327 13.398 0.042438
170.38 587.17 undefined 796.95 864.43 2.8417 60.000 0.016667 796.95 864.43 2.8417 2.1917 2.6787 256.12 0.077688 13.427 0.042599 60.000 0.016667 796.95 864.43 2.8417 2.1917 2.6787 256.12 0.077688 13.427 0.042599
171.38 589.28 undefined 799.15 866.86 2.8466 60.000 0.016667 799.15 866.86 2.8466 2.1953 2.6801 256.68 0.077057 13.456 0.042761 60.000 0.016667 799.15 866.86 2.8466 2.1953 2.6801 256.68 0.077057 13.456 0.042761
172.38 591.39 undefined 801.34 869.30 2.8516 60.000 0.016667 801.34 869.30 2.8516 2.1989 2.6816 257.23 0.076433 13.484 0.042924 60.000 0.016667 801.34 869.30 2.8516 2.1989 2.6816 257.23 0.076433 13.484 0.042924
173.38 593.50 undefined 803.55 871.75 2.8565 60.000 0.016667 803.55 871.75 2.8565 2.2025 2.6831 257.79 0.075817 13.513 0.043086 60.000 0.016667 803.55 871.75 2.8565 2.2025 2.6831 257.79 0.075817 13.513 0.043086
174.38 595.61 undefined 805.75 874.19 2.8614 60.000 0.016667 805.75 874.19 2.8614 2.2061 2.6847 258.35 0.075208 13.541 0.043249 60.000 0.016667 805.75 874.19 2.8614 2.2061 2.6847 258.35 0.075208 13.541 0.043249
175.38 597.71 undefined 807.96 876.64 2.8663 60.000 0.016667 807.96 876.64 2.8663 2.2097 2.6863 258.90 0.074607 13.570 0.043412 60.000 0.016667 807.96 876.64 2.8663 2.2097 2.6863 258.90 0.074607 13.570 0.043412
176.38 599.82 undefined 810.17 879.10 2.8713 60.000 0.016667 810.17 879.10 2.8713 2.2133 2.6879 259.45 0.074012 13.598 0.043576 60.000 0.016667 810.17 879.10 2.8713 2.2133 2.6879 259.45 0.074012 13.598 0.043576
177.38 601.92 undefined 812.38 881.55 2.8762 60.000 0.016667 812.38 881.55 2.8762 2.2169 2.6895 260.00 0.073424 13.626 0.043740 60.000 0.016667 812.38 881.55 2.8762 2.2169 2.6895 260.00 0.073424 13.626 0.043740
178.38 604.03 undefined 814.60 884.01 2.8811 60.000 0.016667 814.60 884.01 2.8811 2.2206 2.6912 260.55 0.072844 13.655 0.043904 60.000 0.016667 814.60 884.01 2.8811 2.2206 2.6912 260.55 0.072844 13.655 0.043904
179.38 606.13 undefined 816.83 886.48 2.8860 60.000 0.016667 816.83 886.48 2.8860 2.2242 2.6929 261.10 0.072270 13.683 0.044069 60.000 0.016667 816.83 886.48 2.8860 2.2242 2.6929 261.10 0.072270 13.683 0.044069
180.38 608.23 undefined 819.05 888.94 2.8909 60.000 0.016667 819.05 888.94 2.8909 2.2278 2.6946 261.64 0.071703 13.711 0.044234 60.000 0.016667 819.05 888.94 2.8909 2.2278 2.6946 261.64 0.071703 13.711 0.044234
181.38 610.33 undefined 821.28 891.42 2.8959 60.000 0.016667 821.28 891.42 2.8959 2.2314 2.6964 262.19 0.071142 13.740 0.044399 60.000 0.016667 821.28 891.42 2.8959 2.2314 2.6964 262.19 0.071142 13.740 0.044399
182.38 612.43 undefined 823.51 893.89 2.9008 60.000 0.016667 823.51 893.89 2.9008 2.2350 2.6982 262.73 0.070588 13.768 0.044565 60.000 0.016667 823.51 893.89 2.9008 2.2350 2.6982 262.73 0.070588 13.768 0.044565
183.38 614.53 undefined 825.75 896.37 2.9057 60.000 0.016667 825.75 896.37 2.9057 2.2387 2.7000 263.28 0.070041 13.796 0.044730 60.000 0.016667 825.75 896.37 2.9057 2.2387 2.7000 263.28 0.070041 13.796 0.044730
184.38 616.62 undefined 827.99 898.85 2.9106 60.000 0.016667 827.99 898.85 2.9106 2.2423 2.7018 263.82 0.069499 13.824 0.044897 60.000 0.016667 827.99 898.85 2.9106 2.2423 2.7018 263.82 0.069499 13.824 0.044897
185.38 618.72 undefined 830.24 901.33 2.9155 60.000 0.016667 830.24 901.33 2.9155 2.2459 2.7037 264.36 0.068964 13.852 0.045063 60.000 0.016667 830.24 901.33 2.9155 2.2459 2.7037 264.36 0.068964 13.852 0.045063
186.38 620.81 undefined 832.48 903.82 2.9204 60.000 0.016667 832.48 903.82 2.9204 2.2495 2.7055 264.89 0.068435 13.880 0.045230 60.000 0.016667 832.48 903.82 2.9204 2.2495 2.7055 264.89 0.068435 13.880 0.045230
187.38 622.91 undefined 834.73 906.31 2.9253 60.000 0.016667 834.73 906.31 2.9253 2.2532 2.7074 265.43 0.067912 13.909 0.045397 60.000 0.016667 834.73 906.31 2.9253 2.2532 2.7074 265.43 0.067912 13.909 0.045397
188.38 625.00 undefined 836.99 908.81 2.9302 60.000 0.016667 836.99 908.81 2.9302 2.2568 2.7094 265.97 0.067394 13.937 0.045565 60.000 0.016667 836.99 908.81 2.9302 2.2568 2.7094 265.97 0.067394 13.937 0.045565
189.38 627.09 undefined 839.25 911.31 2.9350 60.000 0.016667 839.25 911.31 2.9350 2.2604 2.7113 266.50 0.066883 13.965 0.045733 60.000 0.016667 839.25 911.31 2.9350 2.2604 2.7113 266.50 0.066883 13.965 0.045733
190.38 629.18 undefined 841.51 913.81 2.9399 60.000 0.016667 841.51 913.81 2.9399 2.2641 2.7133 267.03 0.066377 13.993 0.045901 60.000 0.016667 841.51 913.81 2.9399 2.2641 2.7133 267.03 0.066377 13.993 0.045901
191.38 631.27 undefined 843.78 916.32 2.9448 60.000 0.016667 843.78 916.32 2.9448 2.2677 2.7153 267.57 0.065877 14.021 0.046069 60.000 0.016667 843.78 916.32 2.9448 2.2677 2.7153 267.57 0.065877 14.021 0.046069
192.38 633.36 undefined 846.05 918.83 2.9497 60.000 0.016667 846.05 918.83 2.9497 2.2713 2.7173 268.10 0.065382 14.049 0.046238 60.000 0.016667 846.05 918.83 2.9497 2.2713 2.7173 268.10 0.065382 14.049 0.046238
193.38 635.44 undefined 848.32 921.34 2.9546 60.000 0.016667 848.32 921.34 2.9546 2.2750 2.7194 268.63 0.064893 14.076 0.046407 60.000 0.016667 848.32 921.34 2.9546 2.2750 2.7194 268.63 0.064893 14.076 0.046407
194.38 637.53 undefined 850.60 923.86 2.9594 60.000 0.016667 850.60 923.86 2.9594 2.2786 2.7214 269.16 0.064410 14.104 0.046577 60.000 0.016667 850.60 923.86 2.9594 2.2786 2.7214 269.16 0.064410 14.104 0.046577
195.38 639.62 undefined 852.88 926.38 2.9643 60.000 0.016667 852.88 926.38 2.9643 2.2823 2.7235 269.68 0.063931 14.132 0.046746 60.000 0.016667 852.88 926.38 2.9643 2.2823 2.7235 269.68 0.063931 14.132 0.046746
196.38 641.70 undefined 855.16 928.90 2.9692 60.000 0.016667 855.16 928.90 2.9692 2.2859 2.7256 270.21 0.063458 14.160 0.046916 60.000 0.016667 855.16 928.90 2.9692 2.2859 2.7256 270.21 0.063458 14.160 0.046916
197.38 643.78 undefined 857.45 931.43 2.9741 60.000 0.016667 857.45 931.43 2.9741 2.2895 2.7277 270.73 0.062990 14.188 0.047087 60.000 0.016667 857.45 931.43 2.9741 2.2895 2.7277 270.73 0.062990 14.188 0.047087
198.38 645.87 undefined 859.74 933.96 2.9789 60.000 0.016667 859.74 933.96 2.9789 2.2932 2.7299 271.26 0.062527 14.216 0.047257 60.000 0.016667 859.74 933.96 2.9789 2.2932 2.7299 271.26 0.062527 14.216 0.047257
199.38 647.95 undefined 862.03 936.49 2.9838 60.000 0.016667 862.03 936.49 2.9838 2.2968 2.7320 271.78 0.062070 14.243 0.047429 60.000 0.016667 862.03 936.49 2.9838 2.2968 2.7320 271.78 0.062070 14.243 0.047429
200.38 650.03 undefined 864.33 939.03 2.9886 60.000 0.016667 864.33 939.03 2.9886 2.3004 2.7342 272.30 0.061617 14.271 0.047600 60.000 0.016667 864.33 939.03 2.9886 2.3004 2.7342 272.30 0.061617 14.271 0.047600
201.38 652.11 undefined 866.64 941.57 2.9935 60.000 0.016667 866.64 941.57 2.9935 2.3041 2.7364 272.82 0.061168 14.299 0.047771 60.000 0.016667 866.64 941.57 2.9935 2.3041 2.7364 272.82 0.061168 14.299 0.047771
202.38 654.19 undefined 868.94 944.12 2.9983 60.000 0.016667 868.94 944.12 2.9983 2.3077 2.7386 273.34 0.060725 14.326 0.047943 60.000 0.016667 868.94 944.12 2.9983 2.3077 2.7386 273.34 0.060725 14.326 0.047943
203.38 656.26 undefined 871.25 946.66 3.0032 60.000 0.016667 871.25 946.66 3.0032 2.3114 2.7408 273.86 0.060287 14.354 0.048116 60.000 0.016667 871.25 946.66 3.0032 2.3114 2.7408 273.86 0.060287 14.354 0.048116
204.38 658.34 undefined 873.56 949.22 3.0081 60.000 0.016667 873.56 949.22 3.0081 2.3150 2.7431 274.37 0.059853 14.382 0.048288 60.000 0.016667 873.56 949.22 3.0081 2.3150 2.7431 274.37 0.059853 14.382 0.048288
205.38 660.42 undefined 875.88 951.77 3.0129 60.000 0.016667 875.88 951.77 3.0129 2.3186 2.7453 274.89 0.059423 14.409 0.048461 60.000 0.016667 875.88 951.77 3.0129 2.3186 2.7453 274.89 0.059423 14.409 0.048461
206.38 662.49 undefined 878.20 954.33 3.0177 60.000 0.016667 878.20 954.33 3.0177 2.3223 2.7476 275.40 0.058998 14.437 0.048634 60.000 0.016667 878.20 954.33 3.0177 2.3223 2.7476 275.40 0.058998 14.437 0.048634
207.38 664.57 undefined 880.53 956.89 3.0226 60.000 0.016667 880.53 956.89 3.0226 2.3259 2.7499 275.91 0.058578 14.464 0.048808 60.000 0.016667 880.53 956.89 3.0226 2.3259 2.7499 275.91 0.058578 14.464 0.048808
208.38 666.64 undefined 882.85 959.46 3.0274 60.000 0.016667 882.85 959.46 3.0274 2.3295 2.7522 276.43 0.058162 14.492 0.048982 60.000 0.016667 882.85 959.46 3.0274 2.3295 2.7522 276.43 0.058162 14.492 0.048982
209.38 668.72 undefined 885.18 962.03 3.0323 60.000 0.016667 885.18 962.03 3.0323 2.3332 2.7545 276.94 0.057751 14.519 0.049156 60.000 0.016667 885.18 962.03 3.0323 2.3332 2.7545 276.94 0.057751 14.519 0.049156
210.38 670.79 undefined 887.52 964.60 3.0371 60.000 0.016667 887.52 964.60 3.0371 2.3368 2.7568 277.45 0.057343 14.546 0.049330 60.000 0.016667 887.52 964.60 3.0371 2.3368 2.7568 277.45 0.057343 14.546 0.049330
211.38 672.86 undefined 889.86 967.18 3.0419 60.000 0.016667 889.86 967.18 3.0419 2.3404 2.7592 277.96 0.056940 14.574 0.049505 60.000 0.016667 889.86 967.18 3.0419 2.3404 2.7592 277.96 0.056940 14.574 0.049505
212.38 674.93 undefined 892.20 969.76 3.0468 60.000 0.016667 892.20 969.76 3.0468 2.3441 2.7615 278.46 0.056541 14.601 0.049680 60.000 0.016667 892.20 969.76 3.0468 2.3441 2.7615 278.46 0.056541 14.601 0.049680
213.38 677.00 undefined 894.55 972.34 3.0516 60.000 0.016667 894.55 972.34 3.0516 2.3477 2.7639 278.97 0.056146 14.629 0.049855 60.000 0.016667 894.55 972.34 3.0516 2.3477 2.7639 278.97 0.056146 14.629 0.049855
214.38 679.07 undefined 896.90 974.93 3.0564 60.000 0.016667 896.90 974.93 3.0564 2.3513 2.7663 279.48 0.055755 14.656 0.050031 60.000 0.016667 896.90 974.93 3.0564 2.3513 2.7663 279.48 0.055755 14.656 0.050031
215.38 681.14 undefined 899.25 977.52 3.0612 60.000 0.016667 899.25 977.52 3.0612 2.3550 2.7687 279.98 0.055368 14.683 0.050207 60.000 0.016667 899.25 977.52 3.0612 2.3550 2.7687 279.98 0.055368 14.683 0.050207
216.38 683.20 undefined 901.61 980.11 3.0660 60.000 0.016667 901.61 980.11 3.0660 2.3586 2.7711 280.48 0.054985 14.710 0.050383 60.000 0.016667 901.61 980.11 3.0660 2.3586 2.7711 280.48 0.054985 14.710 0.050383
217.38 685.27 undefined 903.97 982.71 3.0709 60.000 0.016667 903.97 982.71 3.0709 2.3622 2.7736 280.99 0.054606 14.738 0.050560 60.000 0.016667 903.97 982.71 3.0709 2.3622 2.7736 280.99 0.054606 14.738 0.050560
218.38 687.34 undefined 906.33 985.31 3.0757 60.000 0.016667 906.33 985.31 3.0757 2.3658 2.7760 281.49 0.054231 14.765 0.050736 60.000 0.016667 906.33 985.31 3.0757 2.3658 2.7760 281.49 0.054231 14.765 0.050736
219.38 689.40 undefined 908.70 987.92 3.0805 60.000 0.016667 908.70 987.92 3.0805 2.3695 2.7784 281.99 0.053860 14.792 0.050914 60.000 0.016667 908.70 987.92 3.0805 2.3695 2.7784 281.99 0.053860 14.792 0.050914
220.38 691.47 undefined 911.07 990.53 3.0853 60.000 0.016667 911.07 990.53 3.0853 2.3731 2.7809 282.49 0.053492 14.819 0.051091 60.000 0.016667 911.07 990.53 3.0853 2.3731 2.7809 282.49 0.053492 14.819 0.051091
221.38 693.53 undefined 913.44 993.14 3.0901 60.000 0.016667 913.44 993.14 3.0901 2.3767 2.7834 282.99 0.053128 14.846 0.051269 60.000 0.016667 913.44 993.14 3.0901 2.3767 2.7834 282.99 0.053128 14.846 0.051269
222.38 695.59 undefined 915.82 995.76 3.0949 60.000 0.016667 915.82 995.76 3.0949 2.3803 2.7859 283.48 0.052767 14.873 0.051447 60.000 0.016667 915.82 995.76 3.0949 2.3803 2.7859 283.48 0.052767 14.873 0.051447
223.38 697.66 undefined 918.20 998.37 3.0997 60.000 0.016667 918.20 998.37 3.0997 2.3840 2.7884 283.98 0.052410 14.900 0.051625 60.000 0.016667 918.20 998.37 3.0997 2.3840 2.7884 283.98 0.052410 14.900 0.051625
224.38 699.72 undefined 920.59 1001.0 3.1045 60.000 0.016667 920.59 1001.0 3.1045 2.3876 2.7909 284.48 0.052057 14.927 0.051804 60.000 0.016667 920.59 1001.0 3.1045 2.3876 2.7909 284.48 0.052057 14.927 0.051804
225.38 701.78 undefined 922.98 1003.6 3.1093 60.000 0.016667 922.98 1003.6 3.1093 2.3912 2.7934 284.97 0.051707 14.954 0.051983 60.000 0.016667 922.98 1003.6 3.1093 2.3912 2.7934 284.97 0.051707 14.954 0.051983
226.38 703.84 undefined 925.37 1006.3 3.1141 60.000 0.016667 925.37 1006.3 3.1141 2.3948 2.7959 285.46 0.051361 14.981 0.052162 60.000 0.016667 925.37 1006.3 3.1141 2.3948 2.7959 285.46 0.051361 14.981 0.052162
227.38 705.90 undefined 927.77 1008.9 3.1189 60.000 0.016667 927.77 1008.9 3.1189 2.3984 2.7984 285.96 0.051017 15.008 0.052342 60.000 0.016667 927.77 1008.9 3.1189 2.3984 2.7984 285.96 0.051017 15.008 0.052342
228.38 707.96 undefined 930.17 1011.5 3.1237 60.000 0.016667 930.17 1011.5 3.1237 2.4020 2.8010 286.45 0.050678 15.035 0.052521 60.000 0.016667 930.17 1011.5 3.1237 2.4020 2.8010 286.45 0.050678 15.035 0.052521
229.38 710.02 undefined 932.57 1014.2 3.1285 60.000 0.016667 932.57 1014.2 3.1285 2.4056 2.8035 286.94 0.050341 15.062 0.052702 60.000 0.016667 932.57 1014.2 3.1285 2.4056 2.8035 286.94 0.050341 15.062 0.052702
230.38 712.08 undefined 934.98 1016.8 3.1333 60.000 0.016667 934.98 1016.8 3.1333 2.4093 2.8061 287.43 0.050008 15.089 0.052882 60.000 0.016667 934.98 1016.8 3.1333 2.4093 2.8061 287.43 0.050008 15.089 0.052882
231.38 714.13 undefined 937.39 1019.5 3.1380 60.000 0.016667 937.39 1019.5 3.1380 2.4129 2.8087 287.92 0.049678 15.116 0.053063 60.000 0.016667 937.39 1019.5 3.1380 2.4129 2.8087 287.92 0.049678 15.116 0.053063
232.38 716.19 undefined 939.81 1022.1 3.1428 60.000 0.016667 939.81 1022.1 3.1428 2.4165 2.8112 288.40 0.049351 15.142 0.053244 60.000 0.016667 939.81 1022.1 3.1428 2.4165 2.8112 288.40 0.049351 15.142 0.053244
233.38 718.25 undefined 942.22 1024.8 3.1476 60.000 0.016667 942.22 1024.8 3.1476 2.4201 2.8138 288.89 0.049027 15.169 0.053425 60.000 0.016667 942.22 1024.8 3.1476 2.4201 2.8138 288.89 0.049027 15.169 0.053425
234.38 720.30 undefined 944.65 1027.4 3.1524 60.000 0.016667 944.65 1027.4 3.1524 2.4237 2.8164 289.38 0.048707 15.196 0.053607 60.000 0.016667 944.65 1027.4 3.1524 2.4237 2.8164 289.38 0.048707 15.196 0.053607
235.38 722.36 undefined 947.07 1030.1 3.1572 60.000 0.016667 947.07 1030.1 3.1572 2.4273 2.8190 289.86 0.048389 15.223 0.053789 60.000 0.016667 947.07 1030.1 3.1572 2.4273 2.8190 289.86 0.048389 15.223 0.053789
236.38 724.41 undefined 949.50 1032.7 3.1619 60.000 0.016667 949.50 1032.7 3.1619 2.4309 2.8217 290.34 0.048075 15.249 0.053971 60.000 0.016667 949.50 1032.7 3.1619 2.4309 2.8217 290.34 0.048075 15.249 0.053971
237.38 726.46 undefined 951.93 1035.4 3.1667 60.000 0.016667 951.93 1035.4 3.1667 2.4345 2.8243 290.83 0.047763 15.276 0.054153 60.000 0.016667 951.93 1035.4 3.1667 2.4345 2.8243 290.83 0.047763 15.276 0.054153
238.38 728.52 undefined 954.37 1038.1 3.1715 60.000 0.016667 954.37 1038.1 3.1715 2.4381 2.8269 291.31 0.047454 15.303 0.054336 60.000 0.016667 954.37 1038.1 3.1715 2.4381 2.8269 291.31 0.047454 15.303 0.054336
239.38 730.57 undefined 956.81 1040.8 3.1762 60.000 0.016667 956.81 1040.8 3.1762 2.4416 2.8295 291.79 0.047148 15.329 0.054519 60.000 0.016667 956.81 1040.8 3.1762 2.4416 2.8295 291.79 0.047148 15.329 0.054519
240.38 732.62 undefined 959.25 1043.4 3.1810 60.000 0.016667 959.25 1043.4 3.1810 2.4452 2.8322 292.27 0.046846 15.356 0.054702 60.000 0.016667 959.25 1043.4 3.1810 2.4452 2.8322 292.27 0.046846 15.356 0.054702
241.38 734.67 undefined 961.70 1046.1 3.1858 60.000 0.016667 961.70 1046.1 3.1858 2.4488 2.8348 292.75 0.046545 15.382 0.054886 60.000 0.016667 961.70 1046.1 3.1858 2.4488 2.8348 292.75 0.046545 15.382 0.054886
242.38 736.72 undefined 964.15 1048.8 3.1905 60.000 0.016667 964.15 1048.8 3.1905 2.4524 2.8375 293.23 0.046248 15.409 0.055070 60.000 0.016667 964.15 1048.8 3.1905 2.4524 2.8375 293.23 0.046248 15.409 0.055070
243.38 738.77 undefined 966.61 1051.5 3.1953 60.000 0.016667 966.61 1051.5 3.1953 2.4560 2.8402 293.71 0.045953 15.435 0.055254 60.000 0.016667 966.61 1051.5 3.1953 2.4560 2.8402 293.71 0.045953 15.435 0.055254
244.38 740.82 undefined 969.06 1054.2 3.2000 60.000 0.016667 969.06 1054.2 3.2000 2.4596 2.8428 294.18 0.045662 15.462 0.055439 60.000 0.016667 969.06 1054.2 3.2000 2.4596 2.8428 294.18 0.045662 15.462 0.055439
245.38 742.87 undefined 971.52 1056.9 3.2048 60.000 0.016667 971.52 1056.9 3.2048 2.4631 2.8455 294.66 0.045372 15.488 0.055623 60.000 0.016667 971.52 1056.9 3.2048 2.4631 2.8455 294.66 0.045372 15.488 0.055623
246.38 744.92 undefined 973.99 1059.6 3.2095 60.000 0.016667 973.99 1059.6 3.2095 2.4667 2.8482 295.13 0.045086 15.515 0.055808 60.000 0.016667 973.99 1059.6 3.2095 2.4667 2.8482 295.13 0.045086 15.515 0.055808
247.38 746.97 undefined 976.46 1062.3 3.2143 60.000 0.016667 976.46 1062.3 3.2143 2.4703 2.8509 295.61 0.044802 15.541 0.055994 60.000 0.016667 976.46 1062.3 3.2143 2.4703 2.8509 295.61 0.044802 15.541 0.055994
248.38 749.01 undefined 978.93 1065.0 3.2190 60.000 0.016667 978.93 1065.0 3.2190 2.4739 2.8536 296.08 0.044520 15.567 0.056179 60.000 0.016667 978.93 1065.0 3.2190 2.4739 2.8536 296.08 0.044520 15.567 0.056179
249.38 751.06 undefined 981.41 1067.7 3.2238 60.000 0.016667 981.41 1067.7 3.2238 2.4774 2.8563 296.55 0.044242 15.594 0.056365 60.000 0.016667 981.41 1067.7 3.2238 2.4774 2.8563 296.55 0.044242 15.594 0.056365
250.38 753.11 undefined 983.88 1070.4 3.2285 60.000 0.016667 983.88 1070.4 3.2285 2.4810 2.8590 297.03 0.043965 15.620 0.056551 60.000 0.016667 983.88 1070.4 3.2285 2.4810 2.8590 297.03 0.043965 15.620 0.056551
251.38 755.15 undefined 986.37 1073.1 3.2332 60.000 0.016667 986.37 1073.1 3.2332 2.4846 2.8617 297.50 0.043691 15.646 0.056738 60.000 0.016667 986.37 1073.1 3.2332 2.4846 2.8617 297.50 0.043691 15.646 0.056738
252.38 757.20 undefined 988.85 1075.9 3.2380 60.000 0.016667 988.85 1075.9 3.2380 2.4881 2.8644 297.97 0.043420 15.672 0.056925 60.000 0.016667 988.85 1075.9 3.2380 2.4881 2.8644 297.97 0.043420 15.672 0.056925
253.38 759.24 undefined 991.34 1078.6 3.2427 60.000 0.016667 991.34 1078.6 3.2427 2.4917 2.8671 298.44 0.043151 15.699 0.057112 60.000 0.016667 991.34 1078.6 3.2427 2.4917 2.8671 298.44 0.043151 15.699 0.057112
254.38 761.29 undefined 993.84 1081.3 3.2474 60.000 0.016667 993.84 1081.3 3.2474 2.4952 2.8698 298.90 0.042885 15.725 0.057299 60.000 0.016667 993.84 1081.3 3.2474 2.4952 2.8698 298.90 0.042885 15.725 0.057299
255.38 763.33 undefined 996.33 1084.1 3.2522 60.000 0.016667 996.33 1084.1 3.2522 2.4988 2.8726 299.37 0.042620 15.751 0.057486 60.000 0.016667 996.33 1084.1 3.2522 2.4988 2.8726 299.37 0.042620 15.751 0.057486
256.38 765.37 undefined 998.83 1086.8 3.2569 60.000 0.016667 998.83 1086.8 3.2569 2.5023 2.8753 299.84 0.042359 15.777 0.057674 60.000 0.016667 998.83 1086.8 3.2569 2.5023 2.8753 299.84 0.042359 15.777 0.057674
257.38 767.42 undefined 1001.3 1089.5 3.2616 60.000 0.016667 1001.3 1089.5 3.2616 2.5059 2.8781 300.30 0.042099 15.803 0.057862 60.000 0.016667 1001.3 1089.5 3.2616 2.5059 2.8781 300.30 0.042099 15.803 0.057862
258.38 769.46 undefined 1003.8 1092.3 3.2663 60.000 0.016667 1003.8 1092.3 3.2663 2.5094 2.8808 300.77 0.041842 15.829 0.058050 60.000 0.016667 1003.8 1092.3 3.2663 2.5094 2.8808 300.77 0.041842 15.829 0.058050
259.38 771.50 undefined 1006.4 1095.0 3.2711 60.000 0.016667 1006.4 1095.0 3.2711 2.5130 2.8835 301.23 0.041587 15.855 0.058239 60.000 0.016667 1006.4 1095.0 3.2711 2.5130 2.8835 301.23 0.041587 15.855 0.058239
260.38 773.54 undefined 1008.9 1097.8 3.2758 60.000 0.016667 1008.9 1097.8 3.2758 2.5165 2.8863 301.70 0.041334 15.881 0.058428 60.000 0.016667 1008.9 1097.8 3.2758 2.5165 2.8863 301.70 0.041334 15.881 0.058428
261.38 775.58 undefined 1011.4 1100.5 3.2805 60.000 0.016667 1011.4 1100.5 3.2805 2.5200 2.8891 302.16 0.041083 15.907 0.058617 60.000 0.016667 1011.4 1100.5 3.2805 2.5200 2.8891 302.16 0.041083 15.907 0.058617
262.38 777.62 undefined 1013.9 1103.3 3.2852 60.000 0.016667 1013.9 1103.3 3.2852 2.5236 2.8918 302.62 0.040835 15.933 0.058806 60.000 0.016667 1013.9 1103.3 3.2852 2.5236 2.8918 302.62 0.040835 15.933 0.058806
263.38 779.66 undefined 1016.4 1106.0 3.2899 60.000 0.016667 1016.4 1106.0 3.2899 2.5271 2.8946 303.08 0.040589 15.959 0.058996 60.000 0.016667 1016.4 1106.0 3.2899 2.5271 2.8946 303.08 0.040589 15.959 0.058996
264.38 781.70 undefined 1019.0 1108.8 3.2946 60.000 0.016667 1019.0 1108.8 3.2946 2.5306 2.8974 303.54 0.040345 15.985 0.059185 60.000 0.016667 1019.0 1108.8 3.2946 2.5306 2.8974 303.54 0.040345 15.985 0.059185
265.38 783.74 undefined 1021.5 1111.6 3.2993 60.000 0.016667 1021.5 1111.6 3.2993 2.5341 2.9001 304.00 0.040102 16.011 0.059375 60.000 0.016667 1021.5 1111.6 3.2993 2.5341 2.9001 304.00 0.040102 16.011 0.059375
266.38 785.78 undefined 1024.0 1114.3 3.3040 60.000 0.016667 1024.0 1114.3 3.3040 2.5377 2.9029 304.46 0.039862 16.037 0.059566 60.000 0.016667 1024.0 1114.3 3.3040 2.5377 2.9029 304.46 0.039862 16.037 0.059566
267.38 787.82 undefined 1026.6 1117.1 3.3087 60.000 0.016667 1026.6 1117.1 3.3087 2.5412 2.9057 304.92 0.039625 16.063 0.059756 60.000 0.016667 1026.6 1117.1 3.3087 2.5412 2.9057 304.92 0.039625 16.063 0.059756
268.38 789.85 undefined 1029.1 1119.9 3.3134 60.000 0.016667 1029.1 1119.9 3.3134 2.5447 2.9085 305.38 0.039389 16.088 0.059947 60.000 0.016667 1029.1 1119.9 3.3134 2.5447 2.9085 305.38 0.039389 16.088 0.059947
269.38 791.89 undefined 1031.7 1122.7 3.3181 60.000 0.016667 1031.7 1122.7 3.3181 2.5482 2.9112 305.83 0.039155 16.114 0.060137 60.000 0.016667 1031.7 1122.7 3.3181 2.5482 2.9112 305.83 0.039155 16.114 0.060137
270.38 793.93 undefined 1034.2 1125.4 3.3228 60.000 0.016667 1034.2 1125.4 3.3228 2.5517 2.9140 306.29 0.038923 16.140 0.060328 60.000 0.016667 1034.2 1125.4 3.3228 2.5517 2.9140 306.29 0.038923 16.140 0.060328
271.38 795.96 undefined 1036.8 1128.2 3.3275 60.000 0.016667 1036.8 1128.2 3.3275 2.5552 2.9168 306.74 0.038693 16.166 0.060520 60.000 0.016667 1036.8 1128.2 3.3275 2.5552 2.9168 306.74 0.038693 16.166 0.060520
272.38 798.00 undefined 1039.3 1131.0 3.3322 60.000 0.016667 1039.3 1131.0 3.3322 2.5587 2.9196 307.20 0.038465 16.191 0.060711 60.000 0.016667 1039.3 1131.0 3.3322 2.5587 2.9196 307.20 0.038465 16.191 0.060711
273.38 800.04 undefined 1041.9 1133.8 3.3369 60.000 0.016667 1041.9 1133.8 3.3369 2.5622 2.9224 307.65 0.038239 16.217 0.060902 60.000 0.016667 1041.9 1133.8 3.3369 2.5622 2.9224 307.65 0.038239 16.217 0.060902
274.38 802.07 undefined 1044.4 1136.6 3.3416 60.000 0.016667 1044.4 1136.6 3.3416 2.5657 2.9252 308.10 0.038015 16.243 0.061094 60.000 0.016667 1044.4 1136.6 3.3416 2.5657 2.9252 308.10 0.038015 16.243 0.061094
275.38 804.11 undefined 1047.0 1139.4 3.3463 60.000 0.016667 1047.0 1139.4 3.3463 2.5692 2.9280 308.56 0.037792 16.268 0.061285 60.000 0.016667 1047.0 1139.4 3.3463 2.5692 2.9280 308.56 0.037792 16.268 0.061285
276.38 806.14 undefined 1049.6 1142.2 3.3510 60.000 0.016667 1049.6 1142.2 3.3510 2.5727 2.9308 309.01 0.037572 16.294 0.061477 60.000 0.016667 1049.6 1142.2 3.3510 2.5727 2.9308 309.01 0.037572 16.294 0.061477
277.38 808.17 undefined 1052.2 1145.0 3.3556 60.000 0.016667 1052.2 1145.0 3.3556 2.5762 2.9336 309.46 0.037353 16.319 0.061668 60.000 0.016667 1052.2 1145.0 3.3556 2.5762 2.9336 309.46 0.037353 16.319 0.061668
278.38 810.21 undefined 1054.7 1147.8 3.3603 60.000 0.016667 1054.7 1147.8 3.3603 2.5796 2.9364 309.91 0.037136 16.345 0.061859 60.000 0.016667 1054.7 1147.8 3.3603 2.5796 2.9364 309.91 0.037136 16.345 0.061859
279.38 812.24 undefined 1057.3 1150.7 3.3650 60.000 0.016667 1057.3 1150.7 3.3650 2.5831 2.9392 310.36 0.036921 16.370 0.062049 60.000 0.016667 1057.3 1150.7 3.3650 2.5831 2.9392 310.36 0.036921 16.370 0.062049
280.38 814.27 undefined 1059.9 1153.5 3.3697 60.000 0.016667 1059.9 1153.5 3.3697 2.5866 2.9421 310.80 0.036708 16.396 0.062238 60.000 0.016667 1059.9 1153.5 3.3697 2.5866 2.9421 310.80 0.036708 16.396 0.062238
281.38 816.30 undefined 1062.5 1156.3 3.3743 60.000 0.016667 1062.5 1156.3 3.3743 2.5901 2.9449 311.25 0.036496 16.421 0.062422 60.000 0.016667 1062.5 1156.3 3.3743 2.5901 2.9449 311.25 0.036496 16.421 0.062422
282.38 818.34 undefined 1065.1 1159.1 3.3790 60.000 0.016667 1065.1 1159.1 3.3790 2.5935 2.9477 311.70 0.036286 16.447 0.062610 60.000 0.016667 1065.1 1159.1 3.3790 2.5935 2.9477 311.70 0.036286 16.447 0.062610
283.38 820.37 undefined 1067.7 1162.0 3.3837 60.000 0.016667 1067.7 1162.0 3.3837 2.5970 2.9505 312.15 0.036078 16.472 0.062808 60.000 0.016667 1067.7 1162.0 3.3837 2.5970 2.9505 312.15 0.036078 16.472 0.062808
284.38 822.40 undefined 1070.3 1164.8 3.3883 60.000 0.016667 1070.3 1164.8 3.3883 2.6004 2.9533 312.59 0.035871 16.498 0.063007 60.000 0.016667 1070.3 1164.8 3.3883 2.6004 2.9533 312.59 0.035871 16.498 0.063007
285.38 824.43 undefined 1072.9 1167.6 3.3930 60.000 0.016667 1072.9 1167.6 3.3930 2.6039 2.9561 313.04 0.035667 16.523 0.063206 60.000 0.016667 1072.9 1167.6 3.3930 2.6039 2.9561 313.04 0.035667 16.523 0.063206
286.38 826.46 undefined 1075.5 1170.5 3.3977 60.000 0.016667 1075.5 1170.5 3.3977 2.6074 2.9590 313.48 0.035463 16.548 0.063405 60.000 0.016667 1075.5 1170.5 3.3977 2.6074 2.9590 313.48 0.035463 16.548 0.063405
287.38 828.49 undefined 1078.1 1173.3 3.4023 60.000 0.016667 1078.1 1173.3 3.4023 2.6108 2.9618 313.92 0.035262 16.573 0.063604 60.000 0.016667 1078.1 1173.3 3.4023 2.6108 2.9618 313.92 0.035262 16.573 0.063604
288.38 830.52 undefined 1080.7 1176.1 3.4070 60.000 0.016667 1080.7 1176.1 3.4070 2.6142 2.9646 314.37 0.035062 16.599 0.063804 60.000 0.016667 1080.7 1176.1 3.4070 2.6142 2.9646 314.37 0.035062 16.599 0.063804
289.38 832.55 undefined 1083.3 1179.0 3.4116 60.000 0.016667 1083.3 1179.0 3.4116 2.6177 2.9674 314.81 0.034864 16.624 0.064004 60.000 0.016667 1083.3 1179.0 3.4116 2.6177 2.9674 314.81 0.034864 16.624 0.064004
290.38 834.58 undefined 1085.9 1181.8 3.4163 60.000 0.016667 1085.9 1181.8 3.4163 2.6211 2.9703 315.25 0.034667 16.649 0.064204 60.000 0.016667 1085.9 1181.8 3.4163 2.6211 2.9703 315.25 0.034667 16.649 0.064204
291.38 836.60 undefined 1088.6 1184.7 3.4209 60.000 0.016667 1088.6 1184.7 3.4209 2.6246 2.9731 315.69 0.034472 16.674 0.064405 60.000 0.016667 1088.6 1184.7 3.4209 2.6246 2.9731 315.69 0.034472 16.674 0.064405
292.38 838.63 undefined 1091.2 1187.6 3.4256 60.000 0.016667 1091.2 1187.6 3.4256 2.6280 2.9759 316.13 0.034278 16.700 0.064606 60.000 0.016667 1091.2 1187.6 3.4256 2.6280 2.9759 316.13 0.034278 16.700 0.064606
293.38 840.66 undefined 1093.8 1190.4 3.4302 60.000 0.016667 1093.8 1190.4 3.4302 2.6314 2.9788 316.57 0.034086 16.725 0.064807 60.000 0.016667 1093.8 1190.4 3.4302 2.6314 2.9788 316.57 0.034086 16.725 0.064807
294.38 842.69 undefined 1096.5 1193.3 3.4349 60.000 0.016667 1096.5 1193.3 3.4349 2.6349 2.9816 317.01 0.033895 16.750 0.065009 60.000 0.016667 1096.5 1193.3 3.4349 2.6349 2.9816 317.01 0.033895 16.750 0.065009
295.38 844.71 undefined 1099.1 1196.2 3.4395 60.000 0.016667 1099.1 1196.2 3.4395 2.6383 2.9844 317.45 0.033706 16.775 0.065211 60.000 0.016667 1099.1 1196.2 3.4395 2.6383 2.9844 317.45 0.033706 16.775 0.065211
296.38 846.74 undefined 1101.7 1199.0 3.4442 60.000 0.016667 1101.7 1199.0 3.4442 2.6417 2.9873 317.88 0.033518 16.800 0.065413 60.000 0.016667 1101.7 1199.0 3.4442 2.6417 2.9873 317.88 0.033518 16.800 0.065413
297.38 848.77 undefined 1104.4 1201.9 3.4488 60.000 0.016667 1104.4 1201.9 3.4488 2.6451 2.9901 318.32 0.033332 16.825 0.065615 60.000 0.016667 1104.4 1201.9 3.4488 2.6451 2.9901 318.32 0.033332 16.825 0.065615
298.38 850.79 undefined 1107.0 1204.8 3.4534 60.000 0.016667 1107.0 1204.8 3.4534 2.6485 2.9929 318.76 0.033147 16.850 0.065818 60.000 0.016667 1107.0 1204.8 3.4534 2.6485 2.9929 318.76 0.033147 16.850 0.065818
299.38 852.82 undefined 1109.7 1207.7 3.4581 60.000 0.016667 1109.7 1207.7 3.4581 2.6519 2.9958 319.19 0.032964 16.875 0.066021 60.000 0.016667 1109.7 1207.7 3.4581 2.6519 2.9958 319.19 0.032964 16.875 0.066021
300.38 854.84 undefined 1112.3 1210.6 3.4627 60.000 0.016667 1112.3 1210.6 3.4627 2.6553 2.9986 319.63 0.032782 16.900 0.066224 60.000 0.016667 1112.3 1210.6 3.4627 2.6553 2.9986 319.63 0.032782 16.900 0.066224