Temperature (C) Pressure (psia) Quality (l+v) Internal Energy (l+v, kJ/kg) Enthalpy (l+v, kJ/kg) Entropy (l+v, J/g*K) Density (l, kg/m3) Volume (l, m3/kg) Internal Energy (l, kJ/kg) Enthalpy (l, kJ/kg) Entropy (l, J/g*K) Cv (l, J/g*K) Cp (l, J/g*K) Sound Spd. (l, m/s) Joule-Thomson (l, F/psia) Viscosity (l, uPa*s) Therm. Cond. (l, W/m*K) Density (v, kg/m3) Volume (v, m3/kg) Internal Energy (v, kJ/kg) Enthalpy (v, kJ/kg) Entropy (v, J/g*K) Cv (v, J/g*K) Cp (v, J/g*K) Sound Spd. (v, m/s) Joule-Thomson (v, F/psia) Viscosity (v, uPa*s) Therm. Cond. (v, W/m*K)
-187.62 2.4953e-08 2.2488e-12 -196.64 -196.64 -1.3959 733.13 0.0013640 -196.64 -196.64 -1.3959 1.3553 1.9158 2136.4 -0.0077592 10960. 0.20792 1.0669e-08 9.3732e+07 350.13 366.26 5.1858 0.69067 0.87923 143.28 6.1051 2.3259 0.0017061
-186.62 3.7339e-08 3.2954e-12 -194.73 -194.73 -1.3736 732.08 0.0013660 -194.73 -194.73 -1.3736 1.3539 1.9166 2129.6 -0.0077546 10073. 0.20765 1.5780e-08 6.3371e+07 350.82 367.14 5.1200 0.69462 0.88317 144.03 5.9178 2.3534 0.0017533
-185.62 5.5322e-08 4.7817e-12 -192.81 -192.81 -1.3516 731.04 0.0013679 -192.81 -192.81 -1.3516 1.3525 1.9174 2122.9 -0.0077498 9276.1 0.20737 2.3112e-08 4.3267e+07 351.52 368.02 5.0561 0.69857 0.88713 144.77 5.7383 2.3808 0.0018007
-184.62 8.1182e-08 6.8722e-12 -190.89 -190.89 -1.3298 730.00 0.0013699 -190.89 -190.89 -1.3298 1.3513 1.9182 2116.1 -0.0077448 8557.8 0.20708 3.3533e-08 2.9821e+07 352.22 368.91 4.9939 0.70253 0.89108 145.51 5.5662 2.4083 0.0018485
-183.62 1.1803e-07 9.7860e-12 -188.97 -188.97 -1.3083 728.96 0.0013718 -188.97 -188.97 -1.3083 1.3501 1.9191 2109.3 -0.0077395 7909.8 0.20678 4.8211e-08 2.0742e+07 352.92 369.81 4.9333 0.70648 0.89504 146.24 5.4011 2.4357 0.0018965
-182.62 1.7009e-07 1.3811e-11 -187.05 -187.05 -1.2869 727.92 0.0013738 -187.05 -187.05 -1.2869 1.3490 1.9201 2102.5 -0.0077340 7324.3 0.20647 6.8704e-08 1.4555e+07 353.63 370.70 4.8744 0.71043 0.89899 146.97 5.2426 2.4632 0.0019448
-181.62 2.4299e-07 1.9325e-11 -185.13 -185.13 -1.2658 726.88 0.0013757 -185.13 -185.13 -1.2658 1.3480 1.9210 2095.7 -0.0077283 6794.5 0.20616 9.7079e-08 1.0301e+07 354.35 371.60 4.8170 0.71438 0.90294 147.69 5.0904 2.4906 0.0019934
-180.62 3.4425e-07 2.6816e-11 -183.21 -183.21 -1.2450 725.85 0.0013777 -183.21 -183.21 -1.2450 1.3470 1.9220 2088.9 -0.0077225 6314.4 0.20584 1.3605e-07 7.3504e+06 355.06 372.51 4.7612 0.71833 0.90688 148.41 4.9442 2.5181 0.0020423
-179.62 4.8378e-07 3.6911e-11 -181.29 -181.29 -1.2243 724.81 0.0013797 -181.29 -181.29 -1.2243 1.3461 1.9231 2082.0 -0.0077164 5878.8 0.20551 1.8915e-07 5.2868e+06 355.78 373.42 4.7068 0.72227 0.91082 149.13 4.8038 2.5456 0.0020915
-178.62 6.7459e-07 5.0410e-11 -179.37 -179.37 -1.2038 723.78 0.0013816 -179.37 -179.37 -1.2038 1.3453 1.9241 2075.2 -0.0077102 5482.9 0.20517 2.6096e-07 3.8320e+06 356.51 374.33 4.6538 0.72620 0.91475 149.84 4.6688 2.5731 0.0021410
-177.62 9.3358e-07 6.8328e-11 -177.44 -177.44 -1.1836 722.75 0.0013836 -177.44 -177.44 -1.1836 1.3445 1.9252 2068.4 -0.0077039 5122.6 0.20483 3.5737e-07 2.7982e+06 357.23 375.25 4.6022 0.73012 0.91867 150.54 4.5390 2.6005 0.0021907
-176.62 1.2826e-06 9.1940e-11 -175.52 -175.52 -1.1635 721.72 0.0013856 -175.52 -175.52 -1.1635 1.3437 1.9263 2061.5 -0.0076973 4794.1 0.20447 4.8588e-07 2.0581e+06 357.97 376.17 4.5519 0.73403 0.92258 151.25 4.4142 2.6280 0.0022408
-175.62 1.7496e-06 1.2284e-10 -173.59 -173.59 -1.1437 720.69 0.0013876 -173.59 -173.59 -1.1437 1.3430 1.9274 2054.7 -0.0076907 4494.3 0.20411 6.5601e-07 1.5244e+06 358.70 377.09 4.5029 0.73792 0.92648 151.95 4.2941 2.6555 0.0022912
-174.62 2.3705e-06 1.6299e-10 -171.66 -171.66 -1.1240 719.66 0.0013895 -171.66 -171.66 -1.1240 1.3423 1.9286 2047.9 -0.0076838 4220.2 0.20375 8.7976e-07 1.1367e+06 359.44 378.02 4.4551 0.74181 0.93036 152.64 4.1784 2.6830 0.0023418
-173.62 3.1903e-06 2.1483e-10 -169.73 -169.73 -1.1045 718.64 0.0013915 -169.73 -169.73 -1.1045 1.3417 1.9298 2041.0 -0.0076769 3969.3 0.20338 1.1721e-06 8.5314e+05 360.19 378.95 4.4085 0.74568 0.93423 153.33 4.0671 2.7105 0.0023928
-172.62 4.2661e-06 2.8132e-10 -167.80 -167.80 -1.0852 717.61 0.0013935 -167.80 -167.80 -1.0852 1.3411 1.9310 2034.2 -0.0076698 3739.3 0.20300 1.5518e-06 6.4441e+05 360.93 379.89 4.3631 0.74953 0.93809 154.02 3.9599 2.7379 0.0024440
-171.62 5.6692e-06 3.6610e-10 -165.87 -165.87 -1.0661 716.58 0.0013955 -165.87 -165.87 -1.0661 1.3405 1.9322 2027.3 -0.0076625 3528.0 0.20261 2.0419e-06 4.8974e+05 361.69 380.83 4.3188 0.75337 0.94193 154.71 3.8566 2.7654 0.0024955
-170.62 7.4884e-06 4.7353e-10 -163.94 -163.94 -1.0472 715.56 0.0013975 -163.94 -163.94 -1.0472 1.3400 1.9334 2020.5 -0.0076552 3333.8 0.20222 2.6708e-06 3.7442e+05 362.44 381.77 4.2755 0.75720 0.94575 155.39 3.7570 2.7929 0.0025473
-169.62 9.8334e-06 6.0886e-10 -162.00 -162.00 -1.0284 714.54 0.0013995 -162.00 -162.00 -1.0284 1.3395 1.9347 2013.6 -0.0076477 3154.9 0.20182 3.4733e-06 2.8791e+05 363.20 382.72 4.2334 0.76100 0.94956 156.07 3.6609 2.8204 0.0025994
-168.62 1.2839e-05 7.7837e-10 -160.07 -160.07 -1.0098 713.52 0.0014015 -160.07 -160.07 -1.0098 1.3390 1.9359 2006.8 -0.0076401 2989.9 0.20141 4.4917e-06 2.2263e+05 363.96 383.67 4.1922 0.76479 0.95335 156.74 3.5683 2.8479 0.0026518
-167.62 1.6672e-05 9.8953e-10 -158.13 -158.13 -0.99134 712.49 0.0014035 -158.13 -158.13 -0.99134 1.3386 1.9372 2000.0 -0.0076323 2837.5 0.20100 5.7771e-06 1.7310e+05 364.73 384.63 4.1521 0.76856 0.95712 157.41 3.4790 2.8754 0.0027045
-166.62 2.1533e-05 1.2511e-09 -156.19 -156.19 -0.97306 711.47 0.0014055 -156.19 -156.19 -0.97306 1.3382 1.9385 1993.1 -0.0076245 2696.5 0.20058 7.3914e-06 1.3529e+05 365.50 385.59 4.1129 0.77232 0.96087 158.08 3.3927 2.9029 0.0027575
-165.62 2.7666e-05 1.5736e-09 -154.25 -154.25 -0.95494 710.45 0.0014075 -154.25 -154.25 -0.95494 1.3378 1.9398 1986.3 -0.0076165 2566.0 0.20016 9.4084e-06 1.0629e+05 366.27 386.55 4.0746 0.77605 0.96460 158.75 3.3095 2.9304 0.0028108
-164.62 3.5367e-05 1.9690e-09 -152.31 -152.31 -0.93698 709.44 0.0014096 -152.31 -152.31 -0.93698 1.3375 1.9411 1979.4 -0.0076084 2444.9 0.19973 1.1916e-05 83918. 367.05 387.52 4.0372 0.77976 0.96832 159.41 3.2291 2.9579 0.0028643
-163.62 4.4989e-05 2.4514e-09 -150.37 -150.37 -0.91917 708.42 0.0014116 -150.37 -150.37 -0.91917 1.3371 1.9424 1972.6 -0.0076002 2332.3 0.19930 1.5020e-05 66577. 367.83 388.49 4.0008 0.78346 0.97201 160.07 3.1514 2.9854 0.0029182
-162.62 5.6956e-05 3.0372e-09 -148.43 -148.43 -0.90151 707.40 0.0014136 -148.43 -148.43 -0.90151 1.3368 1.9437 1965.8 -0.0075919 2227.7 0.19886 1.8844e-05 53068. 368.62 389.46 3.9651 0.78713 0.97569 160.72 3.0764 3.0129 0.0029723
-161.62 7.1773e-05 3.7451e-09 -146.48 -146.48 -0.88400 706.38 0.0014157 -146.48 -146.48 -0.88400 1.3365 1.9451 1959.0 -0.0075834 2130.2 0.19841 2.3533e-05 42494. 369.41 390.44 3.9304 0.79079 0.97935 161.38 3.0038 3.0404 0.0030268
-160.62 9.0036e-05 4.5966e-09 -144.54 -144.54 -0.86663 705.37 0.0014177 -144.54 -144.54 -0.86663 1.3363 1.9465 1952.1 -0.0075748 2039.2 0.19796 2.9258e-05 34178. 370.20 391.42 3.8964 0.79443 0.98298 162.03 2.9337 3.0679 0.0030815
-159.62 0.00011245 5.6164e-09 -142.59 -142.59 -0.84940 704.35 0.0014197 -142.59 -142.59 -0.84940 1.3360 1.9478 1945.3 -0.0075661 1954.2 0.19751 3.6221e-05 27609. 371.00 392.40 3.8632 0.79805 0.98660 162.68 2.8658 3.0955 0.0031365
-158.62 0.00013985 6.8323e-09 -140.64 -140.64 -0.83231 703.34 0.0014218 -140.64 -140.64 -0.83231 1.3358 1.9492 1938.5 -0.0075573 1874.8 0.19705 4.4652e-05 22395. 371.80 393.39 3.8307 0.80164 0.99020 163.32 2.8002 3.1230 0.0031918
-157.62 0.00017320 8.2759e-09 -138.69 -138.69 -0.81536 702.32 0.0014238 -138.69 -138.69 -0.81536 1.3356 1.9506 1931.7 -0.0075484 1800.3 0.19658 5.4822e-05 18241. 372.60 394.38 3.7990 0.80522 0.99378 163.96 2.7367 3.1505 0.0032474
-156.62 0.00021364 9.9825e-09 -136.74 -136.74 -0.79854 701.31 0.0014259 -136.74 -136.74 -0.79854 1.3354 1.9520 1924.9 -0.0075393 1730.5 0.19611 6.7040e-05 14916. 373.41 395.38 3.7680 0.80878 0.99734 164.60 2.6752 3.1780 0.0033033
-155.62 0.00026248 1.1992e-08 -134.79 -134.79 -0.78185 700.30 0.0014280 -134.79 -134.79 -0.78185 1.3352 1.9534 1918.1 -0.0075302 1664.9 0.19564 8.1666e-05 12245. 374.22 396.38 3.7377 0.81232 1.0009 165.24 2.6157 3.2055 0.0033595
-154.62 0.00032125 1.4348e-08 -132.83 -132.83 -0.76530 699.29 0.0014300 -132.83 -132.83 -0.76530 1.3350 1.9548 1911.3 -0.0075209 1603.3 0.19516 9.9109e-05 10090. 375.03 397.38 3.7081 0.81585 1.0044 165.87 2.5580 3.2330 0.0034160
-153.62 0.00039171 1.7101e-08 -130.88 -130.88 -0.74887 698.27 0.0014321 -130.88 -130.88 -0.74887 1.3349 1.9563 1904.5 -0.0075114 1545.3 0.19468 0.00011984 8344.6 375.85 398.39 3.6792 0.81935 1.0079 166.50 2.5022 3.2606 0.0034727
-152.62 0.00047590 2.0304e-08 -128.92 -128.92 -0.73256 697.26 0.0014342 -128.92 -128.92 -0.73256 1.3348 1.9577 1897.8 -0.0075019 1490.6 0.19419 0.00014439 6925.9 376.67 399.40 3.6509 0.82284 1.0114 167.13 2.4481 3.2881 0.0035298
-151.62 0.00057613 2.4016e-08 -126.96 -126.96 -0.71638 696.25 0.0014363 -126.96 -126.96 -0.71638 1.3346 1.9592 1891.0 -0.0074922 1438.9 0.19370 0.00017336 5768.4 377.49 400.41 3.6232 0.82631 1.0149 167.76 2.3957 3.3156 0.0035872
-150.62 0.00069507 2.8305e-08 -125.00 -125.00 -0.70032 695.24 0.0014384 -125.00 -125.00 -0.70032 1.3345 1.9606 1884.2 -0.0074824 1390.2 0.19320 0.00020744 4820.7 378.32 401.42 3.5962 0.82976 1.0183 168.38 2.3448 3.3431 0.0036448
-149.62 0.00083574 3.3240e-08 -123.04 -123.04 -0.68438 694.23 0.0014404 -123.04 -123.04 -0.68438 1.3345 1.9621 1877.4 -0.0074724 1344.0 0.19270 0.00024740 4042.0 379.15 402.44 3.5697 0.83319 1.0218 169.00 2.2956 3.3706 0.0037027
-148.62 0.0010016 3.8898e-08 -121.08 -121.08 -0.66855 693.22 0.0014425 -121.08 -121.08 -0.66855 1.3344 1.9636 1870.7 -0.0074623 1300.3 0.19220 0.00029412 3400.0 379.99 403.47 3.5438 0.83661 1.0252 169.62 2.2478 3.3982 0.0037610
-147.62 0.0011965 4.5364e-08 -119.11 -119.11 -0.65284 692.21 0.0014447 -119.11 -119.11 -0.65284 1.3343 1.9651 1863.9 -0.0074521 1258.9 0.19169 0.00034856 2869.0 380.83 404.49 3.5185 0.84001 1.0286 170.24 2.2014 3.4257 0.0038195
-146.62 0.0014249 5.2727e-08 -117.15 -117.15 -0.63724 691.20 0.0014468 -117.15 -117.15 -0.63724 1.3343 1.9666 1857.2 -0.0074417 1219.6 0.19117 0.00041181 2428.3 381.67 405.52 3.4938 0.84340 1.0320 170.85 2.1565 3.4532 0.0038783
-145.62 0.0016917 6.1083e-08 -115.18 -115.18 -0.62175 690.19 0.0014489 -115.18 -115.18 -0.62175 1.3343 1.9682 1850.4 -0.0074312 1182.3 0.19066 0.00048510 2061.4 382.51 406.56 3.4695 0.84677 1.0353 171.46 2.1128 3.4807 0.0039374
-144.62 0.0020026 7.0535e-08 -113.21 -113.21 -0.60637 689.18 0.0014510 -113.21 -113.21 -0.60637 1.3343 1.9697 1843.7 -0.0074206 1146.8 0.19014 0.00056976 1755.1 383.36 407.59 3.4458 0.85012 1.0387 172.07 2.0705 3.5082 0.0039967
-143.62 0.0023637 8.1190e-08 -111.24 -111.24 -0.59110 688.17 0.0014531 -111.24 -111.24 -0.59110 1.3343 1.9713 1836.9 -0.0074098 1113.0 0.18962 0.00066731 1498.6 384.21 408.63 3.4226 0.85346 1.0420 172.68 2.0294 3.5358 0.0040564
-142.62 0.0027820 9.3162e-08 -109.27 -109.27 -0.57593 687.16 0.0014553 -109.27 -109.27 -0.57593 1.3343 1.9728 1830.2 -0.0073988 1080.8 0.18909 0.00077939 1283.1 385.07 409.68 3.3999 0.85679 1.0454 173.28 1.9896 3.5633 0.0041164
-141.62 0.0032653 1.0657e-07 -107.30 -107.30 -0.56087 686.15 0.0014574 -107.30 -107.30 -0.56087 1.3343 1.9744 1823.5 -0.0073878 1050.1 0.18856 0.00090784 1101.5 385.93 410.72 3.3777 0.86011 1.0487 173.88 1.9508 3.5908 0.0041766
-140.62 0.0038222 1.2154e-07 -105.32 -105.32 -0.54591 685.14 0.0014596 -105.32 -105.32 -0.54591 1.3344 1.9760 1816.7 -0.0073765 1020.7 0.18803 0.0010547 948.16 386.79 411.77 3.3560 0.86341 1.0520 174.48 1.9133 3.6183 0.0042372
-139.62 0.0044623 1.3821e-07 -103.34 -103.34 -0.53105 684.13 0.0014617 -103.34 -103.34 -0.53105 1.3344 1.9776 1810.0 -0.0073651 992.74 0.18749 0.0012221 818.26 387.65 412.83 3.3347 0.86670 1.0553 175.08 1.8768 3.6459 0.0042980
-138.62 0.0051963 1.5669e-07 -101.37 -101.37 -0.51629 683.12 0.0014639 -101.37 -101.37 -0.51629 1.3345 1.9792 1803.3 -0.0073536 965.97 0.18695 0.0014125 707.94 388.52 413.88 3.3139 0.86998 1.0586 175.67 1.8413 3.6734 0.0043592
-137.62 0.0060358 1.7713e-07 -99.386 -99.386 -0.50162 682.11 0.0014660 -99.386 -99.386 -0.50162 1.3346 1.9808 1796.6 -0.0073419 940.35 0.18641 0.0016287 614.00 389.39 414.94 3.2935 0.87325 1.0619 176.26 1.8069 3.7009 0.0044206
-136.62 0.0069938 1.9967e-07 -97.404 -97.404 -0.48705 681.10 0.0014682 -97.404 -97.404 -0.48705 1.3347 1.9825 1789.9 -0.0073301 915.81 0.18586 0.0018733 533.80 390.26 416.00 3.2735 0.87650 1.0651 176.85 1.7734 3.7284 0.0044823
-135.62 0.0080843 2.2444e-07 -95.421 -95.421 -0.47258 680.09 0.0014704 -95.421 -95.421 -0.47258 1.3348 1.9841 1783.2 -0.0073180 892.30 0.18531 0.0021497 465.17 391.14 417.07 3.2540 0.87975 1.0684 177.44 1.7409 3.7559 0.0045443
-134.62 0.0093230 2.5158e-07 -93.436 -93.436 -0.45820 679.08 0.0014726 -93.436 -93.436 -0.45820 1.3350 1.9858 1776.5 -0.0073059 869.75 0.18476 0.0024613 406.30 392.02 418.14 3.2348 0.88299 1.0716 178.02 1.7093 3.7834 0.0046066
-133.62 0.010727 2.8122e-07 -91.449 -91.449 -0.44391 678.07 0.0014748 -91.450 -91.449 -0.44391 1.3351 1.9875 1769.8 -0.0072935 848.11 0.18421 0.0028116 355.67 392.91 419.21 3.2161 0.88622 1.0749 178.61 1.6786 3.8109 0.0046691
-132.62 0.012315 3.1350e-07 -89.461 -89.461 -0.42971 677.06 0.0014770 -89.461 -89.461 -0.42971 1.3353 1.9892 1763.1 -0.0072810 827.32 0.18365 0.0032049 312.03 393.79 420.29 3.1977 0.88944 1.0781 179.19 1.6488 3.8385 0.0047320
-131.62 0.014106 3.4852e-07 -87.471 -87.471 -0.41560 676.04 0.0014792 -87.471 -87.471 -0.41560 1.3354 1.9909 1756.4 -0.0072684 807.34 0.18309 0.0036453 274.33 394.68 421.36 3.1798 0.89266 1.0813 179.76 1.6197 3.8660 0.0047951
-130.62 0.016124 3.8642e-07 -85.479 -85.479 -0.40157 675.03 0.0014814 -85.479 -85.479 -0.40157 1.3356 1.9926 1749.7 -0.0072555 788.12 0.18253 0.0041375 241.69 395.58 422.44 3.1622 0.89586 1.0846 180.34 1.5915 3.8935 0.0048586
-129.62 0.018392 4.2728e-07 -83.486 -83.485 -0.38763 674.02 0.0014836 -83.486 -83.486 -0.38763 1.3358 1.9944 1743.0 -0.0072425 769.63 0.18196 0.0046867 213.37 396.47 423.53 3.1450 0.89906 1.0878 180.91 1.5641 3.9210 0.0049223
-128.62 0.020935 4.7120e-07 -81.490 -81.490 -0.37378 673.01 0.0014859 -81.491 -81.490 -0.37378 1.3360 1.9961 1736.3 -0.0072294 751.83 0.18140 0.0052981 188.75 397.37 424.62 3.1281 0.90226 1.0910 181.48 1.5374 3.9485 0.0049863
-127.62 0.023783 5.1825e-07 -79.493 -79.493 -0.36001 672.00 0.0014881 -79.494 -79.493 -0.36001 1.3363 1.9979 1729.6 -0.0072160 734.67 0.18083 0.0059776 167.29 398.27 425.71 3.1116 0.90545 1.0942 182.05 1.5114 3.9760 0.0050506
-126.62 0.026966 5.6847e-07 -77.495 -77.494 -0.34632 670.98 0.0014904 -77.495 -77.495 -0.34632 1.3365 1.9997 1722.9 -0.0072025 718.14 0.18025 0.0067313 148.56 399.18 426.80 3.0954 0.90863 1.0974 182.62 1.4861 4.0035 0.0051152
-125.62 0.030515 6.2190e-07 -75.494 -75.494 -0.33271 669.97 0.0014926 -75.494 -75.494 -0.33272 1.3368 2.0015 1716.2 -0.0071888 702.18 0.17968 0.0075660 132.17 400.09 427.89 3.0795 0.91181 1.1006 183.18 1.4615 4.0310 0.0051800
-124.62 0.034467 6.7852e-07 -73.492 -73.491 -0.31919 668.95 0.0014949 -73.492 -73.492 -0.31919 1.3371 2.0033 1709.5 -0.0071749 686.79 0.17910 0.0084885 117.81 401.00 428.99 3.0640 0.91499 1.1038 183.74 1.4375 4.0584 0.0052452
-123.62 0.038859 7.3830e-07 -71.487 -71.487 -0.30574 667.94 0.0014971 -71.488 -71.487 -0.30574 1.3374 2.0051 1702.8 -0.0071609 671.93 0.17852 0.0095065 105.19 401.91 430.10 3.0488 0.91816 1.1070 184.30 1.4141 4.0859 0.0053106
-122.62 0.043731 8.0117e-07 -69.481 -69.481 -0.29237 666.92 0.0014994 -69.482 -69.481 -0.29237 1.3377 2.0070 1696.2 -0.0071466 657.57 0.17794 0.010628 94.092 402.83 431.20 3.0339 0.92134 1.1102 184.86 1.3913 4.1134 0.0053764
-121.62 0.049128 8.6701e-07 -67.473 -67.473 -0.27907 665.91 0.0015017 -67.474 -67.473 -0.27907 1.3380 2.0089 1689.5 -0.0071322 643.70 0.17736 0.011861 84.309 403.75 432.31 3.0193 0.92451 1.1134 185.41 1.3691 4.1409 0.0054424
-120.62 0.055096 9.3566e-07 -65.463 -65.463 -0.26585 664.89 0.0015040 -65.464 -65.463 -0.26585 1.3384 2.0107 1682.8 -0.0071176 630.28 0.17678 0.013215 75.669 404.67 433.42 3.0050 0.92767 1.1166 185.96 1.3475 4.1683 0.0055087
-119.62 0.061684 1.0069e-06 -63.452 -63.451 -0.25270 663.87 0.0015063 -63.452 -63.452 -0.25271 1.3387 2.0126 1676.1 -0.0071028 617.30 0.17619 0.014700 68.027 405.60 434.53 2.9909 0.93084 1.1198 186.51 1.3264 4.1958 0.0055752
-118.62 0.068946 1.0805e-06 -61.438 -61.437 -0.23963 662.86 0.0015086 -61.439 -61.438 -0.23963 1.3391 2.0146 1669.4 -0.0070878 604.74 0.17560 0.016325 61.255 406.53 435.64 2.9772 0.93401 1.1231 187.06 1.3058 4.2233 0.0056421
-117.62 0.076937 1.1560e-06 -59.423 -59.422 -0.22663 661.84 0.0015109 -59.423 -59.422 -0.22663 1.3395 2.0165 1662.8 -0.0070726 592.58 0.17501 0.018101 55.245 407.46 436.76 2.9638 0.93718 1.1263 187.60 1.2857 4.2507 0.0057092
-116.62 0.085718 1.2331e-06 -57.405 -57.404 -0.21370 660.82 0.0015133 -57.406 -57.405 -0.21370 1.3400 2.0184 1656.1 -0.0070573 580.80 0.17442 0.020040 49.901 408.39 437.88 2.9506 0.94035 1.1295 188.14 1.2660 4.2782 0.0057767
-115.62 0.095353 1.3113e-06 -55.386 -55.385 -0.20084 659.80 0.0015156 -55.386 -55.385 -0.20084 1.3404 2.0204 1649.4 -0.0070417 569.38 0.17383 0.022152 45.142 409.33 439.01 2.9377 0.94352 1.1327 188.68 1.2468 4.3056 0.0058444
-114.62 0.10591 1.3899e-06 -53.364 -53.363 -0.18805 658.78 0.0015180 -53.365 -53.364 -0.18805 1.3409 2.0224 1642.7 -0.0070260 558.32 0.17323 0.024451 40.898 410.27 440.13 2.9250 0.94669 1.1360 189.22 1.2281 4.3330 0.0059123
-113.62 0.11746 1.4684e-06 -51.341 -51.340 -0.17532 657.76 0.0015203 -51.342 -51.340 -0.17533 1.3413 2.0244 1636.0 -0.0070100 547.59 0.17264 0.026949 37.107 411.21 441.26 2.9126 0.94987 1.1392 189.75 1.2097 4.3604 0.0059806
-112.62 0.13008 1.5459e-06 -49.315 -49.314 -0.16266 656.73 0.0015227 -49.316 -49.315 -0.16267 1.3418 2.0264 1629.3 -0.0069938 537.18 0.17204 0.029661 33.715 412.16 442.39 2.9005 0.95305 1.1424 190.28 1.1918 4.3879 0.0060491
-111.62 0.14384 1.6216e-06 -47.288 -47.286 -0.15007 655.71 0.0015251 -47.289 -47.287 -0.15008 1.3424 2.0285 1622.7 -0.0069774 527.08 0.17144 0.032600 30.675 413.10 443.53 2.8885 0.95623 1.1457 190.81 1.1742 4.4153 0.0061180
-110.62 0.15884 1.6945e-06 -45.259 -45.257 -0.13755 654.69 0.0015274 -45.259 -45.258 -0.13755 1.3429 2.0305 1616.0 -0.0069609 517.28 0.17084 0.035781 27.948 414.06 444.66 2.8769 0.95942 1.1490 191.34 1.1570 4.4427 0.0061871
-109.62 0.17516 1.7634e-06 -43.227 -43.225 -0.12509 653.66 0.0015298 -43.228 -43.226 -0.12509 1.3435 2.0326 1609.3 -0.0069441 507.76 0.17024 0.039220 25.497 415.01 445.80 2.8654 0.96261 1.1522 191.86 1.1402 4.4701 0.0062564
-108.62 0.19290 1.8271e-06 -41.193 -41.191 -0.11269 652.64 0.0015322 -41.194 -41.192 -0.11269 1.3441 2.0347 1602.6 -0.0069271 498.51 0.16964 0.042933 23.292 415.96 446.94 2.8542 0.96581 1.1555 192.38 1.1236 4.4974 0.0063261
-107.62 0.21215 1.8842e-06 -39.158 -39.155 -0.10035 651.61 0.0015347 -39.158 -39.156 -0.10036 1.3447 2.0369 1595.9 -0.0069098 489.52 0.16903 0.046937 21.305 416.92 448.09 2.8433 0.96901 1.1588 192.90 1.1075 4.5248 0.0063960
-106.62 0.23301 1.9331e-06 -37.120 -37.117 -0.088077 650.58 0.0015371 -37.120 -37.118 -0.088082 1.3453 2.0390 1589.2 -0.0068924 480.79 0.16843 0.051250 19.512 417.88 449.23 2.8325 0.97222 1.1621 193.41 1.0916 4.5522 0.0064662
-105.62 0.25561 1.9720e-06 -35.080 -35.077 -0.075863 649.55 0.0015395 -35.080 -35.078 -0.075868 1.3460 2.0412 1582.6 -0.0068747 472.30 0.16782 0.055891 17.892 418.85 450.38 2.8220 0.97544 1.1655 193.93 1.0760 4.5795 0.0065367
-104.62 0.28004 1.9991e-06 -33.037 -33.034 -0.063709 648.52 0.0015420 -33.038 -33.035 -0.063714 1.3467 2.0434 1575.9 -0.0068569 464.04 0.16721 0.060878 16.426 419.81 451.53 2.8116 0.97867 1.1688 194.44 1.0608 4.6069 0.0066074
-103.62 0.30643 2.0123e-06 -30.993 -30.990 -0.051613 647.49 0.0015444 -30.994 -30.991 -0.051619 1.3474 2.0456 1569.2 -0.0068387 456.00 0.16660 0.066231 15.099 420.78 452.68 2.8015 0.98191 1.1722 194.94 1.0458 4.6342 0.0066785
-102.62 0.33490 2.0092e-06 -28.946 -28.943 -0.039576 646.46 0.0015469 -28.947 -28.944 -0.039582 1.3481 2.0478 1562.5 -0.0068204 448.18 0.16600 0.071971 13.894 421.75 453.84 2.7916 0.98516 1.1755 195.44 1.0310 4.6615 0.0067498
-101.62 0.36558 1.9874e-06 -26.897 -26.893 -0.027596 645.43 0.0015494 -26.898 -26.894 -0.027602 1.3489 2.0501 1555.8 -0.0068018 440.57 0.16539 0.078120 12.801 422.73 454.99 2.7818 0.98841 1.1789 195.95 1.0166 4.6888 0.0068213
-100.62 0.39862 1.9441e-06 -24.846 -24.842 -0.015673 644.39 0.0015519 -24.847 -24.843 -0.015678 1.3497 2.0524 1549.1 -0.0067830 433.16 0.16478 0.084699 11.807 423.70 456.15 2.7723 0.99168 1.1823 196.44 1.0024 4.7161 0.0068932
-99.625 0.43414 1.8763e-06 -22.793 -22.788 -0.0038051 643.36 0.0015544 -22.794 -22.789 -0.0038103 1.3505 2.0547 1542.4 -0.0067639 425.95 0.16416 0.091731 10.901 424.68 457.31 2.7630 0.99496 1.1858 196.94 0.98838 4.7434 0.0069653
-98.625 0.47230 1.7809e-06 -20.737 -20.732 0.0080076 642.32 0.0015569 -20.738 -20.733 0.0080027 1.3514 2.0570 1535.7 -0.0067447 418.92 0.16355 0.099240 10.077 425.66 458.48 2.7538 0.99825 1.1892 197.43 0.97464 4.7707 0.0070377
-97.625 0.51325 1.6543e-06 -18.679 -18.674 0.019766 641.28 0.0015594 -18.680 -18.674 0.019762 1.3522 2.0594 1529.0 -0.0067251 412.07 0.16294 0.10725 9.3239 426.65 459.64 2.7448 1.0016 1.1927 197.92 0.96112 4.7979 0.0071103
-96.625 0.55714 1.4929e-06 -16.619 -16.613 0.031471 640.24 0.0015619 -16.620 -16.614 0.031467 1.3531 2.0618 1522.3 -0.0067053 405.39 0.16233 0.11579 8.6365 427.63 460.81 2.7360 1.0049 1.1962 198.40 0.94783 4.8251 0.0071832
-95.625 0.60416 1.2925e-06 -14.556 -14.550 0.043124 639.20 0.0015645 -14.557 -14.550 0.043120 1.3540 2.0642 1515.7 -0.0066853 398.88 0.16171 0.12488 8.0078 428.62 461.98 2.7274 1.0082 1.1997 198.88 0.93475 4.8524 0.0072564
-94.625 0.65446 1.0489e-06 -12.491 -12.484 0.054724 638.16 0.0015670 -12.491 -12.484 0.054721 1.3550 2.0667 1509.0 -0.0066650 392.53 0.16110 0.13455 7.4323 429.61 463.15 2.7189 1.0116 1.2032 199.36 0.92188 4.8796 0.0073299
-93.625 0.70822 7.5731e-07 -10.423 -10.416 0.066273 637.12 0.0015696 -10.424 -10.416 0.066271 1.3560 2.0691 1502.3 -0.0066444 386.34 0.16048 0.14482 6.9050 430.60 464.32 2.7107 1.0149 1.2068 199.83 0.90921 4.9068 0.0074036
-92.625 0.76564 4.1286e-07 -8.3533 -8.3450 0.077772 636.07 0.0015722 -8.3535 -8.3452 0.077771 1.3570 2.0716 1495.6 -0.0066236 380.31 0.15987 0.15573 6.4212 431.60 465.49 2.7025 1.0183 1.2104 200.30 0.89673 4.9340 0.0074776
-91.625 0.82689 1.0190e-08 -6.2808 -6.2719 0.089220 635.02 0.0015747 -6.2808 -6.2719 0.089220 1.3580 2.0742 1488.9 -0.0066025 374.41 0.15925 0.16731 5.9769 432.59 466.67 2.6946 1.0217 1.2140 200.77 0.88445 4.9611 0.0075518
-90.625 215.77 undefined -4.9047 -2.5619 0.096781 635.00 0.0015748 -4.9047 -2.5619 0.096781 1.3607 2.0735 1491.2 -0.0066114 373.25 0.15941 635.00 0.0015748 -4.9047 -2.5619 0.096781 1.3607 2.0735 1491.2 -0.0066114 373.25 0.15941
-89.625 435.36 undefined -3.5426 1.1845 0.10422 635.00 0.0015748 -3.5426 1.1845 0.10422 1.3634 2.0728 1493.7 -0.0066207 372.22 0.15959 635.00 0.0015748 -3.5426 1.1845 0.10422 1.3634 2.0728 1493.7 -0.0066207 372.22 0.15959
-88.625 654.46 undefined -2.1778 4.9282 0.11164 635.00 0.0015748 -2.1778 4.9282 0.11164 1.3662 2.0722 1496.2 -0.0066296 371.20 0.15977 635.00 0.0015748 -2.1778 4.9282 0.11164 1.3662 2.0722 1496.2 -0.0066296 371.20 0.15977
-87.625 873.06 undefined -0.81024 8.6693 0.11903 635.00 0.0015748 -0.81024 8.6693 0.11903 1.3689 2.0716 1498.6 -0.0066383 370.19 0.15995 635.00 0.0015748 -0.81024 8.6693 0.11903 1.3689 2.0716 1498.6 -0.0066383 370.19 0.15995
-86.625 1091.2 undefined 0.56009 12.408 0.12640 635.00 0.0015748 0.56009 12.408 0.12640 1.3717 2.0711 1501.1 -0.0066466 369.20 0.16012 635.00 0.0015748 0.56009 12.408 0.12640 1.3717 2.0711 1501.1 -0.0066466 369.20 0.16012
-85.625 1308.8 undefined 1.9332 16.144 0.13374 635.00 0.0015748 1.9332 16.144 0.13374 1.3745 2.0706 1503.5 -0.0066547 368.22 0.16030 635.00 0.0015748 1.9332 16.144 0.13374 1.3745 2.0706 1503.5 -0.0066547 368.22 0.16030
-84.625 1525.9 undefined 3.3091 19.877 0.14106 635.00 0.0015748 3.3091 19.877 0.14106 1.3773 2.0703 1506.0 -0.0066624 367.25 0.16048 635.00 0.0015748 3.3091 19.877 0.14106 1.3773 2.0703 1506.0 -0.0066624 367.25 0.16048
-83.625 1742.6 undefined 4.6877 23.608 0.14835 635.00 0.0015748 4.6877 23.608 0.14835 1.3801 2.0699 1508.4 -0.0066699 366.29 0.16066 635.00 0.0015748 4.6877 23.608 0.14835 1.3801 2.0699 1508.4 -0.0066699 366.29 0.16066
-82.625 1958.7 undefined 6.0692 27.337 0.15562 635.00 0.0015748 6.0692 27.337 0.15562 1.3829 2.0697 1510.8 -0.0066771 365.35 0.16084 635.00 0.0015748 6.0692 27.337 0.15562 1.3829 2.0697 1510.8 -0.0066771 365.35 0.16084
-81.625 2174.5 undefined 7.4535 31.063 0.16287 635.00 0.0015748 7.4535 31.063 0.16287 1.3857 2.0695 1513.2 -0.0066839 364.42 0.16102 635.00 0.0015748 7.4535 31.063 0.16287 1.3857 2.0695 1513.2 -0.0066839 364.42 0.16102
-80.625 2389.7 undefined 8.8406 34.788 0.17009 635.00 0.0015748 8.8406 34.788 0.17009 1.3885 2.0693 1515.6 -0.0066905 363.50 0.16120 635.00 0.0015748 8.8406 34.788 0.17009 1.3885 2.0693 1515.6 -0.0066905 363.50 0.16120
-79.625 2604.5 undefined 10.231 38.510 0.17729 635.00 0.0015748 10.231 38.510 0.17729 1.3914 2.0692 1517.9 -0.0066968 362.59 0.16138 635.00 0.0015748 10.231 38.510 0.17729 1.3914 2.0692 1517.9 -0.0066968 362.59 0.16138
-78.625 2818.8 undefined 11.623 42.230 0.18447 635.00 0.0015748 11.623 42.230 0.18447 1.3942 2.0692 1520.3 -0.0067029 361.70 0.16156 635.00 0.0015748 11.623 42.230 0.18447 1.3942 2.0692 1520.3 -0.0067029 361.70 0.16156
-77.625 3032.7 undefined 13.019 45.947 0.19163 635.00 0.0015748 13.019 45.947 0.19163 1.3971 2.0692 1522.6 -0.0067086 360.82 0.16175 635.00 0.0015748 13.019 45.947 0.19163 1.3971 2.0692 1522.6 -0.0067086 360.82 0.16175
-76.625 3246.1 undefined 14.418 49.663 0.19876 635.00 0.0015748 14.418 49.663 0.19876 1.4000 2.0693 1525.0 -0.0067142 359.94 0.16193 635.00 0.0015748 14.418 49.663 0.19876 1.4000 2.0693 1525.0 -0.0067142 359.94 0.16193
-75.625 3459.0 undefined 15.819 53.377 0.20587 635.00 0.0015748 15.819 53.377 0.20587 1.4029 2.0694 1527.3 -0.0067194 359.08 0.16211 635.00 0.0015748 15.819 53.377 0.20587 1.4029 2.0694 1527.3 -0.0067194 359.08 0.16211
-74.625 3671.6 undefined 17.223 57.089 0.21296 635.00 0.0015748 17.223 57.089 0.21296 1.4058 2.0696 1529.6 -0.0067244 358.23 0.16229 635.00 0.0015748 17.223 57.089 0.21296 1.4058 2.0696 1529.6 -0.0067244 358.23 0.16229
-73.625 3883.6 undefined 18.631 60.799 0.22004 635.00 0.0015748 18.631 60.799 0.22004 1.4087 2.0698 1531.9 -0.0067291 357.40 0.16247 635.00 0.0015748 18.631 60.799 0.22004 1.4087 2.0698 1531.9 -0.0067291 357.40 0.16247
-72.625 4095.3 undefined 20.041 64.507 0.22709 635.00 0.0015748 20.041 64.507 0.22709 1.4116 2.0700 1534.2 -0.0067336 356.57 0.16266 635.00 0.0015748 20.041 64.507 0.22709 1.4116 2.0700 1534.2 -0.0067336 356.57 0.16266
-71.625 4306.5 undefined 21.454 68.213 0.23412 635.00 0.0015748 21.454 68.213 0.23412 1.4146 2.0704 1536.4 -0.0067379 355.75 0.16284 635.00 0.0015748 21.454 68.213 0.23412 1.4146 2.0704 1536.4 -0.0067379 355.75 0.16284
-70.625 4517.3 undefined 22.870 71.918 0.24112 635.00 0.0015748 22.870 71.918 0.24112 1.4176 2.0707 1538.7 -0.0067419 354.95 0.16302 635.00 0.0015748 22.870 71.918 0.24112 1.4176 2.0707 1538.7 -0.0067419 354.95 0.16302
-69.625 4727.6 undefined 24.289 75.621 0.24811 635.00 0.0015748 24.289 75.621 0.24811 1.4205 2.0711 1540.9 -0.0067457 354.15 0.16321 635.00 0.0015748 24.289 75.621 0.24811 1.4205 2.0711 1540.9 -0.0067457 354.15 0.16321
-68.625 4937.6 undefined 25.711 79.323 0.25508 635.00 0.0015748 25.711 79.323 0.25508 1.4235 2.0716 1543.2 -0.0067492 353.36 0.16339 635.00 0.0015748 25.711 79.323 0.25508 1.4235 2.0716 1543.2 -0.0067492 353.36 0.16339
-67.625 5147.1 undefined 27.136 83.022 0.26203 635.00 0.0015748 27.136 83.022 0.26203 1.4265 2.0721 1545.4 -0.0067525 352.59 0.16358 635.00 0.0015748 27.136 83.022 0.26203 1.4265 2.0721 1545.4 -0.0067525 352.59 0.16358
-66.625 5356.2 undefined 28.564 86.721 0.26897 635.00 0.0015748 28.564 86.721 0.26897 1.4295 2.0727 1547.6 -0.0067556 351.82 0.16376 635.00 0.0015748 28.564 86.721 0.26897 1.4295 2.0727 1547.6 -0.0067556 351.82 0.16376
-65.625 5564.8 undefined 29.995 90.417 0.27588 635.00 0.0015748 29.995 90.417 0.27588 1.4326 2.0733 1549.7 -0.0067585 351.07 0.16395 635.00 0.0015748 29.995 90.417 0.27588 1.4326 2.0733 1549.7 -0.0067585 351.07 0.16395
-64.625 5773.1 undefined 31.429 94.113 0.28277 635.00 0.0015748 31.429 94.113 0.28277 1.4356 2.0739 1551.9 -0.0067611 350.32 0.16413 635.00 0.0015748 31.429 94.113 0.28277 1.4356 2.0739 1551.9 -0.0067611 350.32 0.16413
-63.625 5981.0 undefined 32.866 97.807 0.28965 635.00 0.0015748 32.866 97.807 0.28965 1.4387 2.0746 1554.1 -0.0067635 349.58 0.16432 635.00 0.0015748 32.866 97.807 0.28965 1.4387 2.0746 1554.1 -0.0067635 349.58 0.16432
-62.625 6188.4 undefined 34.307 101.50 0.29650 635.00 0.0015748 34.307 101.50 0.29650 1.4418 2.0753 1556.2 -0.0067658 348.85 0.16450 635.00 0.0015748 34.307 101.50 0.29650 1.4418 2.0753 1556.2 -0.0067658 348.85 0.16450
-61.625 6395.4 undefined 35.750 105.19 0.30334 635.00 0.0015748 35.750 105.19 0.30334 1.4449 2.0761 1558.3 -0.0067678 348.14 0.16469 635.00 0.0015748 35.750 105.19 0.30334 1.4449 2.0761 1558.3 -0.0067678 348.14 0.16469
-60.625 6602.1 undefined 37.196 108.88 0.31017 635.00 0.0015748 37.196 108.88 0.31017 1.4480 2.0769 1560.5 -0.0067696 347.43 0.16487 635.00 0.0015748 37.196 108.88 0.31017 1.4480 2.0769 1560.5 -0.0067696 347.43 0.16487
-59.625 6808.3 undefined 38.646 112.57 0.31697 635.00 0.0015748 38.646 112.57 0.31697 1.4511 2.0778 1562.6 -0.0067712 346.73 0.16506 635.00 0.0015748 38.646 112.57 0.31697 1.4511 2.0778 1562.6 -0.0067712 346.73 0.16506
-58.625 7014.1 undefined 40.098 116.26 0.32376 635.00 0.0015748 40.098 116.26 0.32376 1.4542 2.0787 1564.7 -0.0067726 346.03 0.16525 635.00 0.0015748 40.098 116.26 0.32376 1.4542 2.0787 1564.7 -0.0067726 346.03 0.16525
-57.625 7219.6 undefined 41.554 119.94 0.33053 635.00 0.0015748 41.554 119.94 0.33053 1.4574 2.0796 1566.7 -0.0067738 345.35 0.16544 635.00 0.0015748 41.554 119.94 0.33053 1.4574 2.0796 1566.7 -0.0067738 345.35 0.16544
-56.625 7424.6 undefined 43.013 123.63 0.33728 635.00 0.0015748 43.013 123.63 0.33728 1.4605 2.0806 1568.8 -0.0067748 344.68 0.16562 635.00 0.0015748 43.013 123.63 0.33728 1.4605 2.0806 1568.8 -0.0067748 344.68 0.16562
-55.625 7629.3 undefined 44.475 127.31 0.34402 635.00 0.0015748 44.475 127.31 0.34402 1.4637 2.0816 1570.8 -0.0067757 344.01 0.16581 635.00 0.0015748 44.475 127.31 0.34402 1.4637 2.0816 1570.8 -0.0067757 344.01 0.16581
-54.625 7833.6 undefined 45.941 131.00 0.35074 635.00 0.0015748 45.941 131.00 0.35074 1.4669 2.0827 1572.9 -0.0067763 343.35 0.16600 635.00 0.0015748 45.941 131.00 0.35074 1.4669 2.0827 1572.9 -0.0067763 343.35 0.16600
-53.625 8037.5 undefined 47.409 134.68 0.35745 635.00 0.0015748 47.409 134.68 0.35745 1.4702 2.0838 1574.9 -0.0067768 342.70 0.16619 635.00 0.0015748 47.409 134.68 0.35745 1.4702 2.0838 1574.9 -0.0067768 342.70 0.16619
-52.625 8241.0 undefined 48.881 138.36 0.36413 635.00 0.0015748 48.881 138.36 0.36413 1.4734 2.0850 1576.9 -0.0067770 342.06 0.16638 635.00 0.0015748 48.881 138.36 0.36413 1.4734 2.0850 1576.9 -0.0067770 342.06 0.16638
-51.625 8444.1 undefined 50.356 142.04 0.37081 635.00 0.0015748 50.356 142.04 0.37081 1.4766 2.0861 1578.9 -0.0067771 341.43 0.16657 635.00 0.0015748 50.356 142.04 0.37081 1.4766 2.0861 1578.9 -0.0067771 341.43 0.16657
-50.625 8646.8 undefined 51.834 145.72 0.37747 635.00 0.0015748 51.834 145.72 0.37747 1.4799 2.0874 1580.9 -0.0067771 340.80 0.16675 635.00 0.0015748 51.834 145.72 0.37747 1.4799 2.0874 1580.9 -0.0067771 340.80 0.16675
-49.625 8849.2 undefined 53.316 149.40 0.38411 635.00 0.0015748 53.316 149.40 0.38411 1.4832 2.0886 1582.9 -0.0067768 340.18 0.16694 635.00 0.0015748 53.316 149.40 0.38411 1.4832 2.0886 1582.9 -0.0067768 340.18 0.16694
-48.625 9051.2 undefined 54.801 153.08 0.39074 635.00 0.0015748 54.801 153.08 0.39074 1.4865 2.0899 1584.8 -0.0067764 339.57 0.16713 635.00 0.0015748 54.801 153.08 0.39074 1.4865 2.0899 1584.8 -0.0067764 339.57 0.16713
-47.625 9252.8 undefined 56.289 156.75 0.39735 635.00 0.0015748 56.289 156.75 0.39735 1.4898 2.0912 1586.8 -0.0067758 338.97 0.16732 635.00 0.0015748 56.289 156.75 0.39735 1.4898 2.0912 1586.8 -0.0067758 338.97 0.16732
-46.625 9454.1 undefined 57.780 160.43 0.40395 635.00 0.0015748 57.780 160.43 0.40395 1.4931 2.0926 1588.7 -0.0067751 338.37 0.16751 635.00 0.0015748 57.780 160.43 0.40395 1.4931 2.0926 1588.7 -0.0067751 338.37 0.16751
-45.625 9655.0 undefined 59.275 164.11 0.41053 635.00 0.0015748 59.275 164.11 0.41053 1.4965 2.0940 1590.7 -0.0067742 337.78 0.16771 635.00 0.0015748 59.275 164.11 0.41053 1.4965 2.0940 1590.7 -0.0067742 337.78 0.16771
-44.625 9855.5 undefined 60.773 167.78 0.41710 635.00 0.0015748 60.773 167.78 0.41710 1.4999 2.0955 1592.6 -0.0067731 337.20 0.16790 635.00 0.0015748 60.773 167.78 0.41710 1.4999 2.0955 1592.6 -0.0067731 337.20 0.16790
-43.625 10056. undefined 62.275 171.46 0.42366 635.00 0.0015748 62.275 171.46 0.42366 1.5032 2.0969 1594.5 -0.0067719 336.62 0.16809 635.00 0.0015748 62.275 171.46 0.42366 1.5032 2.0969 1594.5 -0.0067719 336.62 0.16809
-42.625 10255. undefined 63.780 175.13 0.43020 635.00 0.0015748 63.780 175.13 0.43020 1.5066 2.0984 1596.4 -0.0067705 336.06 0.16828 635.00 0.0015748 63.780 175.13 0.43020 1.5066 2.0984 1596.4 -0.0067705 336.06 0.16828
-41.625 10455. undefined 65.288 178.81 0.43673 635.00 0.0015748 65.288 178.81 0.43673 1.5101 2.1000 1598.2 -0.0067689 335.50 0.16847 635.00 0.0015748 65.288 178.81 0.43673 1.5101 2.1000 1598.2 -0.0067689 335.50 0.16847
-40.625 10654. undefined 66.800 182.48 0.44325 635.00 0.0015748 66.800 182.48 0.44325 1.5135 2.1016 1600.1 -0.0067672 334.94 0.16866 635.00 0.0015748 66.800 182.48 0.44325 1.5135 2.1016 1600.1 -0.0067672 334.94 0.16866
-39.625 10853. undefined 68.315 186.15 0.44975 635.00 0.0015748 68.315 186.15 0.44975 1.5169 2.1032 1602.0 -0.0067654 334.39 0.16886 635.00 0.0015748 68.315 186.15 0.44975 1.5169 2.1032 1602.0 -0.0067654 334.39 0.16886
-38.625 11051. undefined 69.834 189.82 0.45624 635.00 0.0015748 69.834 189.82 0.45624 1.5204 2.1048 1603.8 -0.0067634 333.85 0.16905 635.00 0.0015748 69.834 189.82 0.45624 1.5204 2.1048 1603.8 -0.0067634 333.85 0.16905
-37.625 11249. undefined 71.356 193.50 0.46271 635.00 0.0015748 71.356 193.50 0.46271 1.5239 2.1065 1605.6 -0.0067613 333.32 0.16924 635.00 0.0015748 71.356 193.50 0.46271 1.5239 2.1065 1605.6 -0.0067613 333.32 0.16924
-36.625 11447. undefined 72.881 197.17 0.46918 635.00 0.0015748 72.881 197.17 0.46918 1.5274 2.1082 1607.5 -0.0067590 332.79 0.16943 635.00 0.0015748 72.881 197.17 0.46918 1.5274 2.1082 1607.5 -0.0067590 332.79 0.16943
-35.625 11644. undefined 74.411 200.84 0.47563 635.00 0.0015748 74.411 200.84 0.47563 1.5309 2.1100 1609.3 -0.0067566 332.27 0.16963 635.00 0.0015748 74.411 200.84 0.47563 1.5309 2.1100 1609.3 -0.0067566 332.27 0.16963
-34.625 11841. undefined 75.943 204.51 0.48207 635.00 0.0015748 75.943 204.51 0.48207 1.5344 2.1117 1611.1 -0.0067541 331.75 0.16982 635.00 0.0015748 75.943 204.51 0.48207 1.5344 2.1117 1611.1 -0.0067541 331.75 0.16982
-33.625 12037. undefined 77.479 208.18 0.48850 635.00 0.0015748 77.479 208.18 0.48850 1.5379 2.1135 1612.9 -0.0067514 331.24 0.17002 635.00 0.0015748 77.479 208.18 0.48850 1.5379 2.1135 1612.9 -0.0067514 331.24 0.17002
-32.625 12234. undefined 79.019 211.85 0.49491 635.00 0.0015748 79.019 211.85 0.49491 1.5415 2.1154 1614.6 -0.0067486 330.74 0.17021 635.00 0.0015748 79.019 211.85 0.49491 1.5415 2.1154 1614.6 -0.0067486 330.74 0.17021
-31.625 12430. undefined 80.562 215.52 0.50131 635.00 0.0015748 80.562 215.52 0.50131 1.5451 2.1173 1616.4 -0.0067457 330.24 0.17041 635.00 0.0015748 80.562 215.52 0.50131 1.5451 2.1173 1616.4 -0.0067457 330.24 0.17041
-30.625 12625. undefined 82.109 219.19 0.50770 635.00 0.0015748 82.109 219.19 0.50770 1.5487 2.1192 1618.2 -0.0067426 329.75 0.17060 635.00 0.0015748 82.109 219.19 0.50770 1.5487 2.1192 1618.2 -0.0067426 329.75 0.17060
-29.625 12820. undefined 83.660 222.86 0.51408 635.00 0.0015748 83.660 222.86 0.51408 1.5523 2.1211 1619.9 -0.0067394 329.26 0.17080 635.00 0.0015748 83.660 222.86 0.51408 1.5523 2.1211 1619.9 -0.0067394 329.26 0.17080
-28.625 13015. undefined 85.214 226.53 0.52045 635.00 0.0015748 85.214 226.53 0.52045 1.5559 2.1231 1621.7 -0.0067361 328.78 0.17099 635.00 0.0015748 85.214 226.53 0.52045 1.5559 2.1231 1621.7 -0.0067361 328.78 0.17099
-27.625 13210. undefined 86.771 230.20 0.52681 635.00 0.0015748 86.771 230.20 0.52681 1.5595 2.1251 1623.4 -0.0067327 328.30 0.17119 635.00 0.0015748 86.771 230.20 0.52681 1.5595 2.1251 1623.4 -0.0067327 328.30 0.17119
-26.625 13404. undefined 88.333 233.87 0.53316 635.00 0.0015748 88.333 233.87 0.53316 1.5632 2.1271 1625.1 -0.0067292 327.83 0.17138 635.00 0.0015748 88.333 233.87 0.53316 1.5632 2.1271 1625.1 -0.0067292 327.83 0.17138
-25.625 13598. undefined 89.898 237.54 0.53949 635.00 0.0015748 89.898 237.54 0.53949 1.5668 2.1291 1626.8 -0.0067255 327.37 0.17158 635.00 0.0015748 89.898 237.54 0.53949 1.5668 2.1291 1626.8 -0.0067255 327.37 0.17158
-24.625 13792. undefined 91.466 241.21 0.54582 635.00 0.0015748 91.466 241.21 0.54582 1.5705 2.1312 1628.5 -0.0067217 326.91 0.17178 635.00 0.0015748 91.466 241.21 0.54582 1.5705 2.1312 1628.5 -0.0067217 326.91 0.17178
-23.625 13985. undefined 93.039 244.88 0.55213 635.00 0.0015748 93.039 244.88 0.55213 1.5742 2.1333 1630.2 -0.0067178 326.46 0.17198 635.00 0.0015748 93.039 244.88 0.55213 1.5742 2.1333 1630.2 -0.0067178 326.46 0.17198
-22.625 14178. undefined 94.615 248.55 0.55843 635.00 0.0015748 94.615 248.55 0.55843 1.5779 2.1355 1631.9 -0.0067138 326.01 0.17217 635.00 0.0015748 94.615 248.55 0.55843 1.5779 2.1355 1631.9 -0.0067138 326.01 0.17217
-21.625 14370. undefined 96.195 252.22 0.56473 635.00 0.0015748 96.195 252.22 0.56473 1.5816 2.1376 1633.6 -0.0067097 325.56 0.17237 635.00 0.0015748 96.195 252.22 0.56473 1.5816 2.1376 1633.6 -0.0067097 325.56 0.17237
-20.625 14562. undefined 97.778 255.90 0.57101 635.00 0.0015748 97.778 255.90 0.57101 1.5854 2.1398 1635.3 -0.0067055 325.12 0.17257 635.00 0.0015748 97.778 255.90 0.57101 1.5854 2.1398 1635.3 -0.0067055 325.12 0.17257
-19.625 14754. undefined 99.365 259.57 0.57728 635.00 0.0015748 99.365 259.57 0.57728 1.5891 2.1420 1636.9 -0.0067011 324.69 0.17277 635.00 0.0015748 99.365 259.57 0.57728 1.5891 2.1420 1636.9 -0.0067011 324.69 0.17277
-18.625 14946. undefined 100.96 263.24 0.58355 635.00 0.0015748 100.96 263.24 0.58355 1.5929 2.1443 1638.6 -0.0066967 324.26 0.17297 635.00 0.0015748 100.96 263.24 0.58355 1.5929 2.1443 1638.6 -0.0066967 324.26 0.17297
-17.625 15137. undefined 102.55 266.91 0.58980 635.00 0.0015748 102.55 266.91 0.58980 1.5966 2.1466 1640.2 -0.0066922 323.84 0.17316 635.00 0.0015748 102.55 266.91 0.58980 1.5966 2.1466 1640.2 -0.0066922 323.84 0.17316
-16.625 15328. undefined 104.15 270.58 0.59604 635.00 0.0015748 104.15 270.58 0.59604 1.6004 2.1489 1641.8 -0.0066875 323.42 0.17336 635.00 0.0015748 104.15 270.58 0.59604 1.6004 2.1489 1641.8 -0.0066875 323.42 0.17336
-15.625 15519. undefined 105.75 274.25 0.60228 635.00 0.0015748 105.75 274.25 0.60228 1.6042 2.1512 1643.5 -0.0066828 323.00 0.17356 635.00 0.0015748 105.75 274.25 0.60228 1.6042 2.1512 1643.5 -0.0066828 323.00 0.17356
-14.625 15709. undefined 107.36 277.93 0.60850 635.00 0.0015748 107.36 277.93 0.60850 1.6080 2.1535 1645.1 -0.0066780 322.59 0.17376 635.00 0.0015748 107.36 277.93 0.60850 1.6080 2.1535 1645.1 -0.0066780 322.59 0.17376
-13.625 15899. undefined 108.97 281.60 0.61472 635.00 0.0015748 108.97 281.60 0.61472 1.6119 2.1559 1646.7 -0.0066730 322.19 0.17396 635.00 0.0015748 108.97 281.60 0.61472 1.6119 2.1559 1646.7 -0.0066730 322.19 0.17396
-12.625 16089. undefined 110.58 285.27 0.62092 635.00 0.0015748 110.58 285.27 0.62092 1.6157 2.1583 1648.3 -0.0066680 321.79 0.17416 635.00 0.0015748 110.58 285.27 0.62092 1.6157 2.1583 1648.3 -0.0066680 321.79 0.17416
-11.625 16278. undefined 112.20 288.95 0.62712 635.00 0.0015748 112.20 288.95 0.62712 1.6196 2.1607 1649.9 -0.0066629 321.39 0.17436 635.00 0.0015748 112.20 288.95 0.62712 1.6196 2.1607 1649.9 -0.0066629 321.39 0.17436
-10.625 16467. undefined 113.82 292.62 0.63331 635.00 0.0015748 113.82 292.62 0.63331 1.6234 2.1632 1651.5 -0.0066577 321.00 0.17457 635.00 0.0015748 113.82 292.62 0.63331 1.6234 2.1632 1651.5 -0.0066577 321.00 0.17457
-9.6250 16656. undefined 115.45 296.30 0.63949 635.00 0.0015748 115.45 296.30 0.63949 1.6273 2.1657 1653.1 -0.0066525 320.61 0.17477 635.00 0.0015748 115.45 296.30 0.63949 1.6273 2.1657 1653.1 -0.0066525 320.61 0.17477
-8.6250 16845. undefined 117.08 299.97 0.64566 635.00 0.0015748 117.08 299.97 0.64566 1.6312 2.1681 1654.6 -0.0066471 320.23 0.17497 635.00 0.0015748 117.08 299.97 0.64566 1.6312 2.1681 1654.6 -0.0066471 320.23 0.17497
-7.6250 17033. undefined 118.71 303.65 0.65182 635.00 0.0015748 118.71 303.65 0.65182 1.6351 2.1707 1656.2 -0.0066417 319.85 0.17517 635.00 0.0015748 118.71 303.65 0.65182 1.6351 2.1707 1656.2 -0.0066417 319.85 0.17517
-6.6250 17221. undefined 120.35 307.33 0.65798 635.00 0.0015748 120.35 307.33 0.65798 1.6390 2.1732 1657.8 -0.0066361 319.48 0.17537 635.00 0.0015748 120.35 307.33 0.65798 1.6390 2.1732 1657.8 -0.0066361 319.48 0.17537
-5.6250 17408. undefined 121.99 311.00 0.66412 635.00 0.0015748 121.99 311.00 0.66412 1.6429 2.1758 1659.3 -0.0066305 319.11 0.17557 635.00 0.0015748 121.99 311.00 0.66412 1.6429 2.1758 1659.3 -0.0066305 319.11 0.17557
-4.6250 17596. undefined 123.63 314.68 0.67026 635.00 0.0015748 123.63 314.68 0.67026 1.6469 2.1784 1660.9 -0.0066248 318.74 0.17578 635.00 0.0015748 123.63 314.68 0.67026 1.6469 2.1784 1660.9 -0.0066248 318.74 0.17578
-3.6250 17783. undefined 125.28 318.36 0.67639 635.00 0.0015748 125.28 318.36 0.67639 1.6508 2.1810 1662.4 -0.0066191 318.38 0.17598 635.00 0.0015748 125.28 318.36 0.67639 1.6508 2.1810 1662.4 -0.0066191 318.38 0.17598
-2.6250 17969. undefined 126.93 322.04 0.68251 635.00 0.0015748 126.93 322.04 0.68251 1.6548 2.1836 1663.9 -0.0066133 318.02 0.17618 635.00 0.0015748 126.93 322.04 0.68251 1.6548 2.1836 1663.9 -0.0066133 318.02 0.17618
-1.6250 18156. undefined 128.59 325.72 0.68862 635.00 0.0015748 128.59 325.72 0.68862 1.6587 2.1863 1665.5 -0.0066073 317.66 0.17639 635.00 0.0015748 128.59 325.72 0.68862 1.6587 2.1863 1665.5 -0.0066073 317.66 0.17639
-0.62500 18342. undefined 130.25 329.40 0.69473 635.00 0.0015748 130.25 329.40 0.69473 1.6627 2.1889 1667.0 -0.0066014 317.31 0.17659 635.00 0.0015748 130.25 329.40 0.69473 1.6627 2.1889 1667.0 -0.0066014 317.31 0.17659
0.37500 18527. undefined 131.92 333.08 0.70082 635.00 0.0015748 131.92 333.08 0.70082 1.6667 2.1916 1668.5 -0.0065953 316.96 0.17680 635.00 0.0015748 131.92 333.08 0.70082 1.6667 2.1916 1668.5 -0.0065953 316.96 0.17680
1.3750 18713. undefined 133.58 336.77 0.70691 635.00 0.0015748 133.58 336.77 0.70691 1.6707 2.1943 1670.0 -0.0065892 316.62 0.17700 635.00 0.0015748 133.58 336.77 0.70691 1.6707 2.1943 1670.0 -0.0065892 316.62 0.17700
2.3750 18898. undefined 135.26 340.45 0.71299 635.00 0.0015748 135.26 340.45 0.71299 1.6747 2.1971 1671.5 -0.0065830 316.28 0.17720 635.00 0.0015748 135.26 340.45 0.71299 1.6747 2.1971 1671.5 -0.0065830 316.28 0.17720
3.3750 19083. undefined 136.93 344.14 0.71907 635.00 0.0015748 136.93 344.14 0.71907 1.6787 2.1998 1673.0 -0.0065768 315.94 0.17741 635.00 0.0015748 136.93 344.14 0.71907 1.6787 2.1998 1673.0 -0.0065768 315.94 0.17741
4.3750 19268. undefined 138.61 347.82 0.72514 635.00 0.0015748 138.61 347.82 0.72514 1.6827 2.2026 1674.5 -0.0065705 315.61 0.17762 635.00 0.0015748 138.61 347.82 0.72514 1.6827 2.2026 1674.5 -0.0065705 315.61 0.17762
5.3750 19452. undefined 140.30 351.51 0.73120 635.00 0.0015748 140.30 351.51 0.73120 1.6868 2.2054 1676.0 -0.0065641 315.28 0.17782 635.00 0.0015748 140.30 351.51 0.73120 1.6868 2.2054 1676.0 -0.0065641 315.28 0.17782
6.3750 19636. undefined 141.99 355.19 0.73725 635.00 0.0015748 141.99 355.19 0.73725 1.6908 2.2082 1677.5 -0.0065577 314.96 0.17803 635.00 0.0015748 141.99 355.19 0.73725 1.6908 2.2082 1677.5 -0.0065577 314.96 0.17803
7.3750 19820. undefined 143.68 358.88 0.74329 635.00 0.0015748 143.68 358.88 0.74329 1.6949 2.2110 1678.9 -0.0065512 314.63 0.17823 635.00 0.0015748 143.68 358.88 0.74329 1.6949 2.2110 1678.9 -0.0065512 314.63 0.17823
8.3750 20003. undefined 145.38 362.57 0.74933 635.00 0.0015748 145.38 362.57 0.74933 1.6989 2.2139 1680.4 -0.0065446 314.32 0.17844 635.00 0.0015748 145.38 362.57 0.74933 1.6989 2.2139 1680.4 -0.0065446 314.32 0.17844
9.3750 20187. undefined 147.08 366.26 0.75536 635.00 0.0015748 147.08 366.26 0.75536 1.7030 2.2168 1681.9 -0.0065380 314.00 0.17865 635.00 0.0015748 147.08 366.26 0.75536 1.7030 2.2168 1681.9 -0.0065380 314.00 0.17865
10.375 20370. undefined 148.78 369.95 0.76139 635.00 0.0015748 148.78 369.95 0.76139 1.7071 2.2196 1683.3 -0.0065314 313.69 0.17885 635.00 0.0015748 148.78 369.95 0.76139 1.7071 2.2196 1683.3 -0.0065314 313.69 0.17885
11.375 20552. undefined 150.49 373.65 0.76741 635.00 0.0015748 150.49 373.65 0.76741 1.7112 2.2226 1684.8 -0.0065246 313.38 0.17906 635.00 0.0015748 150.49 373.65 0.76741 1.7112 2.2226 1684.8 -0.0065246 313.38 0.17906
12.375 20735. undefined 152.21 377.34 0.77342 635.00 0.0015748 152.21 377.34 0.77342 1.7153 2.2255 1686.2 -0.0065179 313.07 0.17927 635.00 0.0015748 152.21 377.34 0.77342 1.7153 2.2255 1686.2 -0.0065179 313.07 0.17927
13.375 20917. undefined 153.92 381.03 0.77942 635.00 0.0015748 153.92 381.03 0.77942 1.7194 2.2284 1687.7 -0.0065111 312.77 0.17948 635.00 0.0015748 153.92 381.03 0.77942 1.7194 2.2284 1687.7 -0.0065111 312.77 0.17948
14.375 21099. undefined 155.64 384.73 0.78542 635.00 0.0015748 155.64 384.73 0.78542 1.7235 2.2314 1689.1 -0.0065042 312.47 0.17968 635.00 0.0015748 155.64 384.73 0.78542 1.7235 2.2314 1689.1 -0.0065042 312.47 0.17968
15.375 21280. undefined 157.37 388.43 0.79141 635.00 0.0015748 157.37 388.43 0.79141 1.7276 2.2343 1690.5 -0.0064973 312.18 0.17989 635.00 0.0015748 157.37 388.43 0.79141 1.7276 2.2343 1690.5 -0.0064973 312.18 0.17989
16.375 21461. undefined 159.10 392.13 0.79739 635.00 0.0015748 159.10 392.13 0.79739 1.7318 2.2373 1692.0 -0.0064903 311.88 0.18010 635.00 0.0015748 159.10 392.13 0.79739 1.7318 2.2373 1692.0 -0.0064903 311.88 0.18010
17.375 21642. undefined 160.83 395.83 0.80337 635.00 0.0015748 160.83 395.83 0.80337 1.7359 2.2403 1693.4 -0.0064833 311.59 0.18031 635.00 0.0015748 160.83 395.83 0.80337 1.7359 2.2403 1693.4 -0.0064833 311.59 0.18031
18.375 21823. undefined 162.57 399.53 0.80934 635.00 0.0015748 162.57 399.53 0.80934 1.7400 2.2434 1694.8 -0.0064763 311.30 0.18052 635.00 0.0015748 162.57 399.53 0.80934 1.7400 2.2434 1694.8 -0.0064763 311.30 0.18052
19.375 22004. undefined 164.31 403.23 0.81531 635.00 0.0015748 164.31 403.23 0.81531 1.7442 2.2464 1696.2 -0.0064692 311.02 0.18073 635.00 0.0015748 164.31 403.23 0.81531 1.7442 2.2464 1696.2 -0.0064692 311.02 0.18073
20.375 22184. undefined 166.06 406.93 0.82127 635.00 0.0015748 166.06 406.93 0.82127 1.7483 2.2494 1697.6 -0.0064620 310.74 0.18094 635.00 0.0015748 166.06 406.93 0.82127 1.7483 2.2494 1697.6 -0.0064620 310.74 0.18094
21.375 22364. undefined 167.81 410.64 0.82722 635.00 0.0015748 167.81 410.64 0.82722 1.7525 2.2525 1699.0 -0.0064549 310.46 0.18115 635.00 0.0015748 167.81 410.64 0.82722 1.7525 2.2525 1699.0 -0.0064549 310.46 0.18115
22.375 22544. undefined 169.57 414.34 0.83317 635.00 0.0015748 169.57 414.34 0.83317 1.7567 2.2556 1700.4 -0.0064477 310.19 0.18136 635.00 0.0015748 169.57 414.34 0.83317 1.7567 2.2556 1700.4 -0.0064477 310.19 0.18136
23.375 22723. undefined 171.32 418.05 0.83911 635.00 0.0015748 171.32 418.05 0.83911 1.7609 2.2587 1701.8 -0.0064404 309.91 0.18157 635.00 0.0015748 171.32 418.05 0.83911 1.7609 2.2587 1701.8 -0.0064404 309.91 0.18157
24.375 22902. undefined 173.09 421.76 0.84505 635.00 0.0015748 173.09 421.76 0.84505 1.7650 2.2618 1703.2 -0.0064331 309.64 0.18178 635.00 0.0015748 173.09 421.76 0.84505 1.7650 2.2618 1703.2 -0.0064331 309.64 0.18178
25.375 23081. undefined 174.85 425.47 0.85098 635.00 0.0015748 174.85 425.47 0.85098 1.7692 2.2649 1704.6 -0.0064258 309.38 0.18200 635.00 0.0015748 174.85 425.47 0.85098 1.7692 2.2649 1704.6 -0.0064258 309.38 0.18200
26.375 23260. undefined 176.63 429.18 0.85690 635.00 0.0015748 176.63 429.18 0.85690 1.7734 2.2681 1706.0 -0.0064185 309.11 0.18221 635.00 0.0015748 176.63 429.18 0.85690 1.7734 2.2681 1706.0 -0.0064185 309.11 0.18221
27.375 23438. undefined 178.40 432.89 0.86282 635.00 0.0015748 178.40 432.89 0.86282 1.7776 2.2712 1707.4 -0.0064111 308.85 0.18242 635.00 0.0015748 178.40 432.89 0.86282 1.7776 2.2712 1707.4 -0.0064111 308.85 0.18242
28.375 23616. undefined 180.18 436.61 0.86873 635.00 0.0015748 180.18 436.61 0.86873 1.7818 2.2744 1708.7 -0.0064036 308.59 0.18263 635.00 0.0015748 180.18 436.61 0.86873 1.7818 2.2744 1708.7 -0.0064036 308.59 0.18263
29.375 23794. undefined 181.96 440.32 0.87464 635.00 0.0015748 181.96 440.32 0.87464 1.7861 2.2776 1710.1 -0.0063962 308.33 0.18284 635.00 0.0015748 181.96 440.32 0.87464 1.7861 2.2776 1710.1 -0.0063962 308.33 0.18284
30.375 23972. undefined 183.75 444.04 0.88054 635.00 0.0015748 183.75 444.04 0.88054 1.7903 2.2807 1711.5 -0.0063887 308.08 0.18306 635.00 0.0015748 183.75 444.04 0.88054 1.7903 2.2807 1711.5 -0.0063887 308.08 0.18306
31.375 24149. undefined 185.55 447.76 0.88643 635.00 0.0015748 185.55 447.76 0.88643 1.7945 2.2840 1712.8 -0.0063812 307.83 0.18327 635.00 0.0015748 185.55 447.76 0.88643 1.7945 2.2840 1712.8 -0.0063812 307.83 0.18327
32.375 24327. undefined 187.34 451.48 0.89232 635.00 0.0015748 187.34 451.48 0.89232 1.7987 2.2872 1714.2 -0.0063737 307.58 0.18348 635.00 0.0015748 187.34 451.48 0.89232 1.7987 2.2872 1714.2 -0.0063737 307.58 0.18348
33.375 24503. undefined 189.14 455.20 0.89821 635.00 0.0015748 189.14 455.20 0.89821 1.8030 2.2904 1715.5 -0.0063661 307.33 0.18370 635.00 0.0015748 189.14 455.20 0.89821 1.8030 2.2904 1715.5 -0.0063661 307.33 0.18370
34.375 24680. undefined 190.95 458.92 0.90409 635.00 0.0015748 190.95 458.92 0.90409 1.8072 2.2936 1716.9 -0.0063585 307.09 0.18391 635.00 0.0015748 190.95 458.92 0.90409 1.8072 2.2936 1716.9 -0.0063585 307.09 0.18391
35.375 24856. undefined 192.76 462.65 0.90996 635.00 0.0015748 192.76 462.65 0.90996 1.8114 2.2969 1718.2 -0.0063509 306.85 0.18413 635.00 0.0015748 192.76 462.65 0.90996 1.8114 2.2969 1718.2 -0.0063509 306.85 0.18413
36.375 25033. undefined 194.57 466.37 0.91583 635.00 0.0015748 194.57 466.37 0.91583 1.8157 2.3002 1719.6 -0.0063432 306.61 0.18434 635.00 0.0015748 194.57 466.37 0.91583 1.8157 2.3002 1719.6 -0.0063432 306.61 0.18434
37.375 25209. undefined 196.39 470.10 0.92169 635.00 0.0015748 196.39 470.10 0.92169 1.8199 2.3034 1720.9 -0.0063356 306.37 0.18456 635.00 0.0015748 196.39 470.10 0.92169 1.8199 2.3034 1720.9 -0.0063356 306.37 0.18456
38.375 25384. undefined 198.21 473.83 0.92755 635.00 0.0015748 198.21 473.83 0.92755 1.8242 2.3067 1722.2 -0.0063279 306.14 0.18477 635.00 0.0015748 198.21 473.83 0.92755 1.8242 2.3067 1722.2 -0.0063279 306.14 0.18477
39.375 25560. undefined 200.04 477.56 0.93340 635.00 0.0015748 200.04 477.56 0.93340 1.8285 2.3100 1723.6 -0.0063202 305.90 0.18499 635.00 0.0015748 200.04 477.56 0.93340 1.8285 2.3100 1723.6 -0.0063202 305.90 0.18499
40.375 25735. undefined 201.87 481.29 0.93925 635.00 0.0015748 201.87 481.29 0.93925 1.8327 2.3133 1724.9 -0.0063125 305.67 0.18520 635.00 0.0015748 201.87 481.29 0.93925 1.8327 2.3133 1724.9 -0.0063125 305.67 0.18520
41.375 25910. undefined 203.70 485.03 0.94510 635.00 0.0015748 203.70 485.03 0.94510 1.8370 2.3166 1726.2 -0.0063047 305.45 0.18542 635.00 0.0015748 203.70 485.03 0.94510 1.8370 2.3166 1726.2 -0.0063047 305.45 0.18542
42.375 26084. undefined 205.54 488.76 0.95093 635.00 0.0015748 205.54 488.76 0.95093 1.8413 2.3200 1727.5 -0.0062970 305.22 0.18564 635.00 0.0015748 205.54 488.76 0.95093 1.8413 2.3200 1727.5 -0.0062970 305.22 0.18564
43.375 26259. undefined 207.38 492.50 0.95677 635.00 0.0015748 207.38 492.50 0.95677 1.8456 2.3233 1728.9 -0.0062892 305.00 0.18585 635.00 0.0015748 207.38 492.50 0.95677 1.8456 2.3233 1728.9 -0.0062892 305.00 0.18585
44.375 26433. undefined 209.23 496.24 0.96259 635.00 0.0015748 209.23 496.24 0.96259 1.8498 2.3267 1730.2 -0.0062814 304.78 0.18607 635.00 0.0015748 209.23 496.24 0.96259 1.8498 2.3267 1730.2 -0.0062814 304.78 0.18607
45.375 26607. undefined 211.08 499.98 0.96842 635.00 0.0015748 211.08 499.98 0.96842 1.8541 2.3300 1731.5 -0.0062736 304.56 0.18629 635.00 0.0015748 211.08 499.98 0.96842 1.8541 2.3300 1731.5 -0.0062736 304.56 0.18629
46.375 26781. undefined 212.94 503.73 0.97424 635.00 0.0015748 212.94 503.73 0.97424 1.8584 2.3334 1732.8 -0.0062657 304.34 0.18650 635.00 0.0015748 212.94 503.73 0.97424 1.8584 2.3334 1732.8 -0.0062657 304.34 0.18650
47.375 26954. undefined 214.80 507.47 0.98005 635.00 0.0015748 214.80 507.47 0.98005 1.8627 2.3368 1734.1 -0.0062579 304.13 0.18672 635.00 0.0015748 214.80 507.47 0.98005 1.8627 2.3368 1734.1 -0.0062579 304.13 0.18672
48.375 27128. undefined 216.67 511.22 0.98586 635.00 0.0015748 216.67 511.22 0.98586 1.8670 2.3402 1735.4 -0.0062500 303.91 0.18694 635.00 0.0015748 216.67 511.22 0.98586 1.8670 2.3402 1735.4 -0.0062500 303.91 0.18694
49.375 27301. undefined 218.54 514.96 0.99166 635.00 0.0015748 218.54 514.96 0.99166 1.8713 2.3436 1736.7 -0.0062422 303.70 0.18716 635.00 0.0015748 218.54 514.96 0.99166 1.8713 2.3436 1736.7 -0.0062422 303.70 0.18716
50.375 27474. undefined 220.41 518.71 0.99746 635.00 0.0015748 220.41 518.71 0.99746 1.8756 2.3470 1738.0 -0.0062343 303.50 0.18738 635.00 0.0015748 220.41 518.71 0.99746 1.8756 2.3470 1738.0 -0.0062343 303.50 0.18738
51.375 27646. undefined 222.29 522.47 1.0033 635.00 0.0015748 222.29 522.47 1.0033 1.8799 2.3504 1739.3 -0.0062264 303.29 0.18760 635.00 0.0015748 222.29 522.47 1.0033 1.8799 2.3504 1739.3 -0.0062264 303.29 0.18760
52.375 27819. undefined 224.17 526.22 1.0090 635.00 0.0015748 224.17 526.22 1.0090 1.8842 2.3538 1740.6 -0.0062185 303.08 0.18782 635.00 0.0015748 224.17 526.22 1.0090 1.8842 2.3538 1740.6 -0.0062185 303.08 0.18782
53.375 27991. undefined 226.05 529.98 1.0148 635.00 0.0015748 226.05 529.98 1.0148 1.8885 2.3572 1741.8 -0.0062106 302.88 0.18804 635.00 0.0015748 226.05 529.98 1.0148 1.8885 2.3572 1741.8 -0.0062106 302.88 0.18804
54.375 28163. undefined 227.95 533.73 1.0206 635.00 0.0015748 227.95 533.73 1.0206 1.8928 2.3607 1743.1 -0.0062027 302.68 0.18826 635.00 0.0015748 227.95 533.73 1.0206 1.8928 2.3607 1743.1 -0.0062027 302.68 0.18826
55.375 28334. undefined 229.84 537.49 1.0264 635.00 0.0015748 229.84 537.49 1.0264 1.8971 2.3641 1744.4 -0.0061947 302.48 0.18848 635.00 0.0015748 229.84 537.49 1.0264 1.8971 2.3641 1744.4 -0.0061947 302.48 0.18848
56.375 28506. undefined 231.74 541.25 1.0322 635.00 0.0015748 231.74 541.25 1.0322 1.9014 2.3676 1745.7 -0.0061868 302.29 0.18870 635.00 0.0015748 231.74 541.25 1.0322 1.9014 2.3676 1745.7 -0.0061868 302.29 0.18870
57.375 28677. undefined 233.64 545.02 1.0379 635.00 0.0015748 233.64 545.02 1.0379 1.9057 2.3710 1746.9 -0.0061788 302.09 0.18892 635.00 0.0015748 233.64 545.02 1.0379 1.9057 2.3710 1746.9 -0.0061788 302.09 0.18892
58.375 28848. undefined 235.55 548.78 1.0437 635.00 0.0015748 235.55 548.78 1.0437 1.9101 2.3745 1748.2 -0.0061709 301.90 0.18914 635.00 0.0015748 235.55 548.78 1.0437 1.9101 2.3745 1748.2 -0.0061709 301.90 0.18914
59.375 29019. undefined 237.46 552.55 1.0495 635.00 0.0015748 237.46 552.55 1.0495 1.9144 2.3780 1749.5 -0.0061629 301.71 0.18936 635.00 0.0015748 237.46 552.55 1.0495 1.9144 2.3780 1749.5 -0.0061629 301.71 0.18936
60.375 29190. undefined 239.38 556.32 1.0552 635.00 0.0015748 239.38 556.32 1.0552 1.9187 2.3815 1750.7 -0.0061550 301.52 0.18958 635.00 0.0015748 239.38 556.32 1.0552 1.9187 2.3815 1750.7 -0.0061550 301.52 0.18958
61.375 29360. undefined 241.30 560.09 1.0610 635.00 0.0015748 241.30 560.09 1.0610 1.9230 2.3850 1752.0 -0.0061470 301.33 0.18980 635.00 0.0015748 241.30 560.09 1.0610 1.9230 2.3850 1752.0 -0.0061470 301.33 0.18980
62.375 29530. undefined 243.23 563.86 1.0667 635.00 0.0015748 243.23 563.86 1.0667 1.9273 2.3885 1753.3 -0.0061391 301.14 0.19003 635.00 0.0015748 243.23 563.86 1.0667 1.9273 2.3885 1753.3 -0.0061391 301.14 0.19003
63.375 29700. undefined 245.16 567.64 1.0725 635.00 0.0015748 245.16 567.64 1.0725 1.9317 2.3920 1754.5 -0.0061311 300.96 0.19025 635.00 0.0015748 245.16 567.64 1.0725 1.9317 2.3920 1754.5 -0.0061311 300.96 0.19025
64.375 29870. undefined 247.09 571.41 1.0782 635.00 0.0015748 247.09 571.41 1.0782 1.9360 2.3955 1755.8 -0.0061231 300.78 0.19047 635.00 0.0015748 247.09 571.41 1.0782 1.9360 2.3955 1755.8 -0.0061231 300.78 0.19047
65.375 30039. undefined 249.03 575.19 1.0839 635.00 0.0015748 249.03 575.19 1.0839 1.9403 2.3990 1757.0 -0.0061151 300.60 0.19070 635.00 0.0015748 249.03 575.19 1.0839 1.9403 2.3990 1757.0 -0.0061151 300.60 0.19070
66.375 30209. undefined 250.97 578.97 1.0897 635.00 0.0015748 250.97 578.97 1.0897 1.9446 2.4025 1758.2 -0.0061072 300.42 0.19092 635.00 0.0015748 250.97 578.97 1.0897 1.9446 2.4025 1758.2 -0.0061072 300.42 0.19092
67.375 30378. undefined 252.92 582.75 1.0954 635.00 0.0015748 252.92 582.75 1.0954 1.9490 2.4061 1759.5 -0.0060992 300.24 0.19114 635.00 0.0015748 252.92 582.75 1.0954 1.9490 2.4061 1759.5 -0.0060992 300.24 0.19114
68.375 30547. undefined 254.87 586.54 1.1011 635.00 0.0015748 254.87 586.54 1.1011 1.9533 2.4096 1760.7 -0.0060912 300.06 0.19137 635.00 0.0015748 254.87 586.54 1.1011 1.9533 2.4096 1760.7 -0.0060912 300.06 0.19137
69.375 30715. undefined 256.82 590.33 1.1068 635.00 0.0015748 256.82 590.33 1.1068 1.9576 2.4131 1762.0 -0.0060832 299.89 0.19159 635.00 0.0015748 256.82 590.33 1.1068 1.9576 2.4131 1762.0 -0.0060832 299.89 0.19159
70.375 30884. undefined 258.78 594.11 1.1125 635.00 0.0015748 258.78 594.11 1.1125 1.9620 2.4167 1763.2 -0.0060752 299.72 0.19182 635.00 0.0015748 258.78 594.11 1.1125 1.9620 2.4167 1763.2 -0.0060752 299.72 0.19182
71.375 31052. undefined 260.75 597.91 1.1182 635.00 0.0015748 260.75 597.91 1.1182 1.9663 2.4202 1764.4 -0.0060673 299.55 0.19204 635.00 0.0015748 260.75 597.91 1.1182 1.9663 2.4202 1764.4 -0.0060673 299.55 0.19204
72.375 31220. undefined 262.72 601.70 1.1239 635.00 0.0015748 262.72 601.70 1.1239 1.9706 2.4238 1765.7 -0.0060593 299.38 0.19227 635.00 0.0015748 262.72 601.70 1.1239 1.9706 2.4238 1765.7 -0.0060593 299.38 0.19227
73.375 31388. undefined 264.69 605.49 1.1296 635.00 0.0015748 264.69 605.49 1.1296 1.9750 2.4274 1766.9 -0.0060513 299.21 0.19249 635.00 0.0015748 264.69 605.49 1.1296 1.9750 2.4274 1766.9 -0.0060513 299.21 0.19249
74.375 31555. undefined 266.67 609.29 1.1353 635.00 0.0015748 266.67 609.29 1.1353 1.9793 2.4309 1768.1 -0.0060434 299.04 0.19272 635.00 0.0015748 266.67 609.29 1.1353 1.9793 2.4309 1768.1 -0.0060434 299.04 0.19272
75.375 31723. undefined 268.65 613.09 1.1410 635.00 0.0015748 268.65 613.09 1.1410 1.9836 2.4345 1769.3 -0.0060354 298.88 0.19294 635.00 0.0015748 268.65 613.09 1.1410 1.9836 2.4345 1769.3 -0.0060354 298.88 0.19294
76.375 31890. undefined 270.63 616.89 1.1467 635.00 0.0015748 270.63 616.89 1.1467 1.9880 2.4381 1770.5 -0.0060274 298.72 0.19317 635.00 0.0015748 270.63 616.89 1.1467 1.9880 2.4381 1770.5 -0.0060274 298.72 0.19317
77.375 32057. undefined 272.62 620.69 1.1524 635.00 0.0015748 272.62 620.69 1.1524 1.9923 2.4417 1771.8 -0.0060195 298.55 0.19340 635.00 0.0015748 272.62 620.69 1.1524 1.9923 2.4417 1771.8 -0.0060195 298.55 0.19340
78.375 32224. undefined 274.62 624.50 1.1581 635.00 0.0015748 274.62 624.50 1.1581 1.9966 2.4453 1773.0 -0.0060115 298.39 0.19362 635.00 0.0015748 274.62 624.50 1.1581 1.9966 2.4453 1773.0 -0.0060115 298.39 0.19362
79.375 32390. undefined 276.62 628.31 1.1638 635.00 0.0015748 276.62 628.31 1.1638 2.0010 2.4488 1774.2 -0.0060036 298.24 0.19385 635.00 0.0015748 276.62 628.31 1.1638 2.0010 2.4488 1774.2 -0.0060036 298.24 0.19385
80.375 32557. undefined 278.62 632.12 1.1694 635.00 0.0015748 278.62 632.12 1.1694 2.0053 2.4524 1775.4 -0.0059956 298.08 0.19408 635.00 0.0015748 278.62 632.12 1.1694 2.0053 2.4524 1775.4 -0.0059956 298.08 0.19408
81.375 32723. undefined 280.63 635.93 1.1751 635.00 0.0015748 280.63 635.93 1.1751 2.0096 2.4560 1776.6 -0.0059877 297.92 0.19431 635.00 0.0015748 280.63 635.93 1.1751 2.0096 2.4560 1776.6 -0.0059877 297.92 0.19431
82.375 32889. undefined 282.64 639.74 1.1808 635.00 0.0015748 282.64 639.74 1.1808 2.0140 2.4596 1777.8 -0.0059798 297.77 0.19453 635.00 0.0015748 282.64 639.74 1.1808 2.0140 2.4596 1777.8 -0.0059798 297.77 0.19453
83.375 33055. undefined 284.65 643.56 1.1864 635.00 0.0015748 284.65 643.56 1.1864 2.0183 2.4633 1779.0 -0.0059718 297.61 0.19476 635.00 0.0015748 284.65 643.56 1.1864 2.0183 2.4633 1779.0 -0.0059718 297.61 0.19476
84.375 33220. undefined 286.68 647.38 1.1921 635.00 0.0015748 286.68 647.38 1.1921 2.0226 2.4669 1780.2 -0.0059639 297.46 0.19499 635.00 0.0015748 286.68 647.38 1.1921 2.0226 2.4669 1780.2 -0.0059639 297.46 0.19499
85.375 33386. undefined 288.70 651.20 1.1978 635.00 0.0015748 288.70 651.20 1.1978 2.0270 2.4705 1781.4 -0.0059560 297.31 0.19522 635.00 0.0015748 288.70 651.20 1.1978 2.0270 2.4705 1781.4 -0.0059560 297.31 0.19522
86.375 33551. undefined 290.73 655.02 1.2034 635.00 0.0015748 290.73 655.02 1.2034 2.0313 2.4741 1782.6 -0.0059481 297.16 0.19545 635.00 0.0015748 290.73 655.02 1.2034 2.0313 2.4741 1782.6 -0.0059481 297.16 0.19545
87.375 33716. undefined 292.76 658.85 1.2091 635.00 0.0015748 292.76 658.85 1.2091 2.0356 2.4777 1783.8 -0.0059402 297.02 0.19568 635.00 0.0015748 292.76 658.85 1.2091 2.0356 2.4777 1783.8 -0.0059402 297.02 0.19568
88.375 33881. undefined 294.80 662.67 1.2147 635.00 0.0015748 294.80 662.67 1.2147 2.0399 2.4813 1785.0 -0.0059323 296.87 0.19591 635.00 0.0015748 294.80 662.67 1.2147 2.0399 2.4813 1785.0 -0.0059323 296.87 0.19591
89.375 34045. undefined 296.84 666.50 1.2203 635.00 0.0015748 296.84 666.50 1.2203 2.0443 2.4850 1786.2 -0.0059245 296.73 0.19614 635.00 0.0015748 296.84 666.50 1.2203 2.0443 2.4850 1786.2 -0.0059245 296.73 0.19614
90.375 34210. undefined 298.89 670.33 1.2260 635.00 0.0015748 298.89 670.33 1.2260 2.0486 2.4886 1787.3 -0.0059166 296.58 0.19637 635.00 0.0015748 298.89 670.33 1.2260 2.0486 2.4886 1787.3 -0.0059166 296.58 0.19637
91.375 34374. undefined 300.94 674.17 1.2316 635.00 0.0015748 300.94 674.17 1.2316 2.0529 2.4922 1788.5 -0.0059088 296.44 0.19660 635.00 0.0015748 300.94 674.17 1.2316 2.0529 2.4922 1788.5 -0.0059088 296.44 0.19660
92.375 34538. undefined 302.99 678.00 1.2372 635.00 0.0015748 302.99 678.00 1.2372 2.0572 2.4959 1789.7 -0.0059009 296.30 0.19683 635.00 0.0015748 302.99 678.00 1.2372 2.0572 2.4959 1789.7 -0.0059009 296.30 0.19683
93.375 34702. undefined 305.05 681.84 1.2429 635.00 0.0015748 305.05 681.84 1.2429 2.0616 2.4995 1790.9 -0.0058931 296.16 0.19706 635.00 0.0015748 305.05 681.84 1.2429 2.0616 2.4995 1790.9 -0.0058931 296.16 0.19706
94.375 34865. undefined 307.12 685.68 1.2485 635.00 0.0015748 307.12 685.68 1.2485 2.0659 2.5031 1792.1 -0.0058852 296.02 0.19729 635.00 0.0015748 307.12 685.68 1.2485 2.0659 2.5031 1792.1 -0.0058852 296.02 0.19729
95.375 35029. undefined 309.19 689.53 1.2541 635.00 0.0015748 309.19 689.53 1.2541 2.0702 2.5068 1793.2 -0.0058774 295.88 0.19753 635.00 0.0015748 309.19 689.53 1.2541 2.0702 2.5068 1793.2 -0.0058774 295.88 0.19753
96.375 35192. undefined 311.26 693.37 1.2597 635.00 0.0015748 311.26 693.37 1.2597 2.0745 2.5104 1794.4 -0.0058696 295.75 0.19776 635.00 0.0015748 311.26 693.37 1.2597 2.0745 2.5104 1794.4 -0.0058696 295.75 0.19776
97.375 35355. undefined 313.33 697.22 1.2653 635.00 0.0015748 313.33 697.22 1.2653 2.0788 2.5141 1795.6 -0.0058618 295.61 0.19799 635.00 0.0015748 313.33 697.22 1.2653 2.0788 2.5141 1795.6 -0.0058618 295.61 0.19799
98.375 35518. undefined 315.42 701.07 1.2710 635.00 0.0015748 315.42 701.07 1.2710 2.0831 2.5177 1796.7 -0.0058541 295.48 0.19822 635.00 0.0015748 315.42 701.07 1.2710 2.0831 2.5177 1796.7 -0.0058541 295.48 0.19822
99.375 35681. undefined 317.50 704.92 1.2766 635.00 0.0015748 317.50 704.92 1.2766 2.0875 2.5214 1797.9 -0.0058463 295.35 0.19846 635.00 0.0015748 317.50 704.92 1.2766 2.0875 2.5214 1797.9 -0.0058463 295.35 0.19846
100.38 35843. undefined 319.59 708.77 1.2822 635.00 0.0015748 319.59 708.77 1.2822 2.0918 2.5250 1799.1 -0.0058385 295.21 0.19869 635.00 0.0015748 319.59 708.77 1.2822 2.0918 2.5250 1799.1 -0.0058385 295.21 0.19869
101.38 36006. undefined 321.68 712.63 1.2878 635.00 0.0015748 321.68 712.63 1.2878 2.0961 2.5287 1800.2 -0.0058308 295.08 0.19892 635.00 0.0015748 321.68 712.63 1.2878 2.0961 2.5287 1800.2 -0.0058308 295.08 0.19892
102.38 36168. undefined 323.78 716.49 1.2934 635.00 0.0015748 323.78 716.49 1.2934 2.1004 2.5324 1801.4 -0.0058231 294.96 0.19916 635.00 0.0015748 323.78 716.49 1.2934 2.1004 2.5324 1801.4 -0.0058231 294.96 0.19916
103.38 36330. undefined 325.89 720.35 1.2989 635.00 0.0015748 325.89 720.35 1.2989 2.1047 2.5360 1802.5 -0.0058153 294.83 0.19939 635.00 0.0015748 325.89 720.35 1.2989 2.1047 2.5360 1802.5 -0.0058153 294.83 0.19939
104.38 36492. undefined 327.99 724.21 1.3045 635.00 0.0015748 327.99 724.21 1.3045 2.1090 2.5397 1803.7 -0.0058076 294.70 0.19963 635.00 0.0015748 327.99 724.21 1.3045 2.1090 2.5397 1803.7 -0.0058076 294.70 0.19963
105.38 36653. undefined 330.10 728.08 1.3101 635.00 0.0015748 330.10 728.08 1.3101 2.1133 2.5433 1804.8 -0.0058000 294.58 0.19986 635.00 0.0015748 330.10 728.08 1.3101 2.1133 2.5433 1804.8 -0.0058000 294.58 0.19986
106.38 36815. undefined 332.22 731.95 1.3157 635.00 0.0015748 332.22 731.95 1.3157 2.1176 2.5470 1806.0 -0.0057923 294.45 0.20010 635.00 0.0015748 332.22 731.95 1.3157 2.1176 2.5470 1806.0 -0.0057923 294.45 0.20010
107.38 36976. undefined 334.34 735.82 1.3213 635.00 0.0015748 334.34 735.82 1.3213 2.1219 2.5507 1807.1 -0.0057846 294.33 0.20033 635.00 0.0015748 334.34 735.82 1.3213 2.1219 2.5507 1807.1 -0.0057846 294.33 0.20033
108.38 37137. undefined 336.46 739.69 1.3268 635.00 0.0015748 336.46 739.69 1.3268 2.1262 2.5543 1808.3 -0.0057770 294.21 0.20057 635.00 0.0015748 336.46 739.69 1.3268 2.1262 2.5543 1808.3 -0.0057770 294.21 0.20057
109.38 37298. undefined 338.59 743.56 1.3324 635.00 0.0015748 338.59 743.56 1.3324 2.1305 2.5580 1809.4 -0.0057693 294.08 0.20080 635.00 0.0015748 338.59 743.56 1.3324 2.1305 2.5580 1809.4 -0.0057693 294.08 0.20080
110.38 37458. undefined 340.72 747.44 1.3380 635.00 0.0015748 340.72 747.44 1.3380 2.1348 2.5617 1810.6 -0.0057617 293.96 0.20104 635.00 0.0015748 340.72 747.44 1.3380 2.1348 2.5617 1810.6 -0.0057617 293.96 0.20104
111.38 37619. undefined 342.86 751.32 1.3436 635.00 0.0015748 342.86 751.32 1.3436 2.1391 2.5653 1811.7 -0.0057541 293.84 0.20128 635.00 0.0015748 342.86 751.32 1.3436 2.1391 2.5653 1811.7 -0.0057541 293.84 0.20128
112.38 37779. undefined 345.00 755.20 1.3491 635.00 0.0015748 345.00 755.20 1.3491 2.1433 2.5690 1812.8 -0.0057465 293.73 0.20151 635.00 0.0015748 345.00 755.20 1.3491 2.1433 2.5690 1812.8 -0.0057465 293.73 0.20151
113.38 37939. undefined 347.15 759.09 1.3547 635.00 0.0015748 347.15 759.09 1.3547 2.1476 2.5727 1814.0 -0.0057389 293.61 0.20175 635.00 0.0015748 347.15 759.09 1.3547 2.1476 2.5727 1814.0 -0.0057389 293.61 0.20175
114.38 38099. undefined 349.30 762.98 1.3602 635.00 0.0015748 349.30 762.98 1.3602 2.1519 2.5763 1815.1 -0.0057314 293.49 0.20199 635.00 0.0015748 349.30 762.98 1.3602 2.1519 2.5763 1815.1 -0.0057314 293.49 0.20199
115.38 38259. undefined 351.45 766.86 1.3658 635.00 0.0015748 351.45 766.86 1.3658 2.1562 2.5800 1816.2 -0.0057238 293.38 0.20223 635.00 0.0015748 351.45 766.86 1.3658 2.1562 2.5800 1816.2 -0.0057238 293.38 0.20223
116.38 38419. undefined 353.61 770.76 1.3713 635.00 0.0015748 353.61 770.76 1.3713 2.1605 2.5837 1817.4 -0.0057163 293.26 0.20247 635.00 0.0015748 353.61 770.76 1.3713 2.1605 2.5837 1817.4 -0.0057163 293.26 0.20247
117.38 38578. undefined 355.77 774.65 1.3769 635.00 0.0015748 355.77 774.65 1.3769 2.1647 2.5874 1818.5 -0.0057088 293.15 0.20270 635.00 0.0015748 355.77 774.65 1.3769 2.1647 2.5874 1818.5 -0.0057088 293.15 0.20270
118.38 38738. undefined 357.94 778.55 1.3824 635.00 0.0015748 357.94 778.55 1.3824 2.1690 2.5910 1819.6 -0.0057013 293.04 0.20294 635.00 0.0015748 357.94 778.55 1.3824 2.1690 2.5910 1819.6 -0.0057013 293.04 0.20294
119.38 38897. undefined 360.11 782.44 1.3880 635.00 0.0015748 360.11 782.44 1.3880 2.1733 2.5947 1820.8 -0.0056938 292.93 0.20318 635.00 0.0015748 360.11 782.44 1.3880 2.1733 2.5947 1820.8 -0.0056938 292.93 0.20318
120.38 39056. undefined 362.29 786.35 1.3935 635.00 0.0015748 362.29 786.35 1.3935 2.1775 2.5984 1821.9 -0.0056864 292.82 0.20342 635.00 0.0015748 362.29 786.35 1.3935 2.1775 2.5984 1821.9 -0.0056864 292.82 0.20342
121.38 39214. undefined 364.47 790.25 1.3990 635.00 0.0015748 364.47 790.25 1.3990 2.1818 2.6020 1823.0 -0.0056789 292.71 0.20366 635.00 0.0015748 364.47 790.25 1.3990 2.1818 2.6020 1823.0 -0.0056789 292.71 0.20366
122.38 39373. undefined 366.65 794.16 1.4045 635.00 0.0015748 366.65 794.16 1.4045 2.1860 2.6057 1824.1 -0.0056715 292.60 0.20390 635.00 0.0015748 366.65 794.16 1.4045 2.1860 2.6057 1824.1 -0.0056715 292.60 0.20390
123.38 39531. undefined 368.84 798.06 1.4101 635.00 0.0015748 368.84 798.06 1.4101 2.1903 2.6094 1825.2 -0.0056641 292.49 0.20414 635.00 0.0015748 368.84 798.06 1.4101 2.1903 2.6094 1825.2 -0.0056641 292.49 0.20414
124.38 39690. undefined 371.03 801.97 1.4156 635.00 0.0015748 371.03 801.97 1.4156 2.1945 2.6131 1826.3 -0.0056567 292.39 0.20438 635.00 0.0015748 371.03 801.97 1.4156 2.1945 2.6131 1826.3 -0.0056567 292.39 0.20438
125.38 39848. undefined 373.23 805.89 1.4211 635.00 0.0015748 373.23 805.89 1.4211 2.1988 2.6167 1827.5 -0.0056493 292.28 0.20462 635.00 0.0015748 373.23 805.89 1.4211 2.1988 2.6167 1827.5 -0.0056493 292.28 0.20462
126.38 40006. undefined 375.43 809.80 1.4266 635.00 0.0015748 375.43 809.80 1.4266 2.2030 2.6204 1828.6 -0.0056419 292.18 0.20486 635.00 0.0015748 375.43 809.80 1.4266 2.2030 2.6204 1828.6 -0.0056419 292.18 0.20486
127.38 40163. undefined 377.63 813.72 1.4321 635.00 0.0015748 377.63 813.72 1.4321 2.2073 2.6241 1829.7 -0.0056346 292.07 0.20510 635.00 0.0015748 377.63 813.72 1.4321 2.2073 2.6241 1829.7 -0.0056346 292.07 0.20510
128.38 40321. undefined 379.84 817.64 1.4376 635.00 0.0015748 379.84 817.64 1.4376 2.2115 2.6277 1830.8 -0.0056272 291.97 0.20535 635.00 0.0015748 379.84 817.64 1.4376 2.2115 2.6277 1830.8 -0.0056272 291.97 0.20535
129.38 40478. undefined 382.06 821.56 1.4432 635.00 0.0015748 382.06 821.56 1.4432 2.2158 2.6314 1831.9 -0.0056199 291.87 0.20559 635.00 0.0015748 382.06 821.56 1.4432 2.2158 2.6314 1831.9 -0.0056199 291.87 0.20559
130.38 40636. undefined 384.27 825.49 1.4487 635.00 0.0015748 384.27 825.49 1.4487 2.2200 2.6351 1833.0 -0.0056126 291.77 0.20583 635.00 0.0015748 384.27 825.49 1.4487 2.2200 2.6351 1833.0 -0.0056126 291.77 0.20583
131.38 40793. undefined 386.50 829.42 1.4542 635.00 0.0015748 386.50 829.42 1.4542 2.2242 2.6388 1834.1 -0.0056054 291.67 0.20607 635.00 0.0015748 386.50 829.42 1.4542 2.2242 2.6388 1834.1 -0.0056054 291.67 0.20607
132.38 40950. undefined 388.72 833.35 1.4597 635.00 0.0015748 388.72 833.35 1.4597 2.2284 2.6424 1835.2 -0.0055981 291.57 0.20631 635.00 0.0015748 388.72 833.35 1.4597 2.2284 2.6424 1835.2 -0.0055981 291.57 0.20631
133.38 41106. undefined 390.95 837.28 1.4651 635.00 0.0015748 390.95 837.28 1.4651 2.2327 2.6461 1836.3 -0.0055909 291.47 0.20656 635.00 0.0015748 390.95 837.28 1.4651 2.2327 2.6461 1836.3 -0.0055909 291.47 0.20656
134.38 41263. undefined 393.19 841.21 1.4706 635.00 0.0015748 393.19 841.21 1.4706 2.2369 2.6498 1837.4 -0.0055836 291.37 0.20680 635.00 0.0015748 393.19 841.21 1.4706 2.2369 2.6498 1837.4 -0.0055836 291.37 0.20680
135.38 41419. undefined 395.43 845.15 1.4761 635.00 0.0015748 395.43 845.15 1.4761 2.2411 2.6534 1838.5 -0.0055764 291.27 0.20704 635.00 0.0015748 395.43 845.15 1.4761 2.2411 2.6534 1838.5 -0.0055764 291.27 0.20704
136.38 41576. undefined 397.67 849.09 1.4816 635.00 0.0015748 397.67 849.09 1.4816 2.2453 2.6571 1839.6 -0.0055693 291.18 0.20729 635.00 0.0015748 397.67 849.09 1.4816 2.2453 2.6571 1839.6 -0.0055693 291.18 0.20729
137.38 41732. undefined 399.92 853.03 1.4871 635.00 0.0015748 399.92 853.03 1.4871 2.2495 2.6607 1840.7 -0.0055621 291.08 0.20753 635.00 0.0015748 399.92 853.03 1.4871 2.2495 2.6607 1840.7 -0.0055621 291.08 0.20753
138.38 41888. undefined 402.17 856.98 1.4926 635.00 0.0015748 402.17 856.98 1.4926 2.2537 2.6644 1841.8 -0.0055549 290.99 0.20778 635.00 0.0015748 402.17 856.98 1.4926 2.2537 2.6644 1841.8 -0.0055549 290.99 0.20778
139.38 42043. undefined 404.42 860.93 1.4980 635.00 0.0015748 404.42 860.93 1.4980 2.2579 2.6681 1842.8 -0.0055478 290.89 0.20802 635.00 0.0015748 404.42 860.93 1.4980 2.2579 2.6681 1842.8 -0.0055478 290.89 0.20802
140.38 42199. undefined 406.68 864.87 1.5035 635.00 0.0015748 406.68 864.87 1.5035 2.2621 2.6717 1843.9 -0.0055407 290.80 0.20827 635.00 0.0015748 406.68 864.87 1.5035 2.2621 2.6717 1843.9 -0.0055407 290.80 0.20827
141.38 42354. undefined 408.95 868.83 1.5090 635.00 0.0015748 408.95 868.83 1.5090 2.2663 2.6754 1845.0 -0.0055336 290.71 0.20851 635.00 0.0015748 408.95 868.83 1.5090 2.2663 2.6754 1845.0 -0.0055336 290.71 0.20851
142.38 42510. undefined 411.22 872.78 1.5145 635.00 0.0015748 411.22 872.78 1.5145 2.2705 2.6790 1846.1 -0.0055265 290.62 0.20876 635.00 0.0015748 411.22 872.78 1.5145 2.2705 2.6790 1846.1 -0.0055265 290.62 0.20876
143.38 42665. undefined 413.49 876.74 1.5199 635.00 0.0015748 413.49 876.74 1.5199 2.2747 2.6827 1847.2 -0.0055195 290.53 0.20900 635.00 0.0015748 413.49 876.74 1.5199 2.2747 2.6827 1847.2 -0.0055195 290.53 0.20900
144.38 42820. undefined 415.77 880.70 1.5254 635.00 0.0015748 415.77 880.70 1.5254 2.2788 2.6864 1848.3 -0.0055124 290.44 0.20925 635.00 0.0015748 415.77 880.70 1.5254 2.2788 2.6864 1848.3 -0.0055124 290.44 0.20925
145.38 42975. undefined 418.05 884.66 1.5308 635.00 0.0015748 418.05 884.66 1.5308 2.2830 2.6900 1849.3 -0.0055054 290.35 0.20950 635.00 0.0015748 418.05 884.66 1.5308 2.2830 2.6900 1849.3 -0.0055054 290.35 0.20950
146.38 43129. undefined 420.33 888.62 1.5363 635.00 0.0015748 420.33 888.62 1.5363 2.2872 2.6937 1850.4 -0.0054984 290.26 0.20974 635.00 0.0015748 420.33 888.62 1.5363 2.2872 2.6937 1850.4 -0.0054984 290.26 0.20974
147.38 43284. undefined 422.62 892.59 1.5417 635.00 0.0015748 422.62 892.59 1.5417 2.2913 2.6973 1851.5 -0.0054914 290.17 0.20999 635.00 0.0015748 422.62 892.59 1.5417 2.2913 2.6973 1851.5 -0.0054914 290.17 0.20999
148.38 43438. undefined 424.91 896.56 1.5472 635.00 0.0015748 424.91 896.56 1.5472 2.2955 2.7010 1852.5 -0.0054845 290.09 0.21024 635.00 0.0015748 424.91 896.56 1.5472 2.2955 2.7010 1852.5 -0.0054845 290.09 0.21024
149.38 43592. undefined 427.21 900.53 1.5526 635.00 0.0015748 427.21 900.53 1.5526 2.2997 2.7046 1853.6 -0.0054775 290.00 0.21049 635.00 0.0015748 427.21 900.53 1.5526 2.2997 2.7046 1853.6 -0.0054775 290.00 0.21049
150.38 43746. undefined 429.51 904.51 1.5581 635.00 0.0015748 429.51 904.51 1.5581 2.3038 2.7082 1854.7 -0.0054706 289.92 0.21073 635.00 0.0015748 429.51 904.51 1.5581 2.3038 2.7082 1854.7 -0.0054706 289.92 0.21073
151.38 43900. undefined 431.82 908.48 1.5635 635.00 0.0015748 431.82 908.48 1.5635 2.3080 2.7119 1855.8 -0.0054637 289.83 0.21098 635.00 0.0015748 431.82 908.48 1.5635 2.3080 2.7119 1855.8 -0.0054637 289.83 0.21098
152.38 44054. undefined 434.13 912.46 1.5689 635.00 0.0015748 434.13 912.46 1.5689 2.3121 2.7155 1856.8 -0.0054568 289.75 0.21123 635.00 0.0015748 434.13 912.46 1.5689 2.3121 2.7155 1856.8 -0.0054568 289.75 0.21123
153.38 44207. undefined 436.44 916.44 1.5744 635.00 0.0015748 436.44 916.44 1.5744 2.3163 2.7192 1857.9 -0.0054499 289.66 0.21148 635.00 0.0015748 436.44 916.44 1.5744 2.3163 2.7192 1857.9 -0.0054499 289.66 0.21148
154.38 44361. undefined 438.76 920.43 1.5798 635.00 0.0015748 438.76 920.43 1.5798 2.3204 2.7228 1858.9 -0.0054431 289.58 0.21173 635.00 0.0015748 438.76 920.43 1.5798 2.3204 2.7228 1858.9 -0.0054431 289.58 0.21173
155.38 44514. undefined 441.08 924.41 1.5852 635.00 0.0015748 441.08 924.41 1.5852 2.3245 2.7264 1860.0 -0.0054363 289.50 0.21198 635.00 0.0015748 441.08 924.41 1.5852 2.3245 2.7264 1860.0 -0.0054363 289.50 0.21198
156.38 44667. undefined 443.41 928.40 1.5906 635.00 0.0015748 443.41 928.40 1.5906 2.3287 2.7301 1861.1 -0.0054294 289.42 0.21223 635.00 0.0015748 443.41 928.40 1.5906 2.3287 2.7301 1861.1 -0.0054294 289.42 0.21223
157.38 44820. undefined 445.74 932.39 1.5961 635.00 0.0015748 445.74 932.39 1.5961 2.3328 2.7337 1862.1 -0.0054227 289.34 0.21248 635.00 0.0015748 445.74 932.39 1.5961 2.3328 2.7337 1862.1 -0.0054227 289.34 0.21248
158.38 44973. undefined 448.08 936.39 1.6015 635.00 0.0015748 448.08 936.39 1.6015 2.3369 2.7373 1863.2 -0.0054159 289.26 0.21273 635.00 0.0015748 448.08 936.39 1.6015 2.3369 2.7373 1863.2 -0.0054159 289.26 0.21273
159.38 45126. undefined 450.42 940.38 1.6069 635.00 0.0015748 450.42 940.38 1.6069 2.3410 2.7409 1864.2 -0.0054091 289.18 0.21298 635.00 0.0015748 450.42 940.38 1.6069 2.3410 2.7409 1864.2 -0.0054091 289.18 0.21298
160.38 45278. undefined 452.76 944.38 1.6123 635.00 0.0015748 452.76 944.38 1.6123 2.3451 2.7446 1865.3 -0.0054024 289.10 0.21323 635.00 0.0015748 452.76 944.38 1.6123 2.3451 2.7446 1865.3 -0.0054024 289.10 0.21323
161.38 45430. undefined 455.11 948.38 1.6177 635.00 0.0015748 455.11 948.38 1.6177 2.3492 2.7482 1866.3 -0.0053957 289.02 0.21348 635.00 0.0015748 455.11 948.38 1.6177 2.3492 2.7482 1866.3 -0.0053957 289.02 0.21348
162.38 45583. undefined 457.46 952.39 1.6231 635.00 0.0015748 457.46 952.39 1.6231 2.3533 2.7518 1867.4 -0.0053890 288.95 0.21373 635.00 0.0015748 457.46 952.39 1.6231 2.3533 2.7518 1867.4 -0.0053890 288.95 0.21373
163.38 45735. undefined 459.81 956.40 1.6285 635.00 0.0015748 459.81 956.40 1.6285 2.3574 2.7554 1868.4 -0.0053823 288.87 0.21399 635.00 0.0015748 459.81 956.40 1.6285 2.3574 2.7554 1868.4 -0.0053823 288.87 0.21399
164.38 45887. undefined 462.17 960.40 1.6339 635.00 0.0015748 462.17 960.40 1.6339 2.3615 2.7590 1869.5 -0.0053757 288.79 0.21424 635.00 0.0015748 462.17 960.40 1.6339 2.3615 2.7590 1869.5 -0.0053757 288.79 0.21424
165.38 46038. undefined 464.54 964.42 1.6393 635.00 0.0015748 464.54 964.42 1.6393 2.3656 2.7626 1870.5 -0.0053690 288.72 0.21449 635.00 0.0015748 464.54 964.42 1.6393 2.3656 2.7626 1870.5 -0.0053690 288.72 0.21449
166.38 46190. undefined 466.90 968.43 1.6447 635.00 0.0015748 466.90 968.43 1.6447 2.3697 2.7663 1871.6 -0.0053624 288.64 0.21474 635.00 0.0015748 466.90 968.43 1.6447 2.3697 2.7663 1871.6 -0.0053624 288.64 0.21474
167.38 46341. undefined 469.28 972.45 1.6501 635.00 0.0015748 469.28 972.45 1.6501 2.3738 2.7699 1872.6 -0.0053558 288.57 0.21500 635.00 0.0015748 469.28 972.45 1.6501 2.3738 2.7699 1872.6 -0.0053558 288.57 0.21500
168.38 46493. undefined 471.65 976.46 1.6555 635.00 0.0015748 471.65 976.46 1.6555 2.3778 2.7735 1873.7 -0.0053492 288.50 0.21525 635.00 0.0015748 471.65 976.46 1.6555 2.3778 2.7735 1873.7 -0.0053492 288.50 0.21525
169.38 46644. undefined 474.03 980.49 1.6609 635.00 0.0015748 474.03 980.49 1.6609 2.3819 2.7771 1874.7 -0.0053427 288.42 0.21550 635.00 0.0015748 474.03 980.49 1.6609 2.3819 2.7771 1874.7 -0.0053427 288.42 0.21550
170.38 46795. undefined 476.41 984.51 1.6663 635.00 0.0015748 476.41 984.51 1.6663 2.3860 2.7807 1875.7 -0.0053361 288.35 0.21576 635.00 0.0015748 476.41 984.51 1.6663 2.3860 2.7807 1875.7 -0.0053361 288.35 0.21576
171.38 46946. undefined 478.80 988.54 1.6716 635.00 0.0015748 478.80 988.54 1.6716 2.3900 2.7843 1876.8 -0.0053296 288.28 0.21601 635.00 0.0015748 478.80 988.54 1.6716 2.3900 2.7843 1876.8 -0.0053296 288.28 0.21601
172.38 47097. undefined 481.19 992.56 1.6770 635.00 0.0015748 481.19 992.56 1.6770 2.3941 2.7879 1877.8 -0.0053231 288.21 0.21627 635.00 0.0015748 481.19 992.56 1.6770 2.3941 2.7879 1877.8 -0.0053231 288.21 0.21627
173.38 47247. undefined 483.59 996.60 1.6824 635.00 0.0015748 483.59 996.60 1.6824 2.3981 2.7914 1878.8 -0.0053166 288.14 0.21652 635.00 0.0015748 483.59 996.60 1.6824 2.3981 2.7914 1878.8 -0.0053166 288.14 0.21652
174.38 47398. undefined 485.99 1000.6 1.6878 635.00 0.0015748 485.99 1000.6 1.6878 2.4022 2.7950 1879.9 -0.0053102 288.07 0.21678 635.00 0.0015748 485.99 1000.6 1.6878 2.4022 2.7950 1879.9 -0.0053102 288.07 0.21678
175.38 47548. undefined 488.40 1004.7 1.6931 635.00 0.0015748 488.40 1004.7 1.6931 2.4062 2.7986 1880.9 -0.0053037 288.00 0.21703 635.00 0.0015748 488.40 1004.7 1.6931 2.4062 2.7986 1880.9 -0.0053037 288.00 0.21703
176.38 47698. undefined 490.80 1008.7 1.6985 635.00 0.0015748 490.80 1008.7 1.6985 2.4103 2.8022 1881.9 -0.0052973 287.93 0.21729 635.00 0.0015748 490.80 1008.7 1.6985 2.4103 2.8022 1881.9 -0.0052973 287.93 0.21729
177.38 47848. undefined 493.22 1012.7 1.7038 635.00 0.0015748 493.22 1012.7 1.7038 2.4143 2.8058 1883.0 -0.0052909 287.86 0.21754 635.00 0.0015748 493.22 1012.7 1.7038 2.4143 2.8058 1883.0 -0.0052909 287.86 0.21754
178.38 47998. undefined 495.63 1016.8 1.7092 635.00 0.0015748 495.63 1016.8 1.7092 2.4183 2.8093 1884.0 -0.0052845 287.79 0.21780 635.00 0.0015748 495.63 1016.8 1.7092 2.4183 2.8093 1884.0 -0.0052845 287.79 0.21780
179.38 48148. undefined 498.05 1020.8 1.7146 635.00 0.0015748 498.05 1020.8 1.7146 2.4223 2.8129 1885.0 -0.0052781 287.73 0.21805 635.00 0.0015748 498.05 1020.8 1.7146 2.4223 2.8129 1885.0 -0.0052781 287.73 0.21805
180.38 48297. undefined 500.48 1024.9 1.7199 635.00 0.0015748 500.48 1024.9 1.7199 2.4264 2.8165 1886.0 -0.0052718 287.66 0.21831 635.00 0.0015748 500.48 1024.9 1.7199 2.4264 2.8165 1886.0 -0.0052718 287.66 0.21831
181.38 48447. undefined 502.91 1028.9 1.7253 635.00 0.0015748 502.91 1028.9 1.7253 2.4304 2.8201 1887.1 -0.0052655 287.59 0.21857 635.00 0.0015748 502.91 1028.9 1.7253 2.4304 2.8201 1887.1 -0.0052655 287.59 0.21857
182.38 48596. undefined 505.34 1033.0 1.7306 635.00 0.0015748 505.34 1033.0 1.7306 2.4344 2.8236 1888.1 -0.0052592 287.53 0.21883 635.00 0.0015748 505.34 1033.0 1.7306 2.4344 2.8236 1888.1 -0.0052592 287.53 0.21883
183.38 48745. undefined 507.77 1037.0 1.7359 635.00 0.0015748 507.77 1037.0 1.7359 2.4384 2.8272 1889.1 -0.0052529 287.46 0.21908 635.00 0.0015748 507.77 1037.0 1.7359 2.4384 2.8272 1889.1 -0.0052529 287.46 0.21908
184.38 48894. undefined 510.21 1041.1 1.7413 635.00 0.0015748 510.21 1041.1 1.7413 2.4424 2.8307 1890.1 -0.0052466 287.40 0.21934 635.00 0.0015748 510.21 1041.1 1.7413 2.4424 2.8307 1890.1 -0.0052466 287.40 0.21934
185.38 49043. undefined 512.66 1045.2 1.7466 635.00 0.0015748 512.66 1045.2 1.7466 2.4464 2.8343 1891.1 -0.0052404 287.34 0.21960 635.00 0.0015748 512.66 1045.2 1.7466 2.4464 2.8343 1891.1 -0.0052404 287.34 0.21960
186.38 49192. undefined 515.11 1049.2 1.7520 635.00 0.0015748 515.11 1049.2 1.7520 2.4504 2.8378 1892.1 -0.0052341 287.27 0.21986 635.00 0.0015748 515.11 1049.2 1.7520 2.4504 2.8378 1892.1 -0.0052341 287.27 0.21986
187.38 49341. undefined 517.56 1053.3 1.7573 635.00 0.0015748 517.56 1053.3 1.7573 2.4543 2.8414 1893.2 -0.0052279 287.21 0.22012 635.00 0.0015748 517.56 1053.3 1.7573 2.4543 2.8414 1893.2 -0.0052279 287.21 0.22012
188.38 49489. undefined 520.02 1057.4 1.7626 635.00 0.0015748 520.02 1057.4 1.7626 2.4583 2.8449 1894.2 -0.0052217 287.15 0.22038 635.00 0.0015748 520.02 1057.4 1.7626 2.4583 2.8449 1894.2 -0.0052217 287.15 0.22038
189.38 49638. undefined 522.48 1061.4 1.7679 635.00 0.0015748 522.48 1061.4 1.7679 2.4623 2.8485 1895.2 -0.0052155 287.09 0.22064 635.00 0.0015748 522.48 1061.4 1.7679 2.4623 2.8485 1895.2 -0.0052155 287.09 0.22064
190.38 49786. undefined 524.94 1065.5 1.7733 635.00 0.0015748 524.94 1065.5 1.7733 2.4663 2.8520 1896.2 -0.0052094 287.02 0.22090 635.00 0.0015748 524.94 1065.5 1.7733 2.4663 2.8520 1896.2 -0.0052094 287.02 0.22090
191.38 49934. undefined 527.41 1069.6 1.7786 635.00 0.0015748 527.41 1069.6 1.7786 2.4702 2.8556 1897.2 -0.0052033 286.96 0.22116 635.00 0.0015748 527.41 1069.6 1.7786 2.4702 2.8556 1897.2 -0.0052033 286.96 0.22116
192.38 50082. undefined 529.88 1073.7 1.7839 635.00 0.0015748 529.88 1073.7 1.7839 2.4742 2.8591 1898.2 -0.0051971 286.90 0.22142 635.00 0.0015748 529.88 1073.7 1.7839 2.4742 2.8591 1898.2 -0.0051971 286.90 0.22142
193.38 50230. undefined 532.36 1077.7 1.7892 635.00 0.0015748 532.36 1077.7 1.7892 2.4781 2.8626 1899.2 -0.0051910 286.84 0.22168 635.00 0.0015748 532.36 1077.7 1.7892 2.4781 2.8626 1899.2 -0.0051910 286.84 0.22168
194.38 50377. undefined 534.84 1081.8 1.7945 635.00 0.0015748 534.84 1081.8 1.7945 2.4821 2.8661 1900.2 -0.0051850 286.78 0.22194 635.00 0.0015748 534.84 1081.8 1.7945 2.4821 2.8661 1900.2 -0.0051850 286.78 0.22194
195.38 50525. undefined 537.32 1085.9 1.7998 635.00 0.0015748 537.32 1085.9 1.7998 2.4860 2.8697 1901.2 -0.0051789 286.73 0.22220 635.00 0.0015748 537.32 1085.9 1.7998 2.4860 2.8697 1901.2 -0.0051789 286.73 0.22220
196.38 50672. undefined 539.81 1090.0 1.8051 635.00 0.0015748 539.81 1090.0 1.8051 2.4900 2.8732 1902.2 -0.0051729 286.67 0.22246 635.00 0.0015748 539.81 1090.0 1.8051 2.4900 2.8732 1902.2 -0.0051729 286.67 0.22246
197.38 50819. undefined 542.30 1094.1 1.8104 635.00 0.0015748 542.30 1094.1 1.8104 2.4939 2.8767 1903.2 -0.0051668 286.61 0.22272 635.00 0.0015748 542.30 1094.1 1.8104 2.4939 2.8767 1903.2 -0.0051668 286.61 0.22272
198.38 50967. undefined 544.80 1098.2 1.8157 635.00 0.0015748 544.80 1098.2 1.8157 2.4978 2.8802 1904.2 -0.0051608 286.55 0.22298 635.00 0.0015748 544.80 1098.2 1.8157 2.4978 2.8802 1904.2 -0.0051608 286.55 0.22298
199.38 51114. undefined 547.30 1102.3 1.8210 635.00 0.0015748 547.30 1102.3 1.8210 2.5017 2.8837 1905.2 -0.0051549 286.50 0.22325 635.00 0.0015748 547.30 1102.3 1.8210 2.5017 2.8837 1905.2 -0.0051549 286.50 0.22325
200.38 51261. undefined 549.80 1106.4 1.8263 635.00 0.0015748 549.80 1106.4 1.8263 2.5057 2.8872 1906.2 -0.0051489 286.44 0.22351 635.00 0.0015748 549.80 1106.4 1.8263 2.5057 2.8872 1906.2 -0.0051489 286.44 0.22351
201.38 51407. undefined 552.31 1110.5 1.8316 635.00 0.0015748 552.31 1110.5 1.8316 2.5096 2.8907 1907.2 -0.0051429 286.38 0.22377 635.00 0.0015748 552.31 1110.5 1.8316 2.5096 2.8907 1907.2 -0.0051429 286.38 0.22377
202.38 51554. undefined 554.82 1114.6 1.8369 635.00 0.0015748 554.82 1114.6 1.8369 2.5135 2.8942 1908.2 -0.0051370 286.33 0.22403 635.00 0.0015748 554.82 1114.6 1.8369 2.5135 2.8942 1908.2 -0.0051370 286.33 0.22403
203.38 51700. undefined 557.34 1118.7 1.8422 635.00 0.0015748 557.34 1118.7 1.8422 2.5174 2.8977 1909.2 -0.0051311 286.27 0.22430 635.00 0.0015748 557.34 1118.7 1.8422 2.5174 2.8977 1909.2 -0.0051311 286.27 0.22430
204.38 51847. undefined 559.85 1122.8 1.8475 635.00 0.0015748 559.85 1122.8 1.8475 2.5213 2.9012 1910.2 -0.0051252 286.22 0.22456 635.00 0.0015748 559.85 1122.8 1.8475 2.5213 2.9012 1910.2 -0.0051252 286.22 0.22456
205.38 51993. undefined 562.38 1126.9 1.8527 635.00 0.0015748 562.38 1126.9 1.8527 2.5252 2.9047 1911.2 -0.0051193 286.16 0.22483 635.00 0.0015748 562.38 1126.9 1.8527 2.5252 2.9047 1911.2 -0.0051193 286.16 0.22483
206.38 52139. undefined 564.90 1131.0 1.8580 635.00 0.0015748 564.90 1131.0 1.8580 2.5290 2.9082 1912.1 -0.0051135 286.11 0.22509 635.00 0.0015748 564.90 1131.0 1.8580 2.5290 2.9082 1912.1 -0.0051135 286.11 0.22509
207.38 52285. undefined 567.44 1135.1 1.8633 635.00 0.0015748 567.44 1135.1 1.8633 2.5329 2.9116 1913.1 -0.0051076 286.06 0.22536 635.00 0.0015748 567.44 1135.1 1.8633 2.5329 2.9116 1913.1 -0.0051076 286.06 0.22536
208.38 52431. undefined 569.97 1139.3 1.8686 635.00 0.0015748 569.97 1139.3 1.8686 2.5368 2.9151 1914.1 -0.0051018 286.00 0.22562 635.00 0.0015748 569.97 1139.3 1.8686 2.5368 2.9151 1914.1 -0.0051018 286.00 0.22562
209.38 52576. undefined 572.51 1143.4 1.8738 635.00 0.0015748 572.51 1143.4 1.8738 2.5407 2.9186 1915.1 -0.0050960 285.95 0.22589 635.00 0.0015748 572.51 1143.4 1.8738 2.5407 2.9186 1915.1 -0.0050960 285.95 0.22589
210.38 52722. undefined 575.05 1147.5 1.8791 635.00 0.0015748 575.05 1147.5 1.8791 2.5445 2.9221 1916.1 -0.0050902 285.90 0.22615 635.00 0.0015748 575.05 1147.5 1.8791 2.5445 2.9221 1916.1 -0.0050902 285.90 0.22615
211.38 52868. undefined 577.60 1151.6 1.8843 635.00 0.0015748 577.60 1151.6 1.8843 2.5484 2.9255 1917.1 -0.0050845 285.85 0.22642 635.00 0.0015748 577.60 1151.6 1.8843 2.5484 2.9255 1917.1 -0.0050845 285.85 0.22642
212.38 53013. undefined 580.15 1155.8 1.8896 635.00 0.0015748 580.15 1155.8 1.8896 2.5522 2.9290 1918.0 -0.0050787 285.80 0.22668 635.00 0.0015748 580.15 1155.8 1.8896 2.5522 2.9290 1918.0 -0.0050787 285.80 0.22668
213.38 53158. undefined 582.70 1159.9 1.8949 635.00 0.0015748 582.70 1159.9 1.8949 2.5561 2.9324 1919.0 -0.0050730 285.75 0.22695 635.00 0.0015748 582.70 1159.9 1.8949 2.5561 2.9324 1919.0 -0.0050730 285.75 0.22695
214.38 53303. undefined 585.26 1164.0 1.9001 635.00 0.0015748 585.26 1164.0 1.9001 2.5599 2.9359 1920.0 -0.0050673 285.70 0.22722 635.00 0.0015748 585.26 1164.0 1.9001 2.5599 2.9359 1920.0 -0.0050673 285.70 0.22722
215.38 53448. undefined 587.82 1168.2 1.9054 635.00 0.0015748 587.82 1168.2 1.9054 2.5638 2.9393 1921.0 -0.0050616 285.65 0.22748 635.00 0.0015748 587.82 1168.2 1.9054 2.5638 2.9393 1921.0 -0.0050616 285.65 0.22748
216.38 53593. undefined 590.39 1172.3 1.9106 635.00 0.0015748 590.39 1172.3 1.9106 2.5676 2.9428 1921.9 -0.0050559 285.60 0.22775 635.00 0.0015748 590.39 1172.3 1.9106 2.5676 2.9428 1921.9 -0.0050559 285.60 0.22775
217.38 53738. undefined 592.96 1176.4 1.9159 635.00 0.0015748 592.96 1176.4 1.9159 2.5714 2.9462 1922.9 -0.0050503 285.55 0.22802 635.00 0.0015748 592.96 1176.4 1.9159 2.5714 2.9462 1922.9 -0.0050503 285.55 0.22802
218.38 53882. undefined 595.53 1180.6 1.9211 635.00 0.0015748 595.53 1180.6 1.9211 2.5753 2.9497 1923.9 -0.0050447 285.50 0.22829 635.00 0.0015748 595.53 1180.6 1.9211 2.5753 2.9497 1923.9 -0.0050447 285.50 0.22829
219.38 54027. undefined 598.11 1184.7 1.9263 635.00 0.0015748 598.11 1184.7 1.9263 2.5791 2.9531 1924.9 -0.0050390 285.45 0.22855 635.00 0.0015748 598.11 1184.7 1.9263 2.5791 2.9531 1924.9 -0.0050390 285.45 0.22855
220.38 54171. undefined 600.69 1188.9 1.9316 635.00 0.0015748 600.69 1188.9 1.9316 2.5829 2.9565 1925.8 -0.0050334 285.40 0.22882 635.00 0.0015748 600.69 1188.9 1.9316 2.5829 2.9565 1925.8 -0.0050334 285.40 0.22882
221.38 54315. undefined 603.27 1193.0 1.9368 635.00 0.0015748 603.27 1193.0 1.9368 2.5867 2.9600 1926.8 -0.0050278 285.36 0.22909 635.00 0.0015748 603.27 1193.0 1.9368 2.5867 2.9600 1926.8 -0.0050278 285.36 0.22909
222.38 54459. undefined 605.86 1197.2 1.9420 635.00 0.0015748 605.86 1197.2 1.9420 2.5905 2.9634 1927.8 -0.0050223 285.31 0.22936 635.00 0.0015748 605.86 1197.2 1.9420 2.5905 2.9634 1927.8 -0.0050223 285.31 0.22936
223.38 54603. undefined 608.46 1201.3 1.9473 635.00 0.0015748 608.46 1201.3 1.9473 2.5943 2.9668 1928.7 -0.0050167 285.26 0.22963 635.00 0.0015748 608.46 1201.3 1.9473 2.5943 2.9668 1928.7 -0.0050167 285.26 0.22963
224.38 54747. undefined 611.05 1205.5 1.9525 635.00 0.0015748 611.05 1205.5 1.9525 2.5981 2.9702 1929.7 -0.0050112 285.22 0.22990 635.00 0.0015748 611.05 1205.5 1.9525 2.5981 2.9702 1929.7 -0.0050112 285.22 0.22990
225.38 54891. undefined 613.65 1209.6 1.9577 635.00 0.0015748 613.65 1209.6 1.9577 2.6019 2.9736 1930.7 -0.0050057 285.17 0.23017 635.00 0.0015748 613.65 1209.6 1.9577 2.6019 2.9736 1930.7 -0.0050057 285.17 0.23017
226.38 55034. undefined 616.26 1213.8 1.9629 635.00 0.0015748 616.26 1213.8 1.9629 2.6056 2.9770 1931.6 -0.0050002 285.12 0.23044 635.00 0.0015748 616.26 1213.8 1.9629 2.6056 2.9770 1931.6 -0.0050002 285.12 0.23044
227.38 55178. undefined 618.86 1218.0 1.9681 635.00 0.0015748 618.86 1218.0 1.9681 2.6094 2.9805 1932.6 -0.0049947 285.08 0.23071 635.00 0.0015748 618.86 1218.0 1.9681 2.6094 2.9805 1932.6 -0.0049947 285.08 0.23071
228.38 55321. undefined 621.47 1222.1 1.9733 635.00 0.0015748 621.47 1222.1 1.9733 2.6132 2.9839 1933.5 -0.0049893 285.03 0.23098 635.00 0.0015748 621.47 1222.1 1.9733 2.6132 2.9839 1933.5 -0.0049893 285.03 0.23098
229.38 55464. undefined 624.09 1226.3 1.9786 635.00 0.0015748 624.09 1226.3 1.9786 2.6170 2.9873 1934.5 -0.0049838 284.99 0.23125 635.00 0.0015748 624.09 1226.3 1.9786 2.6170 2.9873 1934.5 -0.0049838 284.99 0.23125
230.38 55607. undefined 626.71 1230.5 1.9838 635.00 0.0015748 626.71 1230.5 1.9838 2.6207 2.9906 1935.5 -0.0049784 284.94 0.23152 635.00 0.0015748 626.71 1230.5 1.9838 2.6207 2.9906 1935.5 -0.0049784 284.94 0.23152
231.38 55750. undefined 629.33 1234.7 1.9890 635.00 0.0015748 629.33 1234.7 1.9890 2.6245 2.9940 1936.4 -0.0049730 284.90 0.23179 635.00 0.0015748 629.33 1234.7 1.9890 2.6245 2.9940 1936.4 -0.0049730 284.90 0.23179
232.38 55893. undefined 631.96 1238.8 1.9942 635.00 0.0015748 631.96 1238.8 1.9942 2.6282 2.9974 1937.4 -0.0049676 284.86 0.23207 635.00 0.0015748 631.96 1238.8 1.9942 2.6282 2.9974 1937.4 -0.0049676 284.86 0.23207
233.38 56036. undefined 634.59 1243.0 1.9994 635.00 0.0015748 634.59 1243.0 1.9994 2.6320 3.0008 1938.3 -0.0049622 284.81 0.23234 635.00 0.0015748 634.59 1243.0 1.9994 2.6320 3.0008 1938.3 -0.0049622 284.81 0.23234
234.38 56178. undefined 637.22 1247.2 2.0046 635.00 0.0015748 637.22 1247.2 2.0046 2.6357 3.0042 1939.3 -0.0049569 284.77 0.23261 635.00 0.0015748 637.22 1247.2 2.0046 2.6357 3.0042 1939.3 -0.0049569 284.77 0.23261
235.38 56321. undefined 639.86 1251.4 2.0097 635.00 0.0015748 639.86 1251.4 2.0097 2.6394 3.0075 1940.2 -0.0049515 284.73 0.23288 635.00 0.0015748 639.86 1251.4 2.0097 2.6394 3.0075 1940.2 -0.0049515 284.73 0.23288
236.38 56463. undefined 642.50 1255.6 2.0149 635.00 0.0015748 642.50 1255.6 2.0149 2.6432 3.0109 1941.2 -0.0049462 284.69 0.23316 635.00 0.0015748 642.50 1255.6 2.0149 2.6432 3.0109 1941.2 -0.0049462 284.69 0.23316
237.38 56605. undefined 645.14 1259.8 2.0201 635.00 0.0015748 645.14 1259.8 2.0201 2.6469 3.0143 1942.1 -0.0049409 284.65 0.23343 635.00 0.0015748 645.14 1259.8 2.0201 2.6469 3.0143 1942.1 -0.0049409 284.65 0.23343
238.38 56748. undefined 647.79 1264.0 2.0253 635.00 0.0015748 647.79 1264.0 2.0253 2.6506 3.0176 1943.1 -0.0049356 284.60 0.23370 635.00 0.0015748 647.79 1264.0 2.0253 2.6506 3.0176 1943.1 -0.0049356 284.60 0.23370
239.38 56890. undefined 650.45 1268.1 2.0305 635.00 0.0015748 650.45 1268.1 2.0305 2.6543 3.0210 1944.0 -0.0049303 284.56 0.23398 635.00 0.0015748 650.45 1268.1 2.0305 2.6543 3.0210 1944.0 -0.0049303 284.56 0.23398
240.38 57031. undefined 653.10 1272.3 2.0357 635.00 0.0015748 653.10 1272.3 2.0357 2.6580 3.0244 1945.0 -0.0049251 284.52 0.23425 635.00 0.0015748 653.10 1272.3 2.0357 2.6580 3.0244 1945.0 -0.0049251 284.52 0.23425
241.38 57173. undefined 655.76 1276.5 2.0408 635.00 0.0015748 655.76 1276.5 2.0408 2.6617 3.0277 1945.9 -0.0049198 284.48 0.23453 635.00 0.0015748 655.76 1276.5 2.0408 2.6617 3.0277 1945.9 -0.0049198 284.48 0.23453
242.38 57315. undefined 658.43 1280.7 2.0460 635.00 0.0015748 658.43 1280.7 2.0460 2.6654 3.0310 1946.8 -0.0049146 284.44 0.23480 635.00 0.0015748 658.43 1280.7 2.0460 2.6654 3.0310 1946.8 -0.0049146 284.44 0.23480
243.38 57456. undefined 661.09 1284.9 2.0512 635.00 0.0015748 661.09 1284.9 2.0512 2.6691 3.0344 1947.8 -0.0049094 284.40 0.23508 635.00 0.0015748 661.09 1284.9 2.0512 2.6691 3.0344 1947.8 -0.0049094 284.40 0.23508
244.38 57598. undefined 663.76 1289.2 2.0563 635.00 0.0015748 663.76 1289.2 2.0563 2.6728 3.0377 1948.7 -0.0049042 284.36 0.23535 635.00 0.0015748 663.76 1289.2 2.0563 2.6728 3.0377 1948.7 -0.0049042 284.36 0.23535
245.38 57739. undefined 666.44 1293.4 2.0615 635.00 0.0015748 666.44 1293.4 2.0615 2.6765 3.0411 1949.7 -0.0048990 284.32 0.23563 635.00 0.0015748 666.44 1293.4 2.0615 2.6765 3.0411 1949.7 -0.0048990 284.32 0.23563
246.38 57880. undefined 669.12 1297.6 2.0667 635.00 0.0015748 669.12 1297.6 2.0667 2.6801 3.0444 1950.6 -0.0048939 284.29 0.23591 635.00 0.0015748 669.12 1297.6 2.0667 2.6801 3.0444 1950.6 -0.0048939 284.29 0.23591
247.38 58021. undefined 671.80 1301.8 2.0718 635.00 0.0015748 671.80 1301.8 2.0718 2.6838 3.0477 1951.5 -0.0048887 284.25 0.23618 635.00 0.0015748 671.80 1301.8 2.0718 2.6838 3.0477 1951.5 -0.0048887 284.25 0.23618
248.38 58162. undefined 674.48 1306.0 2.0770 635.00 0.0015748 674.48 1306.0 2.0770 2.6875 3.0510 1952.5 -0.0048836 284.21 0.23646 635.00 0.0015748 674.48 1306.0 2.0770 2.6875 3.0510 1952.5 -0.0048836 284.21 0.23646
249.38 58303. undefined 677.17 1310.2 2.0821 635.00 0.0015748 677.17 1310.2 2.0821 2.6911 3.0544 1953.4 -0.0048785 284.17 0.23674 635.00 0.0015748 677.17 1310.2 2.0821 2.6911 3.0544 1953.4 -0.0048785 284.17 0.23674
250.38 58444. undefined 679.87 1314.4 2.0873 635.00 0.0015748 679.87 1314.4 2.0873 2.6948 3.0577 1954.4 -0.0048734 284.13 0.23701 635.00 0.0015748 679.87 1314.4 2.0873 2.6948 3.0577 1954.4 -0.0048734 284.13 0.23701
251.38 58585. undefined 682.56 1318.7 2.0924 635.00 0.0015748 682.56 1318.7 2.0924 2.6984 3.0610 1955.3 -0.0048683 284.10 0.23729 635.00 0.0015748 682.56 1318.7 2.0924 2.6984 3.0610 1955.3 -0.0048683 284.10 0.23729
252.38 58725. undefined 685.26 1322.9 2.0976 635.00 0.0015748 685.26 1322.9 2.0976 2.7021 3.0643 1956.2 -0.0048633 284.06 0.23757 635.00 0.0015748 685.26 1322.9 2.0976 2.7021 3.0643 1956.2 -0.0048633 284.06 0.23757
253.38 58866. undefined 687.97 1327.1 2.1027 635.00 0.0015748 687.97 1327.1 2.1027 2.7057 3.0676 1957.1 -0.0048582 284.02 0.23785 635.00 0.0015748 687.97 1327.1 2.1027 2.7057 3.0676 1957.1 -0.0048582 284.02 0.23785
254.38 59006. undefined 690.67 1331.4 2.1078 635.00 0.0015748 690.67 1331.4 2.1078 2.7094 3.0709 1958.1 -0.0048532 283.99 0.23812 635.00 0.0015748 690.67 1331.4 2.1078 2.7094 3.0709 1958.1 -0.0048532 283.99 0.23812
255.38 59146. undefined 693.39 1335.6 2.1130 635.00 0.0015748 693.39 1335.6 2.1130 2.7130 3.0742 1959.0 -0.0048482 283.95 0.23840 635.00 0.0015748 693.39 1335.6 2.1130 2.7130 3.0742 1959.0 -0.0048482 283.95 0.23840
256.38 59286. undefined 696.10 1339.8 2.1181 635.00 0.0015748 696.10 1339.8 2.1181 2.7166 3.0775 1959.9 -0.0048432 283.92 0.23868 635.00 0.0015748 696.10 1339.8 2.1181 2.7166 3.0775 1959.9 -0.0048432 283.92 0.23868
257.38 59426. undefined 698.82 1344.1 2.1232 635.00 0.0015748 698.82 1344.1 2.1232 2.7202 3.0807 1960.9 -0.0048382 283.88 0.23896 635.00 0.0015748 698.82 1344.1 2.1232 2.7202 3.0807 1960.9 -0.0048382 283.88 0.23896
258.38 59566. undefined 701.54 1348.3 2.1284 635.00 0.0015748 701.54 1348.3 2.1284 2.7238 3.0840 1961.8 -0.0048333 283.84 0.23924 635.00 0.0015748 701.54 1348.3 2.1284 2.7238 3.0840 1961.8 -0.0048333 283.84 0.23924
259.38 59706. undefined 704.27 1352.5 2.1335 635.00 0.0015748 704.27 1352.5 2.1335 2.7274 3.0873 1962.7 -0.0048283 283.81 0.23952 635.00 0.0015748 704.27 1352.5 2.1335 2.7274 3.0873 1962.7 -0.0048283 283.81 0.23952
260.38 59845. undefined 707.00 1356.8 2.1386 635.00 0.0015748 707.00 1356.8 2.1386 2.7311 3.0906 1963.6 -0.0048234 283.78 0.23980 635.00 0.0015748 707.00 1356.8 2.1386 2.7311 3.0906 1963.6 -0.0048234 283.78 0.23980
261.38 59985. undefined 709.73 1361.0 2.1437 635.00 0.0015748 709.73 1361.0 2.1437 2.7346 3.0938 1964.5 -0.0048185 283.74 0.24008 635.00 0.0015748 709.73 1361.0 2.1437 2.7346 3.0938 1964.5 -0.0048185 283.74 0.24008
262.38 60124. undefined 712.47 1365.3 2.1488 635.00 0.0015748 712.47 1365.3 2.1488 2.7382 3.0971 1965.5 -0.0048136 283.71 0.24036 635.00 0.0015748 712.47 1365.3 2.1488 2.7382 3.0971 1965.5 -0.0048136 283.71 0.24036
263.38 60263. undefined 715.21 1369.5 2.1540 635.00 0.0015748 715.21 1369.5 2.1540 2.7418 3.1004 1966.4 -0.0048087 283.67 0.24064 635.00 0.0015748 715.21 1369.5 2.1540 2.7418 3.1004 1966.4 -0.0048087 283.67 0.24064
264.38 60402. undefined 717.95 1373.8 2.1591 635.00 0.0015748 717.95 1373.8 2.1591 2.7454 3.1036 1967.3 -0.0048038 283.64 0.24092 635.00 0.0015748 717.95 1373.8 2.1591 2.7454 3.1036 1967.3 -0.0048038 283.64 0.24092
265.38 60542. undefined 720.70 1378.0 2.1642 635.00 0.0015748 720.70 1378.0 2.1642 2.7490 3.1069 1968.2 -0.0047989 283.61 0.24121 635.00 0.0015748 720.70 1378.0 2.1642 2.7490 3.1069 1968.2 -0.0047989 283.61 0.24121
266.38 60681. undefined 723.45 1382.3 2.1693 635.00 0.0015748 723.45 1382.3 2.1693 2.7526 3.1101 1969.1 -0.0047941 283.57 0.24149 635.00 0.0015748 723.45 1382.3 2.1693 2.7526 3.1101 1969.1 -0.0047941 283.57 0.24149
267.38 60819. undefined 726.20 1386.6 2.1744 635.00 0.0015748 726.20 1386.6 2.1744 2.7561 3.1134 1970.1 -0.0047893 283.54 0.24177 635.00 0.0015748 726.20 1386.6 2.1744 2.7561 3.1134 1970.1 -0.0047893 283.54 0.24177
268.38 60958. undefined 728.96 1390.8 2.1795 635.00 0.0015748 728.96 1390.8 2.1795 2.7597 3.1166 1971.0 -0.0047845 283.51 0.24205 635.00 0.0015748 728.96 1390.8 2.1795 2.7597 3.1166 1971.0 -0.0047845 283.51 0.24205
269.38 61097. undefined 731.72 1395.1 2.1846 635.00 0.0015748 731.72 1395.1 2.1846 2.7632 3.1198 1971.9 -0.0047797 283.48 0.24233 635.00 0.0015748 731.72 1395.1 2.1846 2.7632 3.1198 1971.9 -0.0047797 283.48 0.24233
270.38 61235. undefined 734.49 1399.4 2.1897 635.00 0.0015748 734.49 1399.4 2.1897 2.7668 3.1231 1972.8 -0.0047749 283.45 0.24262 635.00 0.0015748 734.49 1399.4 2.1897 2.7668 3.1231 1972.8 -0.0047749 283.45 0.24262
271.38 61374. undefined 737.25 1403.6 2.1947 635.00 0.0015748 737.25 1403.6 2.1947 2.7703 3.1263 1973.7 -0.0047701 283.41 0.24290 635.00 0.0015748 737.25 1403.6 2.1947 2.7703 3.1263 1973.7 -0.0047701 283.41 0.24290
272.38 61512. undefined 740.03 1407.9 2.1998 635.00 0.0015748 740.03 1407.9 2.1998 2.7739 3.1295 1974.6 -0.0047654 283.38 0.24319 635.00 0.0015748 740.03 1407.9 2.1998 2.7739 3.1295 1974.6 -0.0047654 283.38 0.24319
273.38 61650. undefined 742.80 1412.2 2.2049 635.00 0.0015748 742.80 1412.2 2.2049 2.7774 3.1328 1975.5 -0.0047606 283.35 0.24347 635.00 0.0015748 742.80 1412.2 2.2049 2.7774 3.1328 1975.5 -0.0047606 283.35 0.24347
274.38 61788. undefined 745.58 1416.5 2.2100 635.00 0.0015748 745.58 1416.5 2.2100 2.7809 3.1360 1976.4 -0.0047559 283.32 0.24375 635.00 0.0015748 745.58 1416.5 2.2100 2.7809 3.1360 1976.4 -0.0047559 283.32 0.24375
275.38 61926. undefined 748.36 1420.8 2.2151 635.00 0.0015748 748.36 1420.8 2.2151 2.7845 3.1392 1977.3 -0.0047512 283.29 0.24404 635.00 0.0015748 748.36 1420.8 2.2151 2.7845 3.1392 1977.3 -0.0047512 283.29 0.24404
276.38 62064. undefined 751.15 1425.0 2.2201 635.00 0.0015748 751.15 1425.0 2.2201 2.7880 3.1424 1978.2 -0.0047465 283.26 0.24432 635.00 0.0015748 751.15 1425.0 2.2201 2.7880 3.1424 1978.2 -0.0047465 283.26 0.24432
277.38 62202. undefined 753.94 1429.3 2.2252 635.00 0.0015748 753.94 1429.3 2.2252 2.7915 3.1456 1979.1 -0.0047418 283.23 0.24461 635.00 0.0015748 753.94 1429.3 2.2252 2.7915 3.1456 1979.1 -0.0047418 283.23 0.24461
278.38 62339. undefined 756.73 1433.6 2.2303 635.00 0.0015748 756.73 1433.6 2.2303 2.7950 3.1488 1980.0 -0.0047372 283.20 0.24489 635.00 0.0015748 756.73 1433.6 2.2303 2.7950 3.1488 1980.0 -0.0047372 283.20 0.24489
279.38 62477. undefined 759.53 1437.9 2.2354 635.00 0.0015748 759.53 1437.9 2.2354 2.7985 3.1520 1980.9 -0.0047325 283.17 0.24518 635.00 0.0015748 759.53 1437.9 2.2354 2.7985 3.1520 1980.9 -0.0047325 283.17 0.24518
280.38 62614. undefined 762.33 1442.2 2.2404 635.00 0.0015748 762.33 1442.2 2.2404 2.8020 3.1552 1981.9 -0.0047279 283.14 0.24546 635.00 0.0015748 762.33 1442.2 2.2404 2.8020 3.1552 1981.9 -0.0047279 283.14 0.24546
281.38 62752. undefined 765.13 1446.5 2.2455 635.00 0.0015748 765.13 1446.5 2.2455 2.8055 3.1584 1982.8 -0.0047233 283.11 0.24575 635.00 0.0015748 765.13 1446.5 2.2455 2.8055 3.1584 1982.8 -0.0047233 283.11 0.24575
282.38 62889. undefined 767.94 1450.8 2.2505 635.00 0.0015748 767.94 1450.8 2.2505 2.8090 3.1615 1983.6 -0.0047187 283.08 0.24589 635.00 0.0015748 767.94 1450.8 2.2505 2.8090 3.1615 1983.6 -0.0047187 283.08 0.24589
283.38 63026. undefined 770.75 1455.1 2.2556 635.00 0.0015748 770.75 1455.1 2.2556 2.8125 3.1647 1984.5 -0.0047141 283.06 0.24617 635.00 0.0015748 770.75 1455.1 2.2556 2.8125 3.1647 1984.5 -0.0047141 283.06 0.24617
284.38 63163. undefined 773.57 1459.4 2.2606 635.00 0.0015748 773.57 1459.4 2.2606 2.8159 3.1679 1985.4 -0.0047095 283.03 0.24646 635.00 0.0015748 773.57 1459.4 2.2606 2.8159 3.1679 1985.4 -0.0047095 283.03 0.24646
285.38 63300. undefined 776.38 1463.7 2.2657 635.00 0.0015748 776.38 1463.7 2.2657 2.8194 3.1711 1986.3 -0.0047049 283.00 0.24675 635.00 0.0015748 776.38 1463.7 2.2657 2.8194 3.1711 1986.3 -0.0047049 283.00 0.24675
286.38 63437. undefined 779.20 1468.0 2.2707 635.00 0.0015748 779.20 1468.0 2.2707 2.8229 3.1742 1987.2 -0.0047004 282.97 0.24703 635.00 0.0015748 779.20 1468.0 2.2707 2.8229 3.1742 1987.2 -0.0047004 282.97 0.24703
287.38 63574. undefined 782.03 1472.3 2.2758 635.00 0.0015748 782.03 1472.3 2.2758 2.8263 3.1774 1988.1 -0.0046958 282.94 0.24732 635.00 0.0015748 782.03 1472.3 2.2758 2.8263 3.1774 1988.1 -0.0046958 282.94 0.24732
288.38 63710. undefined 784.86 1476.6 2.2808 635.00 0.0015748 784.86 1476.6 2.2808 2.8298 3.1806 1989.0 -0.0046913 282.92 0.24761 635.00 0.0015748 784.86 1476.6 2.2808 2.8298 3.1806 1989.0 -0.0046913 282.92 0.24761
289.38 63847. undefined 787.69 1480.9 2.2859 635.00 0.0015748 787.69 1480.9 2.2859 2.8333 3.1837 1989.9 -0.0046868 282.89 0.24790 635.00 0.0015748 787.69 1480.9 2.2859 2.8333 3.1837 1989.9 -0.0046868 282.89 0.24790
290.38 63983. undefined 790.52 1485.2 2.2909 635.00 0.0015748 790.52 1485.2 2.2909 2.8367 3.1869 1990.8 -0.0046823 282.86 0.24819 635.00 0.0015748 790.52 1485.2 2.2909 2.8367 3.1869 1990.8 -0.0046823 282.86 0.24819
291.38 64120. undefined 793.36 1489.6 2.2959 635.00 0.0015748 793.36 1489.6 2.2959 2.8402 3.1900 1991.7 -0.0046778 282.84 0.24848 635.00 0.0015748 793.36 1489.6 2.2959 2.8402 3.1900 1991.7 -0.0046778 282.84 0.24848
292.38 64256. undefined 796.20 1493.9 2.3010 635.00 0.0015748 796.20 1493.9 2.3010 2.8436 3.1932 1992.6 -0.0046734 282.81 0.24876 635.00 0.0015748 796.20 1493.9 2.3010 2.8436 3.1932 1992.6 -0.0046734 282.81 0.24876
293.38 64392. undefined 799.05 1498.2 2.3060 635.00 0.0015748 799.05 1498.2 2.3060 2.8470 3.1963 1993.5 -0.0046689 282.78 0.24905 635.00 0.0015748 799.05 1498.2 2.3060 2.8470 3.1963 1993.5 -0.0046689 282.78 0.24905
294.38 64528. undefined 801.90 1502.5 2.3110 635.00 0.0015748 801.90 1502.5 2.3110 2.8504 3.1994 1994.4 -0.0046645 282.76 0.24934 635.00 0.0015748 801.90 1502.5 2.3110 2.8504 3.1994 1994.4 -0.0046645 282.76 0.24934
295.38 64664. undefined 804.75 1506.9 2.3160 635.00 0.0015748 804.75 1506.9 2.3160 2.8539 3.2026 1995.2 -0.0046601 282.73 0.24963 635.00 0.0015748 804.75 1506.9 2.3160 2.8539 3.2026 1995.2 -0.0046601 282.73 0.24963
296.38 64800. undefined 807.61 1511.2 2.3211 635.00 0.0015748 807.61 1511.2 2.3211 2.8573 3.2057 1996.1 -0.0046556 282.71 0.24992 635.00 0.0015748 807.61 1511.2 2.3211 2.8573 3.2057 1996.1 -0.0046556 282.71 0.24992
297.38 64935. undefined 810.47 1515.5 2.3261 635.00 0.0015748 810.47 1515.5 2.3261 2.8607 3.2088 1997.0 -0.0046512 282.68 0.25021 635.00 0.0015748 810.47 1515.5 2.3261 2.8607 3.2088 1997.0 -0.0046512 282.68 0.25021
298.38 65071. undefined 813.33 1519.9 2.3311 635.00 0.0015748 813.33 1519.9 2.3311 2.8641 3.2119 1997.9 -0.0046469 282.66 0.25050 635.00 0.0015748 813.33 1519.9 2.3311 2.8641 3.2119 1997.9 -0.0046469 282.66 0.25050
299.38 65206. undefined 816.19 1524.2 2.3361 635.00 0.0015748 816.19 1524.2 2.3361 2.8675 3.2150 1998.8 -0.0046425 282.63 0.25080 635.00 0.0015748 816.19 1524.2 2.3361 2.8675 3.2150 1998.8 -0.0046425 282.63 0.25080
300.38 65342. undefined 819.06 1528.5 2.3411 635.00 0.0015748 819.06 1528.5 2.3411 2.8709 3.2182 1999.7 -0.0046381 282.61 0.25109 635.00 0.0015748 819.06 1528.5 2.3411 2.8709 3.2182 1999.7 -0.0046381 282.61 0.25109