Temperature (C) Pressure (psia) Quality (l+v) Internal Energy (l+v, kJ/kg) Enthalpy (l+v, kJ/kg) Entropy (l+v, J/g*K) Density (l, kg/m3) Volume (l, m3/kg) Internal Energy (l, kJ/kg) Enthalpy (l, kJ/kg) Entropy (l, J/g*K) Cv (l, J/g*K) Cp (l, J/g*K) Sound Spd. (l, m/s) Joule-Thomson (l, F/psia) Viscosity (l, uPa*s) Therm. Cond. (l, W/m*K) Density (v, kg/m3) Volume (v, m3/kg) Internal Energy (v, kJ/kg) Enthalpy (v, kJ/kg) Entropy (v, J/g*K) Cv (v, J/g*K) Cp (v, J/g*K) Sound Spd. (v, m/s) Joule-Thomson (v, F/psia) Viscosity (v, uPa*s) Therm. Cond. (v, W/m*K)
-187.62 2.4953e-08 1.7357e-12 -196.64 -196.64 -1.3959 733.13 0.0013640 -196.64 -196.64 -1.3959 1.3553 1.9158 2136.4 -0.0077592 10960. 0.20792 1.0669e-08 9.3732e+07 350.13 366.26 5.1858 0.69067 0.87923 143.28 6.1051 2.3259 0.0017061
-186.62 3.7339e-08 2.5366e-12 -194.73 -194.73 -1.3736 732.08 0.0013660 -194.73 -194.73 -1.3736 1.3539 1.9166 2129.6 -0.0077546 10073. 0.20765 1.5780e-08 6.3371e+07 350.82 367.14 5.1200 0.69462 0.88317 144.03 5.9178 2.3534 0.0017533
-185.62 5.5322e-08 3.6703e-12 -192.81 -192.81 -1.3516 731.04 0.0013679 -192.81 -192.81 -1.3516 1.3525 1.9174 2122.9 -0.0077498 9276.1 0.20737 2.3112e-08 4.3267e+07 351.52 368.02 5.0561 0.69857 0.88713 144.77 5.7383 2.3808 0.0018007
-184.62 8.1182e-08 5.2597e-12 -190.89 -190.89 -1.3298 730.00 0.0013699 -190.89 -190.89 -1.3298 1.3513 1.9182 2116.1 -0.0077448 8557.8 0.20708 3.3533e-08 2.9821e+07 352.22 368.91 4.9939 0.70253 0.89108 145.51 5.5662 2.4083 0.0018485
-183.62 1.1803e-07 7.4677e-12 -188.97 -188.97 -1.3083 728.96 0.0013718 -188.97 -188.97 -1.3083 1.3501 1.9191 2109.3 -0.0077395 7909.8 0.20678 4.8211e-08 2.0742e+07 352.92 369.81 4.9333 0.70648 0.89504 146.24 5.4011 2.4357 0.0018965
-182.62 1.7009e-07 1.0508e-11 -187.05 -187.05 -1.2869 727.92 0.0013738 -187.05 -187.05 -1.2869 1.3490 1.9201 2102.5 -0.0077340 7324.3 0.20647 6.8704e-08 1.4555e+07 353.63 370.70 4.8744 0.71043 0.89899 146.97 5.2426 2.4632 0.0019448
-181.62 2.4299e-07 1.4657e-11 -185.13 -185.13 -1.2658 726.88 0.0013757 -185.13 -185.13 -1.2658 1.3480 1.9210 2095.7 -0.0077283 6794.5 0.20616 9.7079e-08 1.0301e+07 354.35 371.60 4.8170 0.71438 0.90294 147.69 5.0904 2.4906 0.0019934
-180.62 3.4425e-07 2.0274e-11 -183.21 -183.21 -1.2450 725.85 0.0013777 -183.21 -183.21 -1.2450 1.3470 1.9220 2088.9 -0.0077225 6314.4 0.20584 1.3605e-07 7.3504e+06 355.06 372.51 4.7612 0.71833 0.90688 148.41 4.9442 2.5181 0.0020423
-179.62 4.8378e-07 2.7815e-11 -181.29 -181.29 -1.2243 724.81 0.0013797 -181.29 -181.29 -1.2243 1.3461 1.9231 2082.0 -0.0077164 5878.8 0.20551 1.8915e-07 5.2868e+06 355.78 373.42 4.7068 0.72227 0.91082 149.13 4.8038 2.5456 0.0020915
-178.62 6.7459e-07 3.7862e-11 -179.37 -179.37 -1.2038 723.78 0.0013816 -179.37 -179.37 -1.2038 1.3453 1.9241 2075.2 -0.0077102 5482.9 0.20517 2.6096e-07 3.8320e+06 356.51 374.33 4.6538 0.72620 0.91475 149.84 4.6688 2.5731 0.0021410
-177.62 9.3358e-07 5.1144e-11 -177.44 -177.44 -1.1836 722.75 0.0013836 -177.44 -177.44 -1.1836 1.3445 1.9252 2068.4 -0.0077039 5122.6 0.20483 3.5737e-07 2.7982e+06 357.23 375.25 4.6022 0.73012 0.91867 150.54 4.5390 2.6005 0.0021907
-176.62 1.2826e-06 6.8576e-11 -175.52 -175.52 -1.1635 721.72 0.0013856 -175.52 -175.52 -1.1635 1.3437 1.9263 2061.5 -0.0076973 4794.1 0.20447 4.8588e-07 2.0581e+06 357.97 376.17 4.5519 0.73403 0.92258 151.25 4.4142 2.6280 0.0022408
-175.62 1.7496e-06 9.1290e-11 -173.59 -173.59 -1.1437 720.69 0.0013876 -173.59 -173.59 -1.1437 1.3430 1.9274 2054.7 -0.0076907 4494.3 0.20411 6.5601e-07 1.5244e+06 358.70 377.09 4.5029 0.73792 0.92648 151.95 4.2941 2.6555 0.0022912
-174.62 2.3705e-06 1.2068e-10 -171.66 -171.66 -1.1240 719.66 0.0013895 -171.66 -171.66 -1.1240 1.3423 1.9286 2047.9 -0.0076838 4220.2 0.20375 8.7976e-07 1.1367e+06 359.44 378.02 4.4551 0.74181 0.93036 152.64 4.1784 2.6830 0.0023418
-173.62 3.1903e-06 1.5846e-10 -169.73 -169.73 -1.1045 718.64 0.0013915 -169.73 -169.73 -1.1045 1.3417 1.9298 2041.0 -0.0076769 3969.3 0.20338 1.1721e-06 8.5314e+05 360.19 378.95 4.4085 0.74568 0.93423 153.33 4.0671 2.7105 0.0023928
-172.62 4.2661e-06 2.0670e-10 -167.80 -167.80 -1.0852 717.61 0.0013935 -167.80 -167.80 -1.0852 1.3411 1.9310 2034.2 -0.0076698 3739.3 0.20300 1.5518e-06 6.4441e+05 360.93 379.89 4.3631 0.74953 0.93809 154.02 3.9599 2.7379 0.0024440
-171.62 5.6692e-06 2.6791e-10 -165.87 -165.87 -1.0661 716.58 0.0013955 -165.87 -165.87 -1.0661 1.3405 1.9322 2027.3 -0.0076625 3528.0 0.20261 2.0419e-06 4.8974e+05 361.69 380.83 4.3188 0.75337 0.94193 154.71 3.8566 2.7654 0.0024955
-170.62 7.4884e-06 3.4510e-10 -163.94 -163.94 -1.0472 715.56 0.0013975 -163.94 -163.94 -1.0472 1.3400 1.9334 2020.5 -0.0076552 3333.8 0.20222 2.6708e-06 3.7442e+05 362.44 381.77 4.2755 0.75720 0.94575 155.39 3.7570 2.7929 0.0025473
-169.62 9.8334e-06 4.4184e-10 -162.00 -162.00 -1.0284 714.54 0.0013995 -162.00 -162.00 -1.0284 1.3395 1.9347 2013.6 -0.0076477 3154.9 0.20182 3.4733e-06 2.8791e+05 363.20 382.72 4.2334 0.76100 0.94956 156.07 3.6609 2.8204 0.0025994
-168.62 1.2839e-05 5.6239e-10 -160.07 -160.07 -1.0098 713.52 0.0014015 -160.07 -160.07 -1.0098 1.3390 1.9359 2006.8 -0.0076401 2989.9 0.20141 4.4917e-06 2.2263e+05 363.96 383.67 4.1922 0.76479 0.95335 156.74 3.5683 2.8479 0.0026518
-167.62 1.6672e-05 7.1173e-10 -158.13 -158.13 -0.99134 712.49 0.0014035 -158.13 -158.13 -0.99134 1.3386 1.9372 2000.0 -0.0076323 2837.5 0.20100 5.7771e-06 1.7310e+05 364.73 384.63 4.1521 0.76856 0.95712 157.41 3.4790 2.8754 0.0027045
-166.62 2.1533e-05 8.9573e-10 -156.19 -156.19 -0.97306 711.47 0.0014055 -156.19 -156.19 -0.97306 1.3382 1.9385 1993.1 -0.0076245 2696.5 0.20058 7.3914e-06 1.3529e+05 365.50 385.59 4.1129 0.77232 0.96087 158.08 3.3927 2.9029 0.0027575
-165.62 2.7666e-05 1.1212e-09 -154.25 -154.25 -0.95494 710.45 0.0014075 -154.25 -154.25 -0.95494 1.3378 1.9398 1986.3 -0.0076165 2566.0 0.20016 9.4084e-06 1.0629e+05 366.27 386.55 4.0746 0.77605 0.96460 158.75 3.3095 2.9304 0.0028108
-164.62 3.5367e-05 1.3960e-09 -152.31 -152.31 -0.93698 709.44 0.0014096 -152.31 -152.31 -0.93698 1.3375 1.9411 1979.4 -0.0076084 2444.9 0.19973 1.1916e-05 83918. 367.05 387.52 4.0372 0.77976 0.96832 159.41 3.2291 2.9579 0.0028643
-163.62 4.4989e-05 1.7291e-09 -150.37 -150.37 -0.91917 708.42 0.0014116 -150.37 -150.37 -0.91917 1.3371 1.9424 1972.6 -0.0076002 2332.3 0.19930 1.5020e-05 66577. 367.83 388.49 4.0008 0.78346 0.97201 160.07 3.1514 2.9854 0.0029182
-162.62 5.6956e-05 2.1311e-09 -148.43 -148.43 -0.90151 707.40 0.0014136 -148.43 -148.43 -0.90151 1.3368 1.9437 1965.8 -0.0075919 2227.7 0.19886 1.8844e-05 53068. 368.62 389.46 3.9651 0.78713 0.97569 160.72 3.0764 3.0129 0.0029723
-161.62 7.1773e-05 2.6135e-09 -146.48 -146.48 -0.88400 706.38 0.0014157 -146.48 -146.48 -0.88400 1.3365 1.9451 1959.0 -0.0075834 2130.2 0.19841 2.3533e-05 42494. 369.41 390.44 3.9304 0.79079 0.97935 161.38 3.0038 3.0404 0.0030268
-160.62 9.0036e-05 3.1897e-09 -144.54 -144.54 -0.86663 705.37 0.0014177 -144.54 -144.54 -0.86663 1.3363 1.9465 1952.1 -0.0075748 2039.2 0.19796 2.9258e-05 34178. 370.20 391.42 3.8964 0.79443 0.98298 162.03 2.9337 3.0679 0.0030815
-159.62 0.00011245 3.8747e-09 -142.59 -142.59 -0.84940 704.35 0.0014197 -142.59 -142.59 -0.84940 1.3360 1.9478 1945.3 -0.0075661 1954.2 0.19751 3.6221e-05 27609. 371.00 392.40 3.8632 0.79805 0.98660 162.68 2.8658 3.0955 0.0031365
-158.62 0.00013985 4.6852e-09 -140.64 -140.64 -0.83231 703.34 0.0014218 -140.64 -140.64 -0.83231 1.3358 1.9492 1938.5 -0.0075573 1874.8 0.19705 4.4652e-05 22395. 371.80 393.39 3.8307 0.80164 0.99020 163.32 2.8002 3.1230 0.0031918
-157.62 0.00017320 5.6397e-09 -138.69 -138.69 -0.81536 702.32 0.0014238 -138.69 -138.69 -0.81536 1.3356 1.9506 1931.7 -0.0075484 1800.3 0.19658 5.4822e-05 18241. 372.60 394.38 3.7990 0.80522 0.99378 163.96 2.7367 3.1505 0.0032474
-156.62 0.00021364 6.7588e-09 -136.74 -136.74 -0.79854 701.31 0.0014259 -136.74 -136.74 -0.79854 1.3354 1.9520 1924.9 -0.0075393 1730.5 0.19611 6.7040e-05 14916. 373.41 395.38 3.7680 0.80878 0.99734 164.60 2.6752 3.1780 0.0033033
-155.62 0.00026248 8.0649e-09 -134.79 -134.79 -0.78185 700.30 0.0014280 -134.79 -134.79 -0.78185 1.3352 1.9534 1918.1 -0.0075302 1664.9 0.19564 8.1666e-05 12245. 374.22 396.38 3.7377 0.81232 1.0009 165.24 2.6157 3.2055 0.0033595
-154.62 0.00032125 9.5825e-09 -132.83 -132.83 -0.76530 699.29 0.0014300 -132.83 -132.83 -0.76530 1.3350 1.9548 1911.3 -0.0075209 1603.3 0.19516 9.9109e-05 10090. 375.03 397.38 3.7081 0.81585 1.0044 165.87 2.5580 3.2330 0.0034160
-153.62 0.00039171 1.1338e-08 -130.88 -130.88 -0.74887 698.27 0.0014321 -130.88 -130.88 -0.74887 1.3349 1.9563 1904.5 -0.0075114 1545.3 0.19468 0.00011984 8344.6 375.85 398.39 3.6792 0.81935 1.0079 166.50 2.5022 3.2606 0.0034727
-152.62 0.00047590 1.3361e-08 -128.92 -128.92 -0.73256 697.26 0.0014342 -128.92 -128.92 -0.73256 1.3348 1.9577 1897.8 -0.0075019 1490.6 0.19419 0.00014439 6925.9 376.67 399.40 3.6509 0.82284 1.0114 167.13 2.4481 3.2881 0.0035298
-151.62 0.00057613 1.5680e-08 -126.96 -126.96 -0.71638 696.25 0.0014363 -126.96 -126.96 -0.71638 1.3346 1.9592 1891.0 -0.0074922 1438.9 0.19370 0.00017336 5768.4 377.49 400.41 3.6232 0.82631 1.0149 167.76 2.3957 3.3156 0.0035872
-150.62 0.00069507 1.8330e-08 -125.00 -125.00 -0.70032 695.24 0.0014384 -125.00 -125.00 -0.70032 1.3345 1.9606 1884.2 -0.0074824 1390.2 0.19320 0.00020744 4820.7 378.32 401.42 3.5962 0.82976 1.0183 168.38 2.3448 3.3431 0.0036448
-149.62 0.00083574 2.1343e-08 -123.04 -123.04 -0.68438 694.23 0.0014404 -123.04 -123.04 -0.68438 1.3345 1.9621 1877.4 -0.0074724 1344.0 0.19270 0.00024740 4042.0 379.15 402.44 3.5697 0.83319 1.0218 169.00 2.2956 3.3706 0.0037027
-148.62 0.0010016 2.4755e-08 -121.08 -121.08 -0.66855 693.22 0.0014425 -121.08 -121.08 -0.66855 1.3344 1.9636 1870.7 -0.0074623 1300.3 0.19220 0.00029412 3400.0 379.99 403.47 3.5438 0.83661 1.0252 169.62 2.2478 3.3982 0.0037610
-147.62 0.0011965 2.8604e-08 -119.11 -119.11 -0.65284 692.21 0.0014447 -119.11 -119.11 -0.65284 1.3343 1.9651 1863.9 -0.0074521 1258.9 0.19169 0.00034856 2869.0 380.83 404.49 3.5185 0.84001 1.0286 170.24 2.2014 3.4257 0.0038195
-146.62 0.0014249 3.2925e-08 -117.15 -117.15 -0.63724 691.20 0.0014468 -117.15 -117.15 -0.63724 1.3343 1.9666 1857.2 -0.0074417 1219.6 0.19117 0.00041181 2428.3 381.67 405.52 3.4938 0.84340 1.0320 170.85 2.1565 3.4532 0.0038783
-145.62 0.0016917 3.7757e-08 -115.18 -115.18 -0.62175 690.19 0.0014489 -115.18 -115.18 -0.62175 1.3343 1.9682 1850.4 -0.0074312 1182.3 0.19066 0.00048510 2061.4 382.51 406.56 3.4695 0.84677 1.0353 171.46 2.1128 3.4807 0.0039374
-144.62 0.0020026 4.3137e-08 -113.21 -113.21 -0.60637 689.18 0.0014510 -113.21 -113.21 -0.60637 1.3343 1.9697 1843.7 -0.0074206 1146.8 0.19014 0.00056976 1755.1 383.36 407.59 3.4458 0.85012 1.0387 172.07 2.0705 3.5082 0.0039967
-143.62 0.0023637 4.9102e-08 -111.24 -111.24 -0.59110 688.17 0.0014531 -111.24 -111.24 -0.59110 1.3343 1.9713 1836.9 -0.0074098 1113.0 0.18962 0.00066731 1498.6 384.21 408.63 3.4226 0.85346 1.0420 172.68 2.0294 3.5358 0.0040564
-142.62 0.0027820 5.5685e-08 -109.27 -109.27 -0.57593 687.16 0.0014553 -109.27 -109.27 -0.57593 1.3343 1.9728 1830.2 -0.0073988 1080.8 0.18909 0.00077939 1283.1 385.07 409.68 3.3999 0.85679 1.0454 173.28 1.9896 3.5633 0.0041164
-141.62 0.0032653 6.2918e-08 -107.30 -107.30 -0.56087 686.15 0.0014574 -107.30 -107.30 -0.56087 1.3343 1.9744 1823.5 -0.0073878 1050.1 0.18856 0.00090784 1101.5 385.93 410.72 3.3777 0.86011 1.0487 173.88 1.9508 3.5908 0.0041766
-140.62 0.0038222 7.0829e-08 -105.32 -105.32 -0.54591 685.14 0.0014596 -105.32 -105.32 -0.54591 1.3344 1.9760 1816.7 -0.0073765 1020.7 0.18803 0.0010547 948.16 386.79 411.77 3.3560 0.86341 1.0520 174.48 1.9133 3.6183 0.0042372
-139.62 0.0044623 7.9440e-08 -103.34 -103.34 -0.53105 684.13 0.0014617 -103.34 -103.34 -0.53105 1.3344 1.9776 1810.0 -0.0073651 992.74 0.18749 0.0012221 818.26 387.65 412.83 3.3347 0.86670 1.0553 175.08 1.8768 3.6459 0.0042980
-138.62 0.0051963 8.8767e-08 -101.37 -101.37 -0.51629 683.12 0.0014639 -101.37 -101.37 -0.51629 1.3345 1.9792 1803.3 -0.0073536 965.97 0.18695 0.0014125 707.94 388.52 413.88 3.3139 0.86998 1.0586 175.67 1.8413 3.6734 0.0043592
-137.62 0.0060358 9.8818e-08 -99.386 -99.386 -0.50162 682.11 0.0014660 -99.386 -99.386 -0.50162 1.3346 1.9808 1796.6 -0.0073419 940.35 0.18641 0.0016287 614.00 389.39 414.94 3.2935 0.87325 1.0619 176.26 1.8069 3.7009 0.0044206
-136.62 0.0069938 1.0959e-07 -97.404 -97.404 -0.48705 681.10 0.0014682 -97.404 -97.404 -0.48705 1.3347 1.9825 1789.9 -0.0073301 915.81 0.18586 0.0018733 533.80 390.26 416.00 3.2735 0.87650 1.0651 176.85 1.7734 3.7284 0.0044823
-135.62 0.0080843 1.2107e-07 -95.421 -95.421 -0.47258 680.09 0.0014704 -95.421 -95.421 -0.47258 1.3348 1.9841 1783.2 -0.0073180 892.30 0.18531 0.0021497 465.17 391.14 417.07 3.2540 0.87975 1.0684 177.44 1.7409 3.7559 0.0045443
-134.62 0.0093230 1.3323e-07 -93.436 -93.436 -0.45820 679.08 0.0014726 -93.436 -93.436 -0.45820 1.3350 1.9858 1776.5 -0.0073059 869.75 0.18476 0.0024613 406.30 392.02 418.14 3.2348 0.88299 1.0716 178.02 1.7093 3.7834 0.0046066
-133.62 0.010727 1.4602e-07 -91.449 -91.449 -0.44391 678.07 0.0014748 -91.450 -91.449 -0.44391 1.3351 1.9875 1769.8 -0.0072935 848.11 0.18421 0.0028116 355.67 392.91 419.21 3.2161 0.88622 1.0749 178.61 1.6786 3.8109 0.0046691
-132.62 0.012315 1.5939e-07 -89.461 -89.461 -0.42971 677.06 0.0014770 -89.461 -89.461 -0.42971 1.3353 1.9892 1763.1 -0.0072810 827.32 0.18365 0.0032049 312.03 393.79 420.29 3.1977 0.88944 1.0781 179.19 1.6488 3.8385 0.0047320
-131.62 0.014106 1.7324e-07 -87.471 -87.471 -0.41560 676.04 0.0014792 -87.471 -87.471 -0.41560 1.3354 1.9909 1756.4 -0.0072684 807.34 0.18309 0.0036453 274.33 394.68 421.36 3.1798 0.89266 1.0813 179.76 1.6197 3.8660 0.0047951
-130.62 0.016124 1.8746e-07 -85.479 -85.479 -0.40157 675.03 0.0014814 -85.479 -85.479 -0.40157 1.3356 1.9926 1749.7 -0.0072555 788.12 0.18253 0.0041375 241.69 395.58 422.44 3.1622 0.89586 1.0846 180.34 1.5915 3.8935 0.0048586
-129.62 0.018392 2.0192e-07 -83.486 -83.486 -0.38763 674.02 0.0014836 -83.486 -83.486 -0.38763 1.3358 1.9944 1743.0 -0.0072425 769.63 0.18196 0.0046867 213.37 396.47 423.53 3.1450 0.89906 1.0878 180.91 1.5641 3.9210 0.0049223
-128.62 0.020935 2.1644e-07 -81.491 -81.490 -0.37378 673.01 0.0014859 -81.491 -81.490 -0.37378 1.3360 1.9961 1736.3 -0.0072294 751.83 0.18140 0.0052981 188.75 397.37 424.62 3.1281 0.90226 1.0910 181.48 1.5374 3.9485 0.0049863
-127.62 0.023783 2.3081e-07 -79.494 -79.493 -0.36001 672.00 0.0014881 -79.494 -79.493 -0.36001 1.3363 1.9979 1729.6 -0.0072160 734.67 0.18083 0.0059776 167.29 398.27 425.71 3.1116 0.90545 1.0942 182.05 1.5114 3.9760 0.0050506
-126.62 0.026966 2.4479e-07 -77.495 -77.494 -0.34632 670.98 0.0014904 -77.495 -77.495 -0.34632 1.3365 1.9997 1722.9 -0.0072025 718.14 0.18025 0.0067313 148.56 399.18 426.80 3.0954 0.90863 1.0974 182.62 1.4861 4.0035 0.0051152
-125.62 0.030515 2.5808e-07 -75.494 -75.494 -0.33271 669.97 0.0014926 -75.494 -75.494 -0.33272 1.3368 2.0015 1716.2 -0.0071888 702.18 0.17968 0.0075660 132.17 400.09 427.89 3.0795 0.91181 1.1006 183.18 1.4615 4.0310 0.0051800
-124.62 0.034467 2.7034e-07 -73.492 -73.491 -0.31919 668.95 0.0014949 -73.492 -73.492 -0.31919 1.3371 2.0033 1709.5 -0.0071749 686.79 0.17910 0.0084885 117.81 401.00 428.99 3.0640 0.91499 1.1038 183.74 1.4375 4.0584 0.0052452
-123.62 0.038859 2.8117e-07 -71.488 -71.487 -0.30574 667.94 0.0014971 -71.488 -71.487 -0.30574 1.3374 2.0051 1702.8 -0.0071609 671.93 0.17852 0.0095065 105.19 401.91 430.10 3.0488 0.91816 1.1070 184.30 1.4141 4.0859 0.0053106
-122.62 0.043731 2.9012e-07 -69.481 -69.481 -0.29237 666.92 0.0014994 -69.482 -69.481 -0.29237 1.3377 2.0070 1696.2 -0.0071466 657.57 0.17794 0.010628 94.092 402.83 431.20 3.0339 0.92134 1.1102 184.86 1.3913 4.1134 0.0053764
-121.62 0.049128 2.9665e-07 -67.474 -67.473 -0.27907 665.91 0.0015017 -67.474 -67.473 -0.27907 1.3380 2.0089 1689.5 -0.0071322 643.70 0.17736 0.011861 84.309 403.75 432.31 3.0193 0.92451 1.1134 185.41 1.3691 4.1409 0.0054424
-120.62 0.055096 3.0018e-07 -65.464 -65.463 -0.26585 664.89 0.0015040 -65.464 -65.463 -0.26585 1.3384 2.0107 1682.8 -0.0071176 630.28 0.17678 0.013215 75.669 404.67 433.42 3.0050 0.92767 1.1166 185.96 1.3475 4.1683 0.0055087
-119.62 0.061684 3.0003e-07 -63.452 -63.451 -0.25271 663.87 0.0015063 -63.452 -63.452 -0.25271 1.3387 2.0126 1676.1 -0.0071028 617.30 0.17619 0.014700 68.027 405.60 434.53 2.9909 0.93084 1.1198 186.51 1.3264 4.1958 0.0055752
-118.62 0.068946 2.9544e-07 -61.439 -61.438 -0.23963 662.86 0.0015086 -61.439 -61.438 -0.23963 1.3391 2.0146 1669.4 -0.0070878 604.74 0.17560 0.016325 61.255 406.53 435.64 2.9772 0.93401 1.1231 187.06 1.3058 4.2233 0.0056421
-117.62 0.076937 2.8556e-07 -59.423 -59.422 -0.22663 661.84 0.0015109 -59.423 -59.422 -0.22663 1.3395 2.0165 1662.8 -0.0070726 592.58 0.17501 0.018101 55.245 407.46 436.76 2.9638 0.93718 1.1263 187.60 1.2857 4.2507 0.0057092
-116.62 0.085718 2.6944e-07 -57.406 -57.405 -0.21370 660.82 0.0015133 -57.406 -57.405 -0.21370 1.3400 2.0184 1656.1 -0.0070573 580.80 0.17442 0.020040 49.901 408.39 437.88 2.9506 0.94035 1.1295 188.14 1.2660 4.2782 0.0057767
-115.62 0.095353 2.4602e-07 -55.386 -55.385 -0.20084 659.80 0.0015156 -55.386 -55.385 -0.20084 1.3404 2.0204 1649.4 -0.0070417 569.38 0.17383 0.022152 45.142 409.33 439.01 2.9377 0.94352 1.1327 188.68 1.2468 4.3056 0.0058444
-114.62 0.10591 2.1413e-07 -53.365 -53.364 -0.18805 658.78 0.0015180 -53.365 -53.364 -0.18805 1.3409 2.0224 1642.7 -0.0070260 558.32 0.17323 0.024451 40.898 410.27 440.13 2.9250 0.94669 1.1360 189.22 1.2281 4.3330 0.0059123
-113.62 0.11746 1.7247e-07 -51.341 -51.340 -0.17533 657.76 0.0015203 -51.342 -51.340 -0.17533 1.3413 2.0244 1636.0 -0.0070100 547.59 0.17264 0.026949 37.107 411.21 441.26 2.9126 0.94987 1.1392 189.75 1.2097 4.3604 0.0059806
-112.62 0.13008 1.1961e-07 -49.316 -49.315 -0.16267 656.73 0.0015227 -49.316 -49.315 -0.16267 1.3418 2.0264 1629.3 -0.0069938 537.18 0.17204 0.029661 33.715 412.16 442.39 2.9005 0.95305 1.1424 190.28 1.1918 4.3879 0.0060491
-111.62 0.14384 5.3998e-08 -47.289 -47.287 -0.15008 655.71 0.0015251 -47.289 -47.287 -0.15008 1.3424 2.0285 1622.7 -0.0069774 527.08 0.17144 0.032600 30.675 413.10 443.53 2.8885 0.95623 1.1457 190.81 1.1742 4.4153 0.0061180
-110.62 78.682 undefined -45.469 -44.641 -0.13884 655.00 0.0015267 -45.469 -44.641 -0.13884 1.3435 2.0297 1618.8 -0.0069680 519.54 0.17109 655.00 0.0015267 -45.469 -44.641 -0.13884 1.3435 2.0297 1618.8 -0.0069680 519.54 0.17109
-109.62 335.42 undefined -44.124 -40.594 -0.13060 655.00 0.0015267 -44.124 -40.594 -0.13060 1.3459 2.0290 1621.3 -0.0069745 517.25 0.17130 655.00 0.0015267 -44.124 -40.594 -0.13060 1.3459 2.0290 1621.3 -0.0069745 517.25 0.17130
-108.62 591.48 undefined -42.777 -36.551 -0.12238 655.00 0.0015267 -42.777 -36.551 -0.12238 1.3483 2.0284 1623.8 -0.0069807 515.00 0.17151 655.00 0.0015267 -42.777 -36.551 -0.12238 1.3483 2.0284 1623.8 -0.0069807 515.00 0.17151
-107.62 846.85 undefined -41.428 -32.513 -0.11421 655.00 0.0015267 -41.428 -32.513 -0.11421 1.3508 2.0279 1626.3 -0.0069868 512.78 0.17172 655.00 0.0015267 -41.428 -32.513 -0.11421 1.3508 2.0279 1626.3 -0.0069868 512.78 0.17172
-106.62 1101.5 undefined -40.076 -28.480 -0.10606 655.00 0.0015267 -40.076 -28.480 -0.10606 1.3532 2.0274 1628.8 -0.0069926 510.59 0.17193 655.00 0.0015267 -40.076 -28.480 -0.10606 1.3532 2.0274 1628.8 -0.0069926 510.59 0.17193
-105.62 1355.6 undefined -38.721 -24.452 -0.097953 655.00 0.0015267 -38.721 -24.452 -0.097953 1.3557 2.0269 1631.3 -0.0069982 508.44 0.17214 655.00 0.0015267 -38.721 -24.452 -0.097953 1.3557 2.0269 1631.3 -0.0069982 508.44 0.17214
-104.62 1608.9 undefined -37.364 -20.428 -0.089878 655.00 0.0015267 -37.364 -20.428 -0.089878 1.3581 2.0265 1633.7 -0.0070036 506.32 0.17235 655.00 0.0015267 -37.364 -20.428 -0.089878 1.3581 2.0265 1633.7 -0.0070036 506.32 0.17235
-103.62 1861.6 undefined -36.005 -16.409 -0.081835 655.00 0.0015267 -36.005 -16.409 -0.081835 1.3606 2.0261 1636.2 -0.0070087 504.23 0.17256 655.00 0.0015267 -36.005 -16.409 -0.081835 1.3606 2.0261 1636.2 -0.0070087 504.23 0.17256
-102.62 2113.7 undefined -34.643 -12.394 -0.073826 655.00 0.0015267 -34.643 -12.394 -0.073826 1.3631 2.0258 1638.6 -0.0070137 502.17 0.17278 655.00 0.0015267 -34.643 -12.394 -0.073826 1.3631 2.0258 1638.6 -0.0070137 502.17 0.17278
-101.62 2365.1 undefined -33.279 -8.3830 -0.065848 655.00 0.0015267 -33.279 -8.3830 -0.065848 1.3656 2.0255 1641.0 -0.0070184 500.14 0.17299 655.00 0.0015267 -33.279 -8.3830 -0.065848 1.3656 2.0255 1641.0 -0.0070184 500.14 0.17299
-100.62 2615.9 undefined -31.912 -4.3765 -0.057903 655.00 0.0015267 -31.912 -4.3765 -0.057903 1.3681 2.0253 1643.4 -0.0070229 498.14 0.17320 655.00 0.0015267 -31.912 -4.3765 -0.057903 1.3681 2.0253 1643.4 -0.0070229 498.14 0.17320
-99.625 2866.0 undefined -30.543 -0.37420 -0.049989 655.00 0.0015267 -30.543 -0.37420 -0.049989 1.3706 2.0251 1645.8 -0.0070272 496.17 0.17341 655.00 0.0015267 -30.543 -0.37420 -0.049989 1.3706 2.0251 1645.8 -0.0070272 496.17 0.17341
-98.625 3115.5 undefined -29.171 3.6240 -0.042106 655.00 0.0015267 -29.171 3.6240 -0.042106 1.3731 2.0250 1648.2 -0.0070313 494.23 0.17363 655.00 0.0015267 -29.171 3.6240 -0.042106 1.3731 2.0250 1648.2 -0.0070313 494.23 0.17363
-97.625 3364.4 undefined -27.797 7.6182 -0.034254 655.00 0.0015267 -27.797 7.6182 -0.034254 1.3756 2.0249 1650.6 -0.0070352 492.32 0.17384 655.00 0.0015267 -27.797 7.6182 -0.034254 1.3756 2.0249 1650.6 -0.0070352 492.32 0.17384
-96.625 3612.7 undefined -26.420 11.608 -0.026432 655.00 0.0015267 -26.420 11.608 -0.026432 1.3781 2.0249 1652.9 -0.0070389 490.43 0.17405 655.00 0.0015267 -26.420 11.608 -0.026432 1.3781 2.0249 1652.9 -0.0070389 490.43 0.17405
-95.625 3860.3 undefined -25.040 15.595 -0.018640 655.00 0.0015267 -25.040 15.595 -0.018640 1.3807 2.0249 1655.3 -0.0070424 488.58 0.17427 655.00 0.0015267 -25.040 15.595 -0.018640 1.3807 2.0249 1655.3 -0.0070424 488.58 0.17427
-94.625 4107.4 undefined -23.658 19.577 -0.010877 655.00 0.0015267 -23.658 19.577 -0.010877 1.3833 2.0249 1657.6 -0.0070456 486.75 0.17448 655.00 0.0015267 -23.658 19.577 -0.010877 1.3833 2.0249 1657.6 -0.0070456 486.75 0.17448
-93.625 4353.8 undefined -22.274 23.556 -0.0031430 655.00 0.0015267 -22.274 23.556 -0.0031430 1.3858 2.0250 1659.9 -0.0070487 484.94 0.17470 655.00 0.0015267 -22.274 23.556 -0.0031430 1.3858 2.0250 1659.9 -0.0070487 484.94 0.17470
-92.625 4599.7 undefined -20.887 27.531 0.0045622 655.00 0.0015267 -20.887 27.531 0.0045622 1.3884 2.0251 1662.2 -0.0070516 483.17 0.17491 655.00 0.0015267 -20.887 27.531 0.0045622 1.3884 2.0251 1662.2 -0.0070516 483.17 0.17491
-91.625 4844.9 undefined -19.497 31.502 0.012239 655.00 0.0015267 -19.497 31.502 0.012239 1.3910 2.0253 1664.5 -0.0070543 481.41 0.17513 655.00 0.0015267 -19.497 31.502 0.012239 1.3910 2.0253 1664.5 -0.0070543 481.41 0.17513
-90.625 5089.6 undefined -18.105 35.470 0.019888 655.00 0.0015267 -18.105 35.470 0.019888 1.3936 2.0255 1666.8 -0.0070568 479.69 0.17534 655.00 0.0015267 -18.105 35.470 0.019888 1.3936 2.0255 1666.8 -0.0070568 479.69 0.17534
-89.625 5333.7 undefined -16.710 39.434 0.027510 655.00 0.0015267 -16.710 39.434 0.027510 1.3963 2.0257 1669.0 -0.0070591 477.99 0.17556 655.00 0.0015267 -16.710 39.434 0.027510 1.3963 2.0257 1669.0 -0.0070591 477.99 0.17556
-88.625 5577.2 undefined -15.312 43.395 0.035104 655.00 0.0015267 -15.312 43.395 0.035104 1.3989 2.0260 1671.3 -0.0070612 476.31 0.17577 655.00 0.0015267 -15.312 43.395 0.035104 1.3989 2.0260 1671.3 -0.0070612 476.31 0.17577
-87.625 5820.1 undefined -13.912 47.352 0.042672 655.00 0.0015267 -13.912 47.352 0.042672 1.4015 2.0264 1673.5 -0.0070631 474.66 0.17599 655.00 0.0015267 -13.912 47.352 0.042672 1.4015 2.0264 1673.5 -0.0070631 474.66 0.17599
-86.625 6062.5 undefined -12.509 51.307 0.050213 655.00 0.0015267 -12.509 51.307 0.050213 1.4042 2.0267 1675.7 -0.0070649 473.03 0.17621 655.00 0.0015267 -12.509 51.307 0.050213 1.4042 2.0267 1675.7 -0.0070649 473.03 0.17621
-85.625 6304.3 undefined -11.103 55.257 0.057729 655.00 0.0015267 -11.103 55.257 0.057729 1.4069 2.0271 1678.0 -0.0070664 471.42 0.17642 655.00 0.0015267 -11.103 55.257 0.057729 1.4069 2.0271 1678.0 -0.0070664 471.42 0.17642
-84.625 6545.5 undefined -9.6952 59.205 0.065218 655.00 0.0015267 -9.6952 59.205 0.065218 1.4096 2.0276 1680.2 -0.0070678 469.84 0.17664 655.00 0.0015267 -9.6952 59.205 0.065218 1.4096 2.0276 1680.2 -0.0070678 469.84 0.17664
-83.625 6786.2 undefined -8.2843 63.149 0.072683 655.00 0.0015267 -8.2843 63.149 0.072683 1.4123 2.0281 1682.3 -0.0070690 468.27 0.17686 655.00 0.0015267 -8.2843 63.149 0.072683 1.4123 2.0281 1682.3 -0.0070690 468.27 0.17686
-82.625 7026.3 undefined -6.8707 67.091 0.080122 655.00 0.0015267 -6.8707 67.091 0.080122 1.4150 2.0286 1684.5 -0.0070700 466.74 0.17708 655.00 0.0015267 -6.8707 67.091 0.080122 1.4150 2.0286 1684.5 -0.0070700 466.74 0.17708
-81.625 7265.9 undefined -5.4543 71.029 0.087536 655.00 0.0015267 -5.4543 71.029 0.087536 1.4177 2.0292 1686.7 -0.0070709 465.22 0.17729 655.00 0.0015267 -5.4543 71.029 0.087536 1.4177 2.0292 1686.7 -0.0070709 465.22 0.17729
-80.625 7504.9 undefined -4.0352 74.964 0.094927 655.00 0.0015267 -4.0352 74.964 0.094927 1.4205 2.0298 1688.8 -0.0070715 463.72 0.17751 655.00 0.0015267 -4.0352 74.964 0.094927 1.4205 2.0298 1688.8 -0.0070715 463.72 0.17751
-79.625 7743.4 undefined -2.6133 78.897 0.10229 655.00 0.0015267 -2.6133 78.897 0.10229 1.4232 2.0305 1690.9 -0.0070720 462.25 0.17773 655.00 0.0015267 -2.6133 78.897 0.10229 1.4232 2.0305 1690.9 -0.0070720 462.25 0.17773
-78.625 7981.4 undefined -1.1887 82.826 0.10964 655.00 0.0015267 -1.1887 82.826 0.10964 1.4260 2.0311 1693.0 -0.0070724 460.79 0.17795 655.00 0.0015267 -1.1887 82.826 0.10964 1.4260 2.0311 1693.0 -0.0070724 460.79 0.17795
-77.625 8218.8 undefined 0.23872 86.753 0.11695 655.00 0.0015267 0.23872 86.753 0.11695 1.4288 2.0319 1695.1 -0.0070725 459.36 0.17817 655.00 0.0015267 0.23872 86.753 0.11695 1.4288 2.0319 1695.1 -0.0070725 459.36 0.17817
-76.625 8455.7 undefined 1.6689 90.677 0.12425 655.00 0.0015267 1.6689 90.677 0.12425 1.4316 2.0326 1697.2 -0.0070725 457.94 0.17839 655.00 0.0015267 1.6689 90.677 0.12425 1.4316 2.0326 1697.2 -0.0070725 457.94 0.17839
-75.625 8692.1 undefined 3.1020 94.598 0.13152 655.00 0.0015267 3.1020 94.598 0.13152 1.4344 2.0334 1699.3 -0.0070724 456.54 0.17861 655.00 0.0015267 3.1020 94.598 0.13152 1.4344 2.0334 1699.3 -0.0070724 456.54 0.17861
-74.625 8927.9 undefined 4.5378 98.516 0.13877 655.00 0.0015267 4.5378 98.516 0.13877 1.4373 2.0343 1701.4 -0.0070720 455.17 0.17883 655.00 0.0015267 4.5378 98.516 0.13877 1.4373 2.0343 1701.4 -0.0070720 455.17 0.17883
-73.625 9163.3 undefined 5.9766 102.43 0.14600 655.00 0.0015267 5.9766 102.43 0.14600 1.4401 2.0351 1703.4 -0.0070715 453.81 0.17905 655.00 0.0015267 5.9766 102.43 0.14600 1.4401 2.0351 1703.4 -0.0070715 453.81 0.17905
-72.625 9398.1 undefined 7.4181 106.35 0.15321 655.00 0.0015267 7.4181 106.35 0.15321 1.4430 2.0360 1705.5 -0.0070709 452.47 0.17927 655.00 0.0015267 7.4181 106.35 0.15321 1.4430 2.0360 1705.5 -0.0070709 452.47 0.17927
-71.625 9632.4 undefined 8.8626 110.26 0.16040 655.00 0.0015267 8.8626 110.26 0.16040 1.4459 2.0370 1707.5 -0.0070701 451.15 0.17949 655.00 0.0015267 8.8626 110.26 0.16040 1.4459 2.0370 1707.5 -0.0070701 451.15 0.17949
-70.625 9866.2 undefined 10.310 114.16 0.16756 655.00 0.0015267 10.310 114.16 0.16756 1.4488 2.0380 1709.5 -0.0070691 449.85 0.17971 655.00 0.0015267 10.310 114.16 0.16756 1.4488 2.0380 1709.5 -0.0070691 449.85 0.17971
-69.625 10099. undefined 11.760 118.07 0.17470 655.00 0.0015267 11.760 118.07 0.17470 1.4517 2.0390 1711.5 -0.0070680 448.56 0.17994 655.00 0.0015267 11.760 118.07 0.17470 1.4517 2.0390 1711.5 -0.0070680 448.56 0.17994
-68.625 10332. undefined 13.213 121.97 0.18183 655.00 0.0015267 13.213 121.97 0.18183 1.4546 2.0400 1713.5 -0.0070667 447.29 0.18016 655.00 0.0015267 13.213 121.97 0.18183 1.4546 2.0400 1713.5 -0.0070667 447.29 0.18016
-67.625 10565. undefined 14.669 125.88 0.18893 655.00 0.0015267 14.669 125.88 0.18893 1.4576 2.0411 1715.4 -0.0070653 446.04 0.18038 655.00 0.0015267 14.669 125.88 0.18893 1.4576 2.0411 1715.4 -0.0070653 446.04 0.18038
-66.625 10796. undefined 16.129 129.77 0.19601 655.00 0.0015267 16.129 129.77 0.19601 1.4606 2.0422 1717.4 -0.0070637 444.81 0.18060 655.00 0.0015267 16.129 129.77 0.19601 1.4606 2.0422 1717.4 -0.0070637 444.81 0.18060
-65.625 11028. undefined 17.591 133.67 0.20307 655.00 0.0015267 17.591 133.67 0.20307 1.4635 2.0434 1719.4 -0.0070620 443.59 0.18082 655.00 0.0015267 17.591 133.67 0.20307 1.4635 2.0434 1719.4 -0.0070620 443.59 0.18082
-64.625 11259. undefined 19.056 137.57 0.21012 655.00 0.0015267 19.056 137.57 0.21012 1.4665 2.0446 1721.3 -0.0070602 442.39 0.18105 655.00 0.0015267 19.056 137.57 0.21012 1.4665 2.0446 1721.3 -0.0070602 442.39 0.18105
-63.625 11489. undefined 20.524 141.46 0.21714 655.00 0.0015267 20.524 141.46 0.21714 1.4696 2.0458 1723.2 -0.0070582 441.20 0.18127 655.00 0.0015267 20.524 141.46 0.21714 1.4696 2.0458 1723.2 -0.0070582 441.20 0.18127
-62.625 11719. undefined 21.995 145.35 0.22414 655.00 0.0015267 21.995 145.35 0.22414 1.4726 2.0471 1725.1 -0.0070560 440.03 0.18149 655.00 0.0015267 21.995 145.35 0.22414 1.4726 2.0471 1725.1 -0.0070560 440.03 0.18149
-61.625 11948. undefined 23.469 149.24 0.23113 655.00 0.0015267 23.469 149.24 0.23113 1.4756 2.0483 1727.0 -0.0070537 438.88 0.18172 655.00 0.0015267 23.469 149.24 0.23113 1.4756 2.0483 1727.0 -0.0070537 438.88 0.18172
-60.625 12177. undefined 24.946 153.13 0.23810 655.00 0.0015267 24.946 153.13 0.23810 1.4787 2.0497 1728.9 -0.0070513 437.74 0.18194 655.00 0.0015267 24.946 153.13 0.23810 1.4787 2.0497 1728.9 -0.0070513 437.74 0.18194
-59.625 12405. undefined 26.426 157.01 0.24504 655.00 0.0015267 26.426 157.01 0.24504 1.4818 2.0510 1730.8 -0.0070488 436.62 0.18217 655.00 0.0015267 26.426 157.01 0.24504 1.4818 2.0510 1730.8 -0.0070488 436.62 0.18217
-58.625 12633. undefined 27.910 160.89 0.25197 655.00 0.0015267 27.910 160.89 0.25197 1.4849 2.0524 1732.6 -0.0070461 435.51 0.18239 655.00 0.0015267 27.910 160.89 0.25197 1.4849 2.0524 1732.6 -0.0070461 435.51 0.18239
-57.625 12861. undefined 29.396 164.77 0.25889 655.00 0.0015267 29.396 164.77 0.25889 1.4880 2.0538 1734.5 -0.0070433 434.41 0.18262 655.00 0.0015267 29.396 164.77 0.25889 1.4880 2.0538 1734.5 -0.0070433 434.41 0.18262
-56.625 13088. undefined 30.886 168.65 0.26578 655.00 0.0015267 30.886 168.65 0.26578 1.4911 2.0553 1736.3 -0.0070403 433.33 0.18284 655.00 0.0015267 30.886 168.65 0.26578 1.4911 2.0553 1736.3 -0.0070403 433.33 0.18284
-55.625 13314. undefined 32.378 172.53 0.27266 655.00 0.0015267 32.378 172.53 0.27266 1.4943 2.0568 1738.2 -0.0070372 432.26 0.18307 655.00 0.0015267 32.378 172.53 0.27266 1.4943 2.0568 1738.2 -0.0070372 432.26 0.18307
-54.625 13541. undefined 33.874 176.41 0.27952 655.00 0.0015267 33.874 176.41 0.27952 1.4974 2.0583 1740.0 -0.0070340 431.21 0.18329 655.00 0.0015267 33.874 176.41 0.27952 1.4974 2.0583 1740.0 -0.0070340 431.21 0.18329
-53.625 13766. undefined 35.373 180.28 0.28637 655.00 0.0015267 35.373 180.28 0.28637 1.5006 2.0598 1741.8 -0.0070307 430.17 0.18352 655.00 0.0015267 35.373 180.28 0.28637 1.5006 2.0598 1741.8 -0.0070307 430.17 0.18352
-52.625 13991. undefined 36.875 184.15 0.29319 655.00 0.0015267 36.875 184.15 0.29319 1.5038 2.0614 1743.6 -0.0070272 429.14 0.18375 655.00 0.0015267 36.875 184.15 0.29319 1.5038 2.0614 1743.6 -0.0070272 429.14 0.18375
-51.625 14216. undefined 38.381 188.02 0.30000 655.00 0.0015267 38.381 188.02 0.30000 1.5070 2.0630 1745.4 -0.0070236 428.13 0.18397 655.00 0.0015267 38.381 188.02 0.30000 1.5070 2.0630 1745.4 -0.0070236 428.13 0.18397
-50.625 14440. undefined 39.889 191.89 0.30680 655.00 0.0015267 39.889 191.89 0.30680 1.5103 2.0647 1747.1 -0.0070199 427.13 0.18420 655.00 0.0015267 39.889 191.89 0.30680 1.5103 2.0647 1747.1 -0.0070199 427.13 0.18420
-49.625 14664. undefined 41.401 195.76 0.31358 655.00 0.0015267 41.401 195.76 0.31358 1.5135 2.0663 1748.9 -0.0070161 426.14 0.18443 655.00 0.0015267 41.401 195.76 0.31358 1.5135 2.0663 1748.9 -0.0070161 426.14 0.18443
-48.625 14888. undefined 42.916 199.63 0.32034 655.00 0.0015267 42.916 199.63 0.32034 1.5168 2.0680 1750.6 -0.0070122 425.16 0.18466 655.00 0.0015267 42.916 199.63 0.32034 1.5168 2.0680 1750.6 -0.0070122 425.16 0.18466
-47.625 15111. undefined 44.435 203.49 0.32709 655.00 0.0015267 44.435 203.49 0.32709 1.5201 2.0698 1752.4 -0.0070081 424.20 0.18489 655.00 0.0015267 44.435 203.49 0.32709 1.5201 2.0698 1752.4 -0.0070081 424.20 0.18489
-46.625 15333. undefined 45.957 207.36 0.33382 655.00 0.0015267 45.957 207.36 0.33382 1.5234 2.0715 1754.1 -0.0070039 423.25 0.18511 655.00 0.0015267 45.957 207.36 0.33382 1.5234 2.0715 1754.1 -0.0070039 423.25 0.18511
-45.625 15555. undefined 47.482 211.22 0.34054 655.00 0.0015267 47.482 211.22 0.34054 1.5267 2.0733 1755.8 -0.0069996 422.31 0.18534 655.00 0.0015267 47.482 211.22 0.34054 1.5267 2.0733 1755.8 -0.0069996 422.31 0.18534
-44.625 15777. undefined 49.010 215.08 0.34724 655.00 0.0015267 49.010 215.08 0.34724 1.5300 2.0751 1757.5 -0.0069952 421.38 0.18557 655.00 0.0015267 49.010 215.08 0.34724 1.5300 2.0751 1757.5 -0.0069952 421.38 0.18557
-43.625 15998. undefined 50.542 218.94 0.35393 655.00 0.0015267 50.542 218.94 0.35393 1.5334 2.0770 1759.2 -0.0069907 420.46 0.18580 655.00 0.0015267 50.542 218.94 0.35393 1.5334 2.0770 1759.2 -0.0069907 420.46 0.18580
-42.625 16219. undefined 52.077 222.80 0.36060 655.00 0.0015267 52.077 222.80 0.36060 1.5367 2.0789 1760.9 -0.0069861 419.56 0.18603 655.00 0.0015267 52.077 222.80 0.36060 1.5367 2.0789 1760.9 -0.0069861 419.56 0.18603
-41.625 16439. undefined 53.615 226.66 0.36726 655.00 0.0015267 53.615 226.66 0.36726 1.5401 2.0808 1762.6 -0.0069814 418.66 0.18626 655.00 0.0015267 53.615 226.66 0.36726 1.5401 2.0808 1762.6 -0.0069814 418.66 0.18626
-40.625 16659. undefined 55.157 230.52 0.37391 655.00 0.0015267 55.157 230.52 0.37391 1.5435 2.0827 1764.3 -0.0069766 417.78 0.18649 655.00 0.0015267 55.157 230.52 0.37391 1.5435 2.0827 1764.3 -0.0069766 417.78 0.18649
-39.625 16879. undefined 56.702 234.37 0.38054 655.00 0.0015267 56.702 234.37 0.38054 1.5469 2.0847 1765.9 -0.0069716 416.91 0.18672 655.00 0.0015267 56.702 234.37 0.38054 1.5469 2.0847 1765.9 -0.0069716 416.91 0.18672
-38.625 17098. undefined 58.251 238.23 0.38716 655.00 0.0015267 58.251 238.23 0.38716 1.5503 2.0867 1767.6 -0.0069666 416.05 0.18695 655.00 0.0015267 58.251 238.23 0.38716 1.5503 2.0867 1767.6 -0.0069666 416.05 0.18695
-37.625 17316. undefined 59.803 242.08 0.39376 655.00 0.0015267 59.803 242.08 0.39376 1.5538 2.0887 1769.2 -0.0069615 415.20 0.18718 655.00 0.0015267 59.803 242.08 0.39376 1.5538 2.0887 1769.2 -0.0069615 415.20 0.18718
-36.625 17535. undefined 61.358 245.93 0.40035 655.00 0.0015267 61.358 245.93 0.40035 1.5573 2.0907 1770.9 -0.0069562 414.35 0.18741 655.00 0.0015267 61.358 245.93 0.40035 1.5573 2.0907 1770.9 -0.0069562 414.35 0.18741
-35.625 17752. undefined 62.917 249.79 0.40693 655.00 0.0015267 62.917 249.79 0.40693 1.5607 2.0928 1772.5 -0.0069509 413.52 0.18764 655.00 0.0015267 62.917 249.79 0.40693 1.5607 2.0928 1772.5 -0.0069509 413.52 0.18764
-34.625 17970. undefined 64.480 253.64 0.41349 655.00 0.0015267 64.480 253.64 0.41349 1.5642 2.0949 1774.1 -0.0069455 412.70 0.18788 655.00 0.0015267 64.480 253.64 0.41349 1.5642 2.0949 1774.1 -0.0069455 412.70 0.18788
-33.625 18187. undefined 66.046 257.49 0.42004 655.00 0.0015267 66.046 257.49 0.42004 1.5677 2.0970 1775.7 -0.0069399 411.89 0.18811 655.00 0.0015267 66.046 257.49 0.42004 1.5677 2.0970 1775.7 -0.0069399 411.89 0.18811
-32.625 18404. undefined 67.615 261.34 0.42658 655.00 0.0015267 67.615 261.34 0.42658 1.5713 2.0992 1777.3 -0.0069343 411.09 0.18834 655.00 0.0015267 67.615 261.34 0.42658 1.5713 2.0992 1777.3 -0.0069343 411.09 0.18834
-31.625 18620. undefined 69.188 265.19 0.43311 655.00 0.0015267 69.188 265.19 0.43311 1.5748 2.1014 1778.9 -0.0069286 410.30 0.18857 655.00 0.0015267 69.188 265.19 0.43311 1.5748 2.1014 1778.9 -0.0069286 410.30 0.18857
-30.625 18836. undefined 70.765 269.03 0.43962 655.00 0.0015267 70.765 269.03 0.43962 1.5784 2.1036 1780.5 -0.0069228 409.52 0.18881 655.00 0.0015267 70.765 269.03 0.43962 1.5784 2.1036 1780.5 -0.0069228 409.52 0.18881
-29.625 19051. undefined 72.345 272.88 0.44612 655.00 0.0015267 72.345 272.88 0.44612 1.5819 2.1058 1782.1 -0.0069169 408.75 0.18904 655.00 0.0015267 72.345 272.88 0.44612 1.5819 2.1058 1782.1 -0.0069169 408.75 0.18904
-28.625 19266. undefined 73.929 276.73 0.45261 655.00 0.0015267 73.929 276.73 0.45261 1.5855 2.1081 1783.6 -0.0069110 407.98 0.18927 655.00 0.0015267 73.929 276.73 0.45261 1.5855 2.1081 1783.6 -0.0069110 407.98 0.18927
-27.625 19481. undefined 75.516 280.58 0.45909 655.00 0.0015267 75.516 280.58 0.45909 1.5891 2.1104 1785.2 -0.0069049 407.23 0.18951 655.00 0.0015267 75.516 280.58 0.45909 1.5891 2.1104 1785.2 -0.0069049 407.23 0.18951
-26.625 19695. undefined 77.107 284.42 0.46556 655.00 0.0015267 77.107 284.42 0.46556 1.5927 2.1127 1786.7 -0.0068988 406.48 0.18974 655.00 0.0015267 77.107 284.42 0.46556 1.5927 2.1127 1786.7 -0.0068988 406.48 0.18974
-25.625 19909. undefined 78.701 288.27 0.47201 655.00 0.0015267 78.701 288.27 0.47201 1.5963 2.1150 1788.3 -0.0068925 405.74 0.18998 655.00 0.0015267 78.701 288.27 0.47201 1.5963 2.1150 1788.3 -0.0068925 405.74 0.18998
-24.625 20122. undefined 80.300 292.11 0.47846 655.00 0.0015267 80.300 292.11 0.47846 1.6000 2.1174 1789.8 -0.0068862 405.02 0.19021 655.00 0.0015267 80.300 292.11 0.47846 1.6000 2.1174 1789.8 -0.0068862 405.02 0.19021
-23.625 20335. undefined 81.901 295.96 0.48489 655.00 0.0015267 81.901 295.96 0.48489 1.6036 2.1197 1791.3 -0.0068798 404.29 0.19045 655.00 0.0015267 81.901 295.96 0.48489 1.6036 2.1197 1791.3 -0.0068798 404.29 0.19045
-22.625 20548. undefined 83.507 299.80 0.49131 655.00 0.0015267 83.507 299.80 0.49131 1.6073 2.1221 1792.8 -0.0068734 403.58 0.19068 655.00 0.0015267 83.507 299.80 0.49131 1.6073 2.1221 1792.8 -0.0068734 403.58 0.19068
-21.625 20760. undefined 85.116 303.65 0.49772 655.00 0.0015267 85.116 303.65 0.49772 1.6110 2.1246 1794.4 -0.0068669 402.88 0.19092 655.00 0.0015267 85.116 303.65 0.49772 1.6110 2.1246 1794.4 -0.0068669 402.88 0.19092
-20.625 20972. undefined 86.729 307.49 0.50412 655.00 0.0015267 86.729 307.49 0.50412 1.6147 2.1270 1795.9 -0.0068602 402.18 0.19115 655.00 0.0015267 86.729 307.49 0.50412 1.6147 2.1270 1795.9 -0.0068602 402.18 0.19115
-19.625 21184. undefined 88.345 311.33 0.51051 655.00 0.0015267 88.345 311.33 0.51051 1.6184 2.1295 1797.4 -0.0068536 401.50 0.19139 655.00 0.0015267 88.345 311.33 0.51051 1.6184 2.1295 1797.4 -0.0068536 401.50 0.19139
-18.625 21395. undefined 89.966 315.18 0.51689 655.00 0.0015267 89.966 315.18 0.51689 1.6221 2.1320 1798.9 -0.0068468 400.82 0.19163 655.00 0.0015267 89.966 315.18 0.51689 1.6221 2.1320 1798.9 -0.0068468 400.82 0.19163
-17.625 21606. undefined 91.590 319.02 0.52326 655.00 0.0015267 91.590 319.02 0.52326 1.6259 2.1345 1800.3 -0.0068400 400.15 0.19186 655.00 0.0015267 91.590 319.02 0.52326 1.6259 2.1345 1800.3 -0.0068400 400.15 0.19186
-16.625 21816. undefined 93.217 322.86 0.52961 655.00 0.0015267 93.217 322.86 0.52961 1.6296 2.1371 1801.8 -0.0068331 399.48 0.19210 655.00 0.0015267 93.217 322.86 0.52961 1.6296 2.1371 1801.8 -0.0068331 399.48 0.19210
-15.625 22026. undefined 94.849 326.70 0.53596 655.00 0.0015267 94.849 326.70 0.53596 1.6334 2.1396 1803.3 -0.0068261 398.82 0.19234 655.00 0.0015267 94.849 326.70 0.53596 1.6334 2.1396 1803.3 -0.0068261 398.82 0.19234
-14.625 22236. undefined 96.484 330.55 0.54230 655.00 0.0015267 96.484 330.55 0.54230 1.6372 2.1422 1804.7 -0.0068191 398.18 0.19258 655.00 0.0015267 96.484 330.55 0.54230 1.6372 2.1422 1804.7 -0.0068191 398.18 0.19258
-13.625 22445. undefined 98.123 334.39 0.54863 655.00 0.0015267 98.123 334.39 0.54863 1.6409 2.1448 1806.2 -0.0068120 397.53 0.19281 655.00 0.0015267 98.123 334.39 0.54863 1.6409 2.1448 1806.2 -0.0068120 397.53 0.19281
-12.625 22654. undefined 99.766 338.23 0.55495 655.00 0.0015267 99.766 338.23 0.55495 1.6447 2.1474 1807.7 -0.0068049 396.90 0.19305 655.00 0.0015267 99.766 338.23 0.55495 1.6447 2.1474 1807.7 -0.0068049 396.90 0.19305
-11.625 22863. undefined 101.41 342.07 0.56125 655.00 0.0015267 101.41 342.07 0.56125 1.6486 2.1501 1809.1 -0.0067976 396.27 0.19329 655.00 0.0015267 101.41 342.07 0.56125 1.6486 2.1501 1809.1 -0.0067976 396.27 0.19329
-10.625 23071. undefined 103.06 345.91 0.56755 655.00 0.0015267 103.06 345.91 0.56755 1.6524 2.1528 1810.5 -0.0067904 395.65 0.19353 655.00 0.0015267 103.06 345.91 0.56755 1.6524 2.1528 1810.5 -0.0067904 395.65 0.19353
-9.6250 23279. undefined 104.72 349.76 0.57384 655.00 0.0015267 104.72 349.76 0.57384 1.6562 2.1555 1812.0 -0.0067830 395.04 0.19377 655.00 0.0015267 104.72 349.76 0.57384 1.6562 2.1555 1812.0 -0.0067830 395.04 0.19377
-8.6250 23486. undefined 106.38 353.60 0.58012 655.00 0.0015267 106.38 353.60 0.58012 1.6601 2.1582 1813.4 -0.0067756 394.43 0.19401 655.00 0.0015267 106.38 353.60 0.58012 1.6601 2.1582 1813.4 -0.0067756 394.43 0.19401
-7.6250 23693. undefined 108.04 357.44 0.58639 655.00 0.0015267 108.04 357.44 0.58639 1.6639 2.1609 1814.8 -0.0067682 393.83 0.19425 655.00 0.0015267 108.04 357.44 0.58639 1.6639 2.1609 1814.8 -0.0067682 393.83 0.19425
-6.6250 23900. undefined 109.70 361.28 0.59266 655.00 0.0015267 109.70 361.28 0.59266 1.6678 2.1637 1816.2 -0.0067607 393.24 0.19449 655.00 0.0015267 109.70 361.28 0.59266 1.6678 2.1637 1816.2 -0.0067607 393.24 0.19449
-5.6250 24107. undefined 111.37 365.13 0.59891 655.00 0.0015267 111.37 365.13 0.59891 1.6717 2.1664 1817.6 -0.0067531 392.65 0.19473 655.00 0.0015267 111.37 365.13 0.59891 1.6717 2.1664 1817.6 -0.0067531 392.65 0.19473
-4.6250 24313. undefined 113.05 368.97 0.60515 655.00 0.0015267 113.05 368.97 0.60515 1.6756 2.1692 1819.0 -0.0067455 392.07 0.19497 655.00 0.0015267 113.05 368.97 0.60515 1.6756 2.1692 1819.0 -0.0067455 392.07 0.19497
-3.6250 24518. undefined 114.72 372.81 0.61139 655.00 0.0015267 114.72 372.81 0.61139 1.6795 2.1720 1820.4 -0.0067378 391.49 0.19521 655.00 0.0015267 114.72 372.81 0.61139 1.6795 2.1720 1820.4 -0.0067378 391.49 0.19521
-2.6250 24724. undefined 116.41 376.66 0.61762 655.00 0.0015267 116.41 376.66 0.61762 1.6834 2.1749 1821.8 -0.0067301 390.93 0.19545 655.00 0.0015267 116.41 376.66 0.61762 1.6834 2.1749 1821.8 -0.0067301 390.93 0.19545
-1.6250 24929. undefined 118.09 380.50 0.62383 655.00 0.0015267 118.09 380.50 0.62383 1.6873 2.1777 1823.2 -0.0067224 390.36 0.19569 655.00 0.0015267 118.09 380.50 0.62383 1.6873 2.1777 1823.2 -0.0067224 390.36 0.19569
-0.62500 25134. undefined 119.78 384.35 0.63004 655.00 0.0015267 119.78 384.35 0.63004 1.6913 2.1806 1824.6 -0.0067146 389.81 0.19593 655.00 0.0015267 119.78 384.35 0.63004 1.6913 2.1806 1824.6 -0.0067146 389.81 0.19593
0.37500 25338. undefined 121.47 388.19 0.63625 655.00 0.0015267 121.47 388.19 0.63625 1.6952 2.1835 1826.0 -0.0067067 389.26 0.19618 655.00 0.0015267 121.47 388.19 0.63625 1.6952 2.1835 1826.0 -0.0067067 389.26 0.19618
1.3750 25542. undefined 123.17 392.04 0.64244 655.00 0.0015267 123.17 392.04 0.64244 1.6992 2.1864 1827.4 -0.0066988 388.71 0.19642 655.00 0.0015267 123.17 392.04 0.64244 1.6992 2.1864 1827.4 -0.0066988 388.71 0.19642
2.3750 25746. undefined 124.87 395.88 0.64862 655.00 0.0015267 124.87 395.88 0.64862 1.7031 2.1893 1828.7 -0.0066909 388.18 0.19666 655.00 0.0015267 124.87 395.88 0.64862 1.7031 2.1893 1828.7 -0.0066909 388.18 0.19666
3.3750 25949. undefined 126.58 399.73 0.65480 655.00 0.0015267 126.58 399.73 0.65480 1.7071 2.1922 1830.1 -0.0066829 387.64 0.19690 655.00 0.0015267 126.58 399.73 0.65480 1.7071 2.1922 1830.1 -0.0066829 387.64 0.19690
4.3750 26152. undefined 128.29 403.57 0.66097 655.00 0.0015267 128.29 403.57 0.66097 1.7111 2.1952 1831.4 -0.0066749 387.12 0.19715 655.00 0.0015267 128.29 403.57 0.66097 1.7111 2.1952 1831.4 -0.0066749 387.12 0.19715
5.3750 26355. undefined 130.00 407.42 0.66713 655.00 0.0015267 130.00 407.42 0.66713 1.7151 2.1981 1832.8 -0.0066668 386.60 0.19739 655.00 0.0015267 130.00 407.42 0.66713 1.7151 2.1981 1832.8 -0.0066668 386.60 0.19739
6.3750 26557. undefined 131.72 411.27 0.67329 655.00 0.0015267 131.72 411.27 0.67329 1.7191 2.2011 1834.1 -0.0066587 386.08 0.19764 655.00 0.0015267 131.72 411.27 0.67329 1.7191 2.2011 1834.1 -0.0066587 386.08 0.19764
7.3750 26759. undefined 133.44 415.12 0.67943 655.00 0.0015267 133.44 415.12 0.67943 1.7231 2.2041 1835.5 -0.0066506 385.57 0.19788 655.00 0.0015267 133.44 415.12 0.67943 1.7231 2.2041 1835.5 -0.0066506 385.57 0.19788
8.3750 26961. undefined 135.16 418.96 0.68557 655.00 0.0015267 135.16 418.96 0.68557 1.7271 2.2071 1836.8 -0.0066424 385.07 0.19812 655.00 0.0015267 135.16 418.96 0.68557 1.7271 2.2071 1836.8 -0.0066424 385.07 0.19812
9.3750 27162. undefined 136.89 422.81 0.69170 655.00 0.0015267 136.89 422.81 0.69170 1.7311 2.2102 1838.2 -0.0066342 384.57 0.19837 655.00 0.0015267 136.89 422.81 0.69170 1.7311 2.2102 1838.2 -0.0066342 384.57 0.19837
10.375 27364. undefined 138.62 426.66 0.69783 655.00 0.0015267 138.62 426.66 0.69783 1.7352 2.2132 1839.5 -0.0066260 384.07 0.19861 655.00 0.0015267 138.62 426.66 0.69783 1.7352 2.2132 1839.5 -0.0066260 384.07 0.19861
11.375 27564. undefined 140.36 430.51 0.70394 655.00 0.0015267 140.36 430.51 0.70394 1.7392 2.2163 1840.8 -0.0066177 383.58 0.19886 655.00 0.0015267 140.36 430.51 0.70394 1.7392 2.2163 1840.8 -0.0066177 383.58 0.19886
12.375 27765. undefined 142.10 434.36 0.71005 655.00 0.0015267 142.10 434.36 0.71005 1.7433 2.2194 1842.1 -0.0066094 383.10 0.19910 655.00 0.0015267 142.10 434.36 0.71005 1.7433 2.2194 1842.1 -0.0066094 383.10 0.19910
13.375 27965. undefined 143.85 438.22 0.71615 655.00 0.0015267 143.85 438.22 0.71615 1.7473 2.2225 1843.5 -0.0066010 382.62 0.19935 655.00 0.0015267 143.85 438.22 0.71615 1.7473 2.2225 1843.5 -0.0066010 382.62 0.19935
14.375 28165. undefined 145.60 442.07 0.72225 655.00 0.0015267 145.60 442.07 0.72225 1.7514 2.2256 1844.8 -0.0065927 382.15 0.19960 655.00 0.0015267 145.60 442.07 0.72225 1.7514 2.2256 1844.8 -0.0065927 382.15 0.19960
15.375 28364. undefined 147.35 445.92 0.72834 655.00 0.0015267 147.35 445.92 0.72834 1.7555 2.2287 1846.1 -0.0065843 381.68 0.19984 655.00 0.0015267 147.35 445.92 0.72834 1.7555 2.2287 1846.1 -0.0065843 381.68 0.19984
16.375 28563. undefined 149.11 449.78 0.73442 655.00 0.0015267 149.11 449.78 0.73442 1.7596 2.2318 1847.4 -0.0065758 381.21 0.20009 655.00 0.0015267 149.11 449.78 0.73442 1.7596 2.2318 1847.4 -0.0065758 381.21 0.20009
17.375 28762. undefined 150.87 453.63 0.74049 655.00 0.0015267 150.87 453.63 0.74049 1.7637 2.2350 1848.7 -0.0065674 380.76 0.20034 655.00 0.0015267 150.87 453.63 0.74049 1.7637 2.2350 1848.7 -0.0065674 380.76 0.20034
18.375 28961. undefined 152.64 457.49 0.74656 655.00 0.0015267 152.64 457.49 0.74656 1.7678 2.2382 1850.0 -0.0065589 380.30 0.20058 655.00 0.0015267 152.64 457.49 0.74656 1.7678 2.2382 1850.0 -0.0065589 380.30 0.20058
19.375 29159. undefined 154.41 461.34 0.75262 655.00 0.0015267 154.41 461.34 0.75262 1.7719 2.2413 1851.3 -0.0065504 379.85 0.20083 655.00 0.0015267 154.41 461.34 0.75262 1.7719 2.2413 1851.3 -0.0065504 379.85 0.20083
20.375 29357. undefined 156.18 465.20 0.75867 655.00 0.0015267 156.18 465.20 0.75867 1.7760 2.2445 1852.6 -0.0065419 379.41 0.20108 655.00 0.0015267 156.18 465.20 0.75867 1.7760 2.2445 1852.6 -0.0065419 379.41 0.20108
21.375 29555. undefined 157.96 469.06 0.76472 655.00 0.0015267 157.96 469.06 0.76472 1.7801 2.2477 1853.8 -0.0065333 378.97 0.20133 655.00 0.0015267 157.96 469.06 0.76472 1.7801 2.2477 1853.8 -0.0065333 378.97 0.20133
22.375 29752. undefined 159.74 472.92 0.77076 655.00 0.0015267 159.74 472.92 0.77076 1.7842 2.2510 1855.1 -0.0065248 378.53 0.20158 655.00 0.0015267 159.74 472.92 0.77076 1.7842 2.2510 1855.1 -0.0065248 378.53 0.20158
23.375 29949. undefined 161.53 476.78 0.77680 655.00 0.0015267 161.53 476.78 0.77680 1.7884 2.2542 1856.4 -0.0065162 378.10 0.20183 655.00 0.0015267 161.53 476.78 0.77680 1.7884 2.2542 1856.4 -0.0065162 378.10 0.20183
24.375 30146. undefined 163.32 480.64 0.78282 655.00 0.0015267 163.32 480.64 0.78282 1.7925 2.2574 1857.7 -0.0065076 377.67 0.20207 655.00 0.0015267 163.32 480.64 0.78282 1.7925 2.2574 1857.7 -0.0065076 377.67 0.20207
25.375 30342. undefined 165.11 484.50 0.78885 655.00 0.0015267 165.11 484.50 0.78885 1.7967 2.2607 1858.9 -0.0064989 377.25 0.20232 655.00 0.0015267 165.11 484.50 0.78885 1.7967 2.2607 1858.9 -0.0064989 377.25 0.20232
26.375 30538. undefined 166.91 488.37 0.79486 655.00 0.0015267 166.91 488.37 0.79486 1.8008 2.2640 1860.2 -0.0064903 376.83 0.20257 655.00 0.0015267 166.91 488.37 0.79486 1.8008 2.2640 1860.2 -0.0064903 376.83 0.20257
27.375 30734. undefined 168.71 492.23 0.80087 655.00 0.0015267 168.71 492.23 0.80087 1.8050 2.2672 1861.5 -0.0064816 376.41 0.20282 655.00 0.0015267 168.71 492.23 0.80087 1.8050 2.2672 1861.5 -0.0064816 376.41 0.20282
28.375 30930. undefined 170.52 496.10 0.80687 655.00 0.0015267 170.52 496.10 0.80687 1.8091 2.2705 1862.7 -0.0064729 376.00 0.20307 655.00 0.0015267 170.52 496.10 0.80687 1.8091 2.2705 1862.7 -0.0064729 376.00 0.20307
29.375 31125. undefined 172.33 499.96 0.81287 655.00 0.0015267 172.33 499.96 0.81287 1.8133 2.2738 1864.0 -0.0064642 375.60 0.20332 655.00 0.0015267 172.33 499.96 0.81287 1.8133 2.2738 1864.0 -0.0064642 375.60 0.20332
30.375 31320. undefined 174.15 503.83 0.81886 655.00 0.0015267 174.15 503.83 0.81886 1.8175 2.2772 1865.2 -0.0064555 375.19 0.20358 655.00 0.0015267 174.15 503.83 0.81886 1.8175 2.2772 1865.2 -0.0064555 375.19 0.20358
31.375 31514. undefined 175.97 507.70 0.82485 655.00 0.0015267 175.97 507.70 0.82485 1.8217 2.2805 1866.5 -0.0064468 374.79 0.20383 655.00 0.0015267 175.97 507.70 0.82485 1.8217 2.2805 1866.5 -0.0064468 374.79 0.20383
32.375 31709. undefined 177.79 511.57 0.83082 655.00 0.0015267 177.79 511.57 0.83082 1.8259 2.2838 1867.7 -0.0064381 374.40 0.20408 655.00 0.0015267 177.79 511.57 0.83082 1.8259 2.2838 1867.7 -0.0064381 374.40 0.20408
33.375 31903. undefined 179.62 515.44 0.83680 655.00 0.0015267 179.62 515.44 0.83680 1.8300 2.2872 1869.0 -0.0064293 374.01 0.20433 655.00 0.0015267 179.62 515.44 0.83680 1.8300 2.2872 1869.0 -0.0064293 374.01 0.20433
34.375 32097. undefined 181.45 519.31 0.84277 655.00 0.0015267 181.45 519.31 0.84277 1.8342 2.2905 1870.2 -0.0064206 373.62 0.20458 655.00 0.0015267 181.45 519.31 0.84277 1.8342 2.2905 1870.2 -0.0064206 373.62 0.20458
35.375 32290. undefined 183.29 523.19 0.84873 655.00 0.0015267 183.29 523.19 0.84873 1.8384 2.2939 1871.5 -0.0064118 373.24 0.20483 655.00 0.0015267 183.29 523.19 0.84873 1.8384 2.2939 1871.5 -0.0064118 373.24 0.20483
36.375 32484. undefined 185.13 527.06 0.85468 655.00 0.0015267 185.13 527.06 0.85468 1.8427 2.2973 1872.7 -0.0064030 372.86 0.20509 655.00 0.0015267 185.13 527.06 0.85468 1.8427 2.2973 1872.7 -0.0064030 372.86 0.20509
37.375 32676. undefined 186.97 530.94 0.86063 655.00 0.0015267 186.97 530.94 0.86063 1.8469 2.3007 1873.9 -0.0063942 372.48 0.20534 655.00 0.0015267 186.97 530.94 0.86063 1.8469 2.3007 1873.9 -0.0063942 372.48 0.20534
38.375 32869. undefined 188.82 534.81 0.86658 655.00 0.0015267 188.82 534.81 0.86658 1.8511 2.3041 1875.1 -0.0063854 372.11 0.20559 655.00 0.0015267 188.82 534.81 0.86658 1.8511 2.3041 1875.1 -0.0063854 372.11 0.20559
39.375 33062. undefined 190.67 538.69 0.87252 655.00 0.0015267 190.67 538.69 0.87252 1.8553 2.3075 1876.4 -0.0063766 371.74 0.20585 655.00 0.0015267 190.67 538.69 0.87252 1.8553 2.3075 1876.4 -0.0063766 371.74 0.20585
40.375 33254. undefined 192.53 542.57 0.87845 655.00 0.0015267 192.53 542.57 0.87845 1.8595 2.3109 1877.6 -0.0063678 371.38 0.20610 655.00 0.0015267 192.53 542.57 0.87845 1.8595 2.3109 1877.6 -0.0063678 371.38 0.20610
41.375 33446. undefined 194.39 546.45 0.88438 655.00 0.0015267 194.39 546.45 0.88438 1.8637 2.3143 1878.8 -0.0063590 371.02 0.20635 655.00 0.0015267 194.39 546.45 0.88438 1.8637 2.3143 1878.8 -0.0063590 371.02 0.20635
42.375 33637. undefined 196.26 550.34 0.89030 655.00 0.0015267 196.26 550.34 0.89030 1.8680 2.3178 1880.0 -0.0063502 370.66 0.20661 655.00 0.0015267 196.26 550.34 0.89030 1.8680 2.3178 1880.0 -0.0063502 370.66 0.20661
43.375 33828. undefined 198.13 554.22 0.89622 655.00 0.0015267 198.13 554.22 0.89622 1.8722 2.3212 1881.2 -0.0063413 370.31 0.20686 655.00 0.0015267 198.13 554.22 0.89622 1.8722 2.3212 1881.2 -0.0063413 370.31 0.20686
44.375 34019. undefined 200.00 558.10 0.90213 655.00 0.0015267 200.00 558.10 0.90213 1.8765 2.3247 1882.4 -0.0063325 369.96 0.20712 655.00 0.0015267 200.00 558.10 0.90213 1.8765 2.3247 1882.4 -0.0063325 369.96 0.20712
45.375 34210. undefined 201.88 561.99 0.90804 655.00 0.0015267 201.88 561.99 0.90804 1.8807 2.3281 1883.7 -0.0063237 369.61 0.20737 655.00 0.0015267 201.88 561.99 0.90804 1.8807 2.3281 1883.7 -0.0063237 369.61 0.20737
46.375 34401. undefined 203.77 565.88 0.91394 655.00 0.0015267 203.77 565.88 0.91394 1.8849 2.3316 1884.9 -0.0063148 369.26 0.20763 655.00 0.0015267 203.77 565.88 0.91394 1.8849 2.3316 1884.9 -0.0063148 369.26 0.20763
47.375 34591. undefined 205.65 569.77 0.91984 655.00 0.0015267 205.65 569.77 0.91984 1.8892 2.3351 1886.1 -0.0063060 368.92 0.20788 655.00 0.0015267 205.65 569.77 0.91984 1.8892 2.3351 1886.1 -0.0063060 368.92 0.20788
48.375 34781. undefined 207.54 573.66 0.92573 655.00 0.0015267 207.54 573.66 0.92573 1.8934 2.3386 1887.3 -0.0062972 368.59 0.20814 655.00 0.0015267 207.54 573.66 0.92573 1.8934 2.3386 1887.3 -0.0062972 368.59 0.20814
49.375 34971. undefined 209.44 577.55 0.93162 655.00 0.0015267 209.44 577.55 0.93162 1.8977 2.3421 1888.4 -0.0062883 368.25 0.20840 655.00 0.0015267 209.44 577.55 0.93162 1.8977 2.3421 1888.4 -0.0062883 368.25 0.20840
50.375 35160. undefined 211.34 581.44 0.93750 655.00 0.0015267 211.34 581.44 0.93750 1.9020 2.3456 1889.6 -0.0062795 367.92 0.20865 655.00 0.0015267 211.34 581.44 0.93750 1.9020 2.3456 1889.6 -0.0062795 367.92 0.20865
51.375 35349. undefined 213.24 585.34 0.94337 655.00 0.0015267 213.24 585.34 0.94337 1.9062 2.3491 1890.8 -0.0062706 367.59 0.20891 655.00 0.0015267 213.24 585.34 0.94337 1.9062 2.3491 1890.8 -0.0062706 367.59 0.20891
52.375 35538. undefined 215.15 589.24 0.94924 655.00 0.0015267 215.15 589.24 0.94924 1.9105 2.3526 1892.0 -0.0062618 367.27 0.20917 655.00 0.0015267 215.15 589.24 0.94924 1.9105 2.3526 1892.0 -0.0062618 367.27 0.20917
53.375 35727. undefined 217.06 593.14 0.95511 655.00 0.0015267 217.06 593.14 0.95511 1.9147 2.3561 1893.2 -0.0062529 366.94 0.20943 655.00 0.0015267 217.06 593.14 0.95511 1.9147 2.3561 1893.2 -0.0062529 366.94 0.20943
54.375 35915. undefined 218.98 597.03 0.96097 655.00 0.0015267 218.98 597.03 0.96097 1.9190 2.3597 1894.4 -0.0062441 366.63 0.20968 655.00 0.0015267 218.98 597.03 0.96097 1.9190 2.3597 1894.4 -0.0062441 366.63 0.20968
55.375 36103. undefined 220.90 600.94 0.96683 655.00 0.0015267 220.90 600.94 0.96683 1.9233 2.3632 1895.6 -0.0062353 366.31 0.20994 655.00 0.0015267 220.90 600.94 0.96683 1.9233 2.3632 1895.6 -0.0062353 366.31 0.20994
56.375 36291. undefined 222.83 604.84 0.97268 655.00 0.0015267 222.83 604.84 0.97268 1.9276 2.3668 1896.7 -0.0062264 366.00 0.21020 655.00 0.0015267 222.83 604.84 0.97268 1.9276 2.3668 1896.7 -0.0062264 366.00 0.21020
57.375 36479. undefined 224.76 608.74 0.97853 655.00 0.0015267 224.76 608.74 0.97853 1.9318 2.3703 1897.9 -0.0062176 365.69 0.21046 655.00 0.0015267 224.76 608.74 0.97853 1.9318 2.3703 1897.9 -0.0062176 365.69 0.21046
58.375 36666. undefined 226.69 612.65 0.98437 655.00 0.0015267 226.69 612.65 0.98437 1.9361 2.3739 1899.1 -0.0062088 365.38 0.21072 655.00 0.0015267 226.69 612.65 0.98437 1.9361 2.3739 1899.1 -0.0062088 365.38 0.21072
59.375 36853. undefined 228.63 616.56 0.99021 655.00 0.0015267 228.63 616.56 0.99021 1.9404 2.3774 1900.3 -0.0062000 365.08 0.21098 655.00 0.0015267 228.63 616.56 0.99021 1.9404 2.3774 1900.3 -0.0062000 365.08 0.21098
60.375 37040. undefined 230.57 620.47 0.99604 655.00 0.0015267 230.57 620.47 0.99604 1.9447 2.3810 1901.4 -0.0061912 364.77 0.21124 655.00 0.0015267 230.57 620.47 0.99604 1.9447 2.3810 1901.4 -0.0061912 364.77 0.21124
61.375 37226. undefined 232.52 624.38 1.0019 655.00 0.0015267 232.52 624.38 1.0019 1.9490 2.3846 1902.6 -0.0061823 364.47 0.21150 655.00 0.0015267 232.52 624.38 1.0019 1.9490 2.3846 1902.6 -0.0061823 364.47 0.21150
62.375 37413. undefined 234.47 628.29 1.0077 655.00 0.0015267 234.47 628.29 1.0077 1.9532 2.3882 1903.7 -0.0061735 364.18 0.21176 655.00 0.0015267 234.47 628.29 1.0077 1.9532 2.3882 1903.7 -0.0061735 364.18 0.21176
63.375 37599. undefined 236.43 632.20 1.0135 655.00 0.0015267 236.43 632.20 1.0135 1.9575 2.3918 1904.9 -0.0061647 363.89 0.21202 655.00 0.0015267 236.43 632.20 1.0135 1.9575 2.3918 1904.9 -0.0061647 363.89 0.21202
64.375 37785. undefined 238.38 636.12 1.0193 655.00 0.0015267 238.38 636.12 1.0193 1.9618 2.3954 1906.1 -0.0061560 363.59 0.21228 655.00 0.0015267 238.38 636.12 1.0193 1.9618 2.3954 1906.1 -0.0061560 363.59 0.21228
65.375 37970. undefined 240.35 640.04 1.0251 655.00 0.0015267 240.35 640.04 1.0251 1.9661 2.3990 1907.2 -0.0061472 363.31 0.21254 655.00 0.0015267 240.35 640.04 1.0251 1.9661 2.3990 1907.2 -0.0061472 363.31 0.21254
66.375 38156. undefined 242.32 643.96 1.0309 655.00 0.0015267 242.32 643.96 1.0309 1.9704 2.4026 1908.4 -0.0061384 363.02 0.21280 655.00 0.0015267 242.32 643.96 1.0309 1.9704 2.4026 1908.4 -0.0061384 363.02 0.21280
67.375 38341. undefined 244.29 647.88 1.0367 655.00 0.0015267 244.29 647.88 1.0367 1.9747 2.4062 1909.5 -0.0061296 362.74 0.21306 655.00 0.0015267 244.29 647.88 1.0367 1.9747 2.4062 1909.5 -0.0061296 362.74 0.21306
68.375 38526. undefined 246.27 651.80 1.0425 655.00 0.0015267 246.27 651.80 1.0425 1.9790 2.4098 1910.7 -0.0061209 362.46 0.21332 655.00 0.0015267 246.27 651.80 1.0425 1.9790 2.4098 1910.7 -0.0061209 362.46 0.21332
69.375 38710. undefined 248.25 655.73 1.0483 655.00 0.0015267 248.25 655.73 1.0483 1.9833 2.4134 1911.8 -0.0061121 362.18 0.21359 655.00 0.0015267 248.25 655.73 1.0483 1.9833 2.4134 1911.8 -0.0061121 362.18 0.21359
70.375 38895. undefined 250.23 659.65 1.0541 655.00 0.0015267 250.23 659.65 1.0541 1.9876 2.4170 1913.0 -0.0061034 361.91 0.21385 655.00 0.0015267 250.23 659.65 1.0541 1.9876 2.4170 1913.0 -0.0061034 361.91 0.21385
71.375 39079. undefined 252.22 663.58 1.0599 655.00 0.0015267 252.22 663.58 1.0599 1.9919 2.4207 1914.1 -0.0060947 361.63 0.21411 655.00 0.0015267 252.22 663.58 1.0599 1.9919 2.4207 1914.1 -0.0060947 361.63 0.21411
72.375 39263. undefined 254.22 667.51 1.0657 655.00 0.0015267 254.22 667.51 1.0657 1.9962 2.4243 1915.2 -0.0060859 361.36 0.21438 655.00 0.0015267 254.22 667.51 1.0657 1.9962 2.4243 1915.2 -0.0060859 361.36 0.21438
73.375 39446. undefined 256.22 671.44 1.0715 655.00 0.0015267 256.22 671.44 1.0715 2.0005 2.4279 1916.4 -0.0060772 361.09 0.21464 655.00 0.0015267 256.22 671.44 1.0715 2.0005 2.4279 1916.4 -0.0060772 361.09 0.21464
74.375 39630. undefined 258.22 675.37 1.0772 655.00 0.0015267 258.22 675.37 1.0772 2.0048 2.4316 1917.5 -0.0060685 360.83 0.21490 655.00 0.0015267 258.22 675.37 1.0772 2.0048 2.4316 1917.5 -0.0060685 360.83 0.21490
75.375 39813. undefined 260.22 679.31 1.0830 655.00 0.0015267 260.22 679.31 1.0830 2.0091 2.4352 1918.6 -0.0060599 360.57 0.21517 655.00 0.0015267 260.22 679.31 1.0830 2.0091 2.4352 1918.6 -0.0060599 360.57 0.21517
76.375 39996. undefined 262.24 683.25 1.0888 655.00 0.0015267 262.24 683.25 1.0888 2.0134 2.4389 1919.8 -0.0060512 360.31 0.21543 655.00 0.0015267 262.24 683.25 1.0888 2.0134 2.4389 1919.8 -0.0060512 360.31 0.21543
77.375 40179. undefined 264.25 687.19 1.0945 655.00 0.0015267 264.25 687.19 1.0945 2.0177 2.4425 1920.9 -0.0060425 360.05 0.21570 655.00 0.0015267 264.25 687.19 1.0945 2.0177 2.4425 1920.9 -0.0060425 360.05 0.21570
78.375 40361. undefined 266.27 691.13 1.1003 655.00 0.0015267 266.27 691.13 1.1003 2.0219 2.4462 1922.0 -0.0060339 359.79 0.21596 655.00 0.0015267 266.27 691.13 1.1003 2.0219 2.4462 1922.0 -0.0060339 359.79 0.21596
79.375 40543. undefined 268.30 695.07 1.1060 655.00 0.0015267 268.30 695.07 1.1060 2.0262 2.4499 1923.1 -0.0060252 359.54 0.21623 655.00 0.0015267 268.30 695.07 1.1060 2.0262 2.4499 1923.1 -0.0060252 359.54 0.21623
80.375 40725. undefined 270.32 699.01 1.1118 655.00 0.0015267 270.32 699.01 1.1118 2.0305 2.4535 1924.3 -0.0060166 359.29 0.21649 655.00 0.0015267 270.32 699.01 1.1118 2.0305 2.4535 1924.3 -0.0060166 359.29 0.21649
81.375 40907. undefined 272.36 702.96 1.1175 655.00 0.0015267 272.36 702.96 1.1175 2.0348 2.4572 1925.4 -0.0060080 359.04 0.21676 655.00 0.0015267 272.36 702.96 1.1175 2.0348 2.4572 1925.4 -0.0060080 359.04 0.21676
82.375 41089. undefined 274.39 706.91 1.1232 655.00 0.0015267 274.39 706.91 1.1232 2.0391 2.4609 1926.5 -0.0059994 358.79 0.21702 655.00 0.0015267 274.39 706.91 1.1232 2.0391 2.4609 1926.5 -0.0059994 358.79 0.21702
83.375 41270. undefined 276.43 710.86 1.1290 655.00 0.0015267 276.43 710.86 1.1290 2.0434 2.4645 1927.6 -0.0059908 358.54 0.21729 655.00 0.0015267 276.43 710.86 1.1290 2.0434 2.4645 1927.6 -0.0059908 358.54 0.21729
84.375 41451. undefined 278.48 714.81 1.1347 655.00 0.0015267 278.48 714.81 1.1347 2.0477 2.4682 1928.7 -0.0059823 358.30 0.21756 655.00 0.0015267 278.48 714.81 1.1347 2.0477 2.4682 1928.7 -0.0059823 358.30 0.21756
85.375 41632. undefined 280.53 718.76 1.1404 655.00 0.0015267 280.53 718.76 1.1404 2.0520 2.4719 1929.8 -0.0059737 358.06 0.21782 655.00 0.0015267 280.53 718.76 1.1404 2.0520 2.4719 1929.8 -0.0059737 358.06 0.21782
86.375 41813. undefined 282.58 722.72 1.1462 655.00 0.0015267 282.58 722.72 1.1462 2.0563 2.4756 1930.9 -0.0059652 357.82 0.21809 655.00 0.0015267 282.58 722.72 1.1462 2.0563 2.4756 1930.9 -0.0059652 357.82 0.21809
87.375 41993. undefined 284.64 726.68 1.1519 655.00 0.0015267 284.64 726.68 1.1519 2.0606 2.4793 1932.1 -0.0059567 357.59 0.21836 655.00 0.0015267 284.64 726.68 1.1519 2.0606 2.4793 1932.1 -0.0059567 357.59 0.21836
88.375 42173. undefined 286.71 730.64 1.1576 655.00 0.0015267 286.71 730.64 1.1576 2.0649 2.4830 1933.2 -0.0059482 357.35 0.21863 655.00 0.0015267 286.71 730.64 1.1576 2.0649 2.4830 1933.2 -0.0059482 357.35 0.21863
89.375 42353. undefined 288.77 734.60 1.1633 655.00 0.0015267 288.77 734.60 1.1633 2.0692 2.4867 1934.3 -0.0059397 357.12 0.21889 655.00 0.0015267 288.77 734.60 1.1633 2.0692 2.4867 1934.3 -0.0059397 357.12 0.21889
90.375 42533. undefined 290.84 738.56 1.1690 655.00 0.0015267 290.84 738.56 1.1690 2.0735 2.4904 1935.4 -0.0059312 356.89 0.21916 655.00 0.0015267 290.84 738.56 1.1690 2.0735 2.4904 1935.4 -0.0059312 356.89 0.21916
91.375 42713. undefined 292.92 742.53 1.1747 655.00 0.0015267 292.92 742.53 1.1747 2.0778 2.4941 1936.5 -0.0059227 356.66 0.21943 655.00 0.0015267 292.92 742.53 1.1747 2.0778 2.4941 1936.5 -0.0059227 356.66 0.21943
92.375 42892. undefined 295.00 746.50 1.1804 655.00 0.0015267 295.00 746.50 1.1804 2.0821 2.4978 1937.6 -0.0059143 356.43 0.21970 655.00 0.0015267 295.00 746.50 1.1804 2.0821 2.4978 1937.6 -0.0059143 356.43 0.21970
93.375 43071. undefined 297.08 750.47 1.1861 655.00 0.0015267 297.08 750.47 1.1861 2.0864 2.5015 1938.7 -0.0059059 356.21 0.21997 655.00 0.0015267 297.08 750.47 1.1861 2.0864 2.5015 1938.7 -0.0059059 356.21 0.21997
94.375 43250. undefined 299.17 754.44 1.1918 655.00 0.0015267 299.17 754.44 1.1918 2.0907 2.5052 1939.8 -0.0058975 355.99 0.22024 655.00 0.0015267 299.17 754.44 1.1918 2.0907 2.5052 1939.8 -0.0058975 355.99 0.22024
95.375 43429. undefined 301.26 758.41 1.1975 655.00 0.0015267 301.26 758.41 1.1975 2.0949 2.5089 1940.8 -0.0058891 355.77 0.22051 655.00 0.0015267 301.26 758.41 1.1975 2.0949 2.5089 1940.8 -0.0058891 355.77 0.22051
96.375 43607. undefined 303.36 762.39 1.2032 655.00 0.0015267 303.36 762.39 1.2032 2.0992 2.5126 1941.9 -0.0058807 355.55 0.22078 655.00 0.0015267 303.36 762.39 1.2032 2.0992 2.5126 1941.9 -0.0058807 355.55 0.22078
97.375 43785. undefined 305.46 766.36 1.2088 655.00 0.0015267 305.46 766.36 1.2088 2.1035 2.5163 1943.0 -0.0058723 355.33 0.22105 655.00 0.0015267 305.46 766.36 1.2088 2.1035 2.5163 1943.0 -0.0058723 355.33 0.22105
98.375 43963. undefined 307.57 770.34 1.2145 655.00 0.0015267 307.57 770.34 1.2145 2.1078 2.5200 1944.1 -0.0058640 355.12 0.22132 655.00 0.0015267 307.57 770.34 1.2145 2.1078 2.5200 1944.1 -0.0058640 355.12 0.22132
99.375 44141. undefined 309.68 774.32 1.2202 655.00 0.0015267 309.68 774.32 1.2202 2.1121 2.5237 1945.2 -0.0058557 354.90 0.22159 655.00 0.0015267 309.68 774.32 1.2202 2.1121 2.5237 1945.2 -0.0058557 354.90 0.22159
100.38 44319. undefined 311.79 778.31 1.2259 655.00 0.0015267 311.79 778.31 1.2259 2.1164 2.5274 1946.3 -0.0058474 354.69 0.22186 655.00 0.0015267 311.79 778.31 1.2259 2.1164 2.5274 1946.3 -0.0058474 354.69 0.22186
101.38 44496. undefined 313.91 782.29 1.2315 655.00 0.0015267 313.91 782.29 1.2315 2.1206 2.5311 1947.4 -0.0058391 354.48 0.22213 655.00 0.0015267 313.91 782.29 1.2315 2.1206 2.5311 1947.4 -0.0058391 354.48 0.22213
102.38 44673. undefined 316.03 786.28 1.2372 655.00 0.0015267 316.03 786.28 1.2372 2.1249 2.5348 1948.4 -0.0058308 354.27 0.22241 655.00 0.0015267 316.03 786.28 1.2372 2.1249 2.5348 1948.4 -0.0058308 354.27 0.22241
103.38 44850. undefined 318.16 790.27 1.2428 655.00 0.0015267 318.16 790.27 1.2428 2.1292 2.5386 1949.5 -0.0058226 354.07 0.22268 655.00 0.0015267 318.16 790.27 1.2428 2.1292 2.5386 1949.5 -0.0058226 354.07 0.22268
104.38 45027. undefined 320.29 794.26 1.2485 655.00 0.0015267 320.29 794.26 1.2485 2.1335 2.5423 1950.6 -0.0058144 353.86 0.22295 655.00 0.0015267 320.29 794.26 1.2485 2.1335 2.5423 1950.6 -0.0058144 353.86 0.22295
105.38 45204. undefined 322.43 798.26 1.2541 655.00 0.0015267 322.43 798.26 1.2541 2.1377 2.5460 1951.7 -0.0058062 353.66 0.22322 655.00 0.0015267 322.43 798.26 1.2541 2.1377 2.5460 1951.7 -0.0058062 353.66 0.22322
106.38 45380. undefined 324.57 802.25 1.2598 655.00 0.0015267 324.57 802.25 1.2598 2.1420 2.5497 1952.7 -0.0057980 353.46 0.22350 655.00 0.0015267 324.57 802.25 1.2598 2.1420 2.5497 1952.7 -0.0057980 353.46 0.22350
107.38 45556. undefined 326.71 806.25 1.2654 655.00 0.0015267 326.71 806.25 1.2654 2.1463 2.5534 1953.8 -0.0057898 353.26 0.22377 655.00 0.0015267 326.71 806.25 1.2654 2.1463 2.5534 1953.8 -0.0057898 353.26 0.22377
108.38 45732. undefined 328.86 810.25 1.2711 655.00 0.0015267 328.86 810.25 1.2711 2.1505 2.5572 1954.9 -0.0057816 353.06 0.22404 655.00 0.0015267 328.86 810.25 1.2711 2.1505 2.5572 1954.9 -0.0057816 353.06 0.22404
109.38 45908. undefined 331.01 814.25 1.2767 655.00 0.0015267 331.01 814.25 1.2767 2.1548 2.5609 1956.0 -0.0057735 352.87 0.22432 655.00 0.0015267 331.01 814.25 1.2767 2.1548 2.5609 1956.0 -0.0057735 352.87 0.22432
110.38 46083. undefined 333.17 818.26 1.2823 655.00 0.0015267 333.17 818.26 1.2823 2.1591 2.5646 1957.0 -0.0057654 352.67 0.22459 655.00 0.0015267 333.17 818.26 1.2823 2.1591 2.5646 1957.0 -0.0057654 352.67 0.22459
111.38 46259. undefined 335.33 822.27 1.2880 655.00 0.0015267 335.33 822.27 1.2880 2.1633 2.5683 1958.1 -0.0057573 352.48 0.22487 655.00 0.0015267 335.33 822.27 1.2880 2.1633 2.5683 1958.1 -0.0057573 352.48 0.22487
112.38 46434. undefined 337.50 826.27 1.2936 655.00 0.0015267 337.50 826.27 1.2936 2.1676 2.5720 1959.1 -0.0057492 352.29 0.22514 655.00 0.0015267 337.50 826.27 1.2936 2.1676 2.5720 1959.1 -0.0057492 352.29 0.22514
113.38 46609. undefined 339.67 830.28 1.2992 655.00 0.0015267 339.67 830.28 1.2992 2.1718 2.5758 1960.2 -0.0057412 352.10 0.22542 655.00 0.0015267 339.67 830.28 1.2992 2.1718 2.5758 1960.2 -0.0057412 352.10 0.22542
114.38 46783. undefined 341.84 834.30 1.3048 655.00 0.0015267 341.84 834.30 1.3048 2.1761 2.5795 1961.3 -0.0057332 351.91 0.22569 655.00 0.0015267 341.84 834.30 1.3048 2.1761 2.5795 1961.3 -0.0057332 351.91 0.22569
115.38 46958. undefined 344.02 838.31 1.3104 655.00 0.0015267 344.02 838.31 1.3104 2.1803 2.5832 1962.3 -0.0057251 351.73 0.22597 655.00 0.0015267 344.02 838.31 1.3104 2.1803 2.5832 1962.3 -0.0057251 351.73 0.22597
116.38 47132. undefined 346.20 842.33 1.3160 655.00 0.0015267 346.20 842.33 1.3160 2.1846 2.5869 1963.4 -0.0057172 351.54 0.22624 655.00 0.0015267 346.20 842.33 1.3160 2.1846 2.5869 1963.4 -0.0057172 351.54 0.22624
117.38 47306. undefined 348.39 846.35 1.3216 655.00 0.0015267 348.39 846.35 1.3216 2.1888 2.5907 1964.4 -0.0057092 351.36 0.22652 655.00 0.0015267 348.39 846.35 1.3216 2.1888 2.5907 1964.4 -0.0057092 351.36 0.22652
118.38 47480. undefined 350.58 850.37 1.3272 655.00 0.0015267 350.58 850.37 1.3272 2.1930 2.5944 1965.5 -0.0057012 351.18 0.22680 655.00 0.0015267 350.58 850.37 1.3272 2.1930 2.5944 1965.5 -0.0057012 351.18 0.22680
119.38 47654. undefined 352.77 854.39 1.3328 655.00 0.0015267 352.77 854.39 1.3328 2.1973 2.5981 1966.5 -0.0056933 351.00 0.22707 655.00 0.0015267 352.77 854.39 1.3328 2.1973 2.5981 1966.5 -0.0056933 351.00 0.22707
120.38 47827. undefined 354.97 858.42 1.3384 655.00 0.0015267 354.97 858.42 1.3384 2.2015 2.6018 1967.6 -0.0056854 350.82 0.22735 655.00 0.0015267 354.97 858.42 1.3384 2.2015 2.6018 1967.6 -0.0056854 350.82 0.22735
121.38 48001. undefined 357.18 862.45 1.3440 655.00 0.0015267 357.18 862.45 1.3440 2.2057 2.6055 1968.6 -0.0056775 350.64 0.22763 655.00 0.0015267 357.18 862.45 1.3440 2.2057 2.6055 1968.6 -0.0056775 350.64 0.22763
122.38 48174. undefined 359.39 866.48 1.3496 655.00 0.0015267 359.39 866.48 1.3496 2.2100 2.6093 1969.7 -0.0056697 350.46 0.22791 655.00 0.0015267 359.39 866.48 1.3496 2.2100 2.6093 1969.7 -0.0056697 350.46 0.22791
123.38 48347. undefined 361.60 870.51 1.3552 655.00 0.0015267 361.60 870.51 1.3552 2.2142 2.6130 1970.7 -0.0056618 350.29 0.22818 655.00 0.0015267 361.60 870.51 1.3552 2.2142 2.6130 1970.7 -0.0056618 350.29 0.22818
124.38 48519. undefined 363.81 874.55 1.3608 655.00 0.0015267 363.81 874.55 1.3608 2.2184 2.6167 1971.8 -0.0056540 350.12 0.22846 655.00 0.0015267 363.81 874.55 1.3608 2.2184 2.6167 1971.8 -0.0056540 350.12 0.22846
125.38 48692. undefined 366.03 878.58 1.3664 655.00 0.0015267 366.03 878.58 1.3664 2.2226 2.6204 1972.8 -0.0056462 349.95 0.22874 655.00 0.0015267 366.03 878.58 1.3664 2.2226 2.6204 1972.8 -0.0056462 349.95 0.22874
126.38 48864. undefined 368.26 882.62 1.3719 655.00 0.0015267 368.26 882.62 1.3719 2.2269 2.6241 1973.8 -0.0056384 349.78 0.22902 655.00 0.0015267 368.26 882.62 1.3719 2.2269 2.6241 1973.8 -0.0056384 349.78 0.22902
127.38 49036. undefined 370.49 886.66 1.3775 655.00 0.0015267 370.49 886.66 1.3775 2.2311 2.6279 1974.9 -0.0056306 349.61 0.22930 655.00 0.0015267 370.49 886.66 1.3775 2.2311 2.6279 1974.9 -0.0056306 349.61 0.22930
128.38 49208. undefined 372.72 890.71 1.3831 655.00 0.0015267 372.72 890.71 1.3831 2.2353 2.6316 1975.9 -0.0056229 349.44 0.22958 655.00 0.0015267 372.72 890.71 1.3831 2.2353 2.6316 1975.9 -0.0056229 349.44 0.22958
129.38 49380. undefined 374.96 894.75 1.3887 655.00 0.0015267 374.96 894.75 1.3887 2.2395 2.6353 1977.0 -0.0056152 349.27 0.22986 655.00 0.0015267 374.96 894.75 1.3887 2.2395 2.6353 1977.0 -0.0056152 349.27 0.22986
130.38 49552. undefined 377.20 898.80 1.3942 655.00 0.0015267 377.20 898.80 1.3942 2.2437 2.6390 1978.0 -0.0056075 349.11 0.23014 655.00 0.0015267 377.20 898.80 1.3942 2.2437 2.6390 1978.0 -0.0056075 349.11 0.23014
131.38 49723. undefined 379.45 902.85 1.3998 655.00 0.0015267 379.45 902.85 1.3998 2.2479 2.6427 1979.0 -0.0055998 348.95 0.23042 655.00 0.0015267 379.45 902.85 1.3998 2.2479 2.6427 1979.0 -0.0055998 348.95 0.23042
132.38 49894. undefined 381.70 906.90 1.4053 655.00 0.0015267 381.70 906.90 1.4053 2.2521 2.6464 1980.1 -0.0055922 348.78 0.23070 655.00 0.0015267 381.70 906.90 1.4053 2.2521 2.6464 1980.1 -0.0055922 348.78 0.23070
133.38 50065. undefined 383.95 910.96 1.4109 655.00 0.0015267 383.95 910.96 1.4109 2.2563 2.6501 1981.1 -0.0055845 348.62 0.23098 655.00 0.0015267 383.95 910.96 1.4109 2.2563 2.6501 1981.1 -0.0055845 348.62 0.23098
134.38 50236. undefined 386.21 915.01 1.4164 655.00 0.0015267 386.21 915.01 1.4164 2.2605 2.6538 1982.1 -0.0055769 348.46 0.23126 655.00 0.0015267 386.21 915.01 1.4164 2.2605 2.6538 1982.1 -0.0055769 348.46 0.23126
135.38 50407. undefined 388.47 919.07 1.4220 655.00 0.0015267 388.47 919.07 1.4220 2.2647 2.6576 1983.1 -0.0055694 348.31 0.23154 655.00 0.0015267 388.47 919.07 1.4220 2.2647 2.6576 1983.1 -0.0055694 348.31 0.23154
136.38 50577. undefined 390.74 923.13 1.4275 655.00 0.0015267 390.74 923.13 1.4275 2.2688 2.6613 1984.2 -0.0055618 348.15 0.23182 655.00 0.0015267 390.74 923.13 1.4275 2.2688 2.6613 1984.2 -0.0055618 348.15 0.23182
137.38 50748. undefined 393.01 927.20 1.4331 655.00 0.0015267 393.01 927.20 1.4331 2.2730 2.6650 1985.2 -0.0055542 347.99 0.23211 655.00 0.0015267 393.01 927.20 1.4331 2.2730 2.6650 1985.2 -0.0055542 347.99 0.23211
138.38 50918. undefined 395.28 931.26 1.4386 655.00 0.0015267 395.28 931.26 1.4386 2.2772 2.6687 1986.2 -0.0055467 347.84 0.23239 655.00 0.0015267 395.28 931.26 1.4386 2.2772 2.6687 1986.2 -0.0055467 347.84 0.23239
139.38 51088. undefined 397.56 935.33 1.4441 655.00 0.0015267 397.56 935.33 1.4441 2.2814 2.6724 1987.2 -0.0055392 347.69 0.23267 655.00 0.0015267 397.56 935.33 1.4441 2.2814 2.6724 1987.2 -0.0055392 347.69 0.23267
140.38 51257. undefined 399.85 939.40 1.4497 655.00 0.0015267 399.85 939.40 1.4497 2.2855 2.6761 1988.3 -0.0055318 347.53 0.23295 655.00 0.0015267 399.85 939.40 1.4497 2.2855 2.6761 1988.3 -0.0055318 347.53 0.23295
141.38 51427. undefined 402.13 943.47 1.4552 655.00 0.0015267 402.13 943.47 1.4552 2.2897 2.6798 1989.3 -0.0055243 347.38 0.23324 655.00 0.0015267 402.13 943.47 1.4552 2.2897 2.6798 1989.3 -0.0055243 347.38 0.23324
142.38 51596. undefined 404.43 947.55 1.4607 655.00 0.0015267 404.43 947.55 1.4607 2.2939 2.6835 1990.3 -0.0055169 347.23 0.23352 655.00 0.0015267 404.43 947.55 1.4607 2.2939 2.6835 1990.3 -0.0055169 347.23 0.23352
143.38 51765. undefined 406.72 951.62 1.4662 655.00 0.0015267 406.72 951.62 1.4662 2.2980 2.6872 1991.3 -0.0055095 347.08 0.23381 655.00 0.0015267 406.72 951.62 1.4662 2.2980 2.6872 1991.3 -0.0055095 347.08 0.23381
144.38 51934. undefined 409.02 955.70 1.4717 655.00 0.0015267 409.02 955.70 1.4717 2.3022 2.6909 1992.3 -0.0055021 346.94 0.23409 655.00 0.0015267 409.02 955.70 1.4717 2.3022 2.6909 1992.3 -0.0055021 346.94 0.23409
145.38 52103. undefined 411.33 959.78 1.4772 655.00 0.0015267 411.33 959.78 1.4772 2.3063 2.6946 1993.3 -0.0054947 346.79 0.23437 655.00 0.0015267 411.33 959.78 1.4772 2.3063 2.6946 1993.3 -0.0054947 346.79 0.23437
146.38 52272. undefined 413.63 963.87 1.4828 655.00 0.0015267 413.63 963.87 1.4828 2.3105 2.6982 1994.3 -0.0054874 346.65 0.23466 655.00 0.0015267 413.63 963.87 1.4828 2.3105 2.6982 1994.3 -0.0054874 346.65 0.23466
147.38 52440. undefined 415.95 967.95 1.4883 655.00 0.0015267 415.95 967.95 1.4883 2.3146 2.7019 1995.3 -0.0054800 346.50 0.23494 655.00 0.0015267 415.95 967.95 1.4883 2.3146 2.7019 1995.3 -0.0054800 346.50 0.23494
148.38 52609. undefined 418.26 972.04 1.4938 655.00 0.0015267 418.26 972.04 1.4938 2.3187 2.7056 1996.4 -0.0054728 346.36 0.23523 655.00 0.0015267 418.26 972.04 1.4938 2.3187 2.7056 1996.4 -0.0054728 346.36 0.23523
149.38 52777. undefined 420.58 976.13 1.4993 655.00 0.0015267 420.58 976.13 1.4993 2.3229 2.7093 1997.4 -0.0054655 346.22 0.23551 655.00 0.0015267 420.58 976.13 1.4993 2.3229 2.7093 1997.4 -0.0054655 346.22 0.23551
150.38 52945. undefined 422.91 980.22 1.5048 655.00 0.0015267 422.91 980.22 1.5048 2.3270 2.7130 1998.4 -0.0054582 346.08 0.23580 655.00 0.0015267 422.91 980.22 1.5048 2.3270 2.7130 1998.4 -0.0054582 346.08 0.23580
151.38 53113. undefined 425.24 984.32 1.5103 655.00 0.0015267 425.24 984.32 1.5103 2.3311 2.7167 1999.4 -0.0054510 345.94 0.23609 655.00 0.0015267 425.24 984.32 1.5103 2.3311 2.7167 1999.4 -0.0054510 345.94 0.23609
152.38 53280. undefined 427.57 988.42 1.5157 655.00 0.0015267 427.57 988.42 1.5157 2.3352 2.7203 2000.4 -0.0054438 345.80 0.23637 655.00 0.0015267 427.57 988.42 1.5157 2.3352 2.7203 2000.4 -0.0054438 345.80 0.23637
153.38 53448. undefined 429.91 992.52 1.5212 655.00 0.0015267 429.91 992.52 1.5212 2.3394 2.7240 2001.4 -0.0054366 345.66 0.23666 655.00 0.0015267 429.91 992.52 1.5212 2.3394 2.7240 2001.4 -0.0054366 345.66 0.23666
154.38 53615. undefined 432.25 996.62 1.5267 655.00 0.0015267 432.25 996.62 1.5267 2.3435 2.7277 2002.4 -0.0054294 345.53 0.23695 655.00 0.0015267 432.25 996.62 1.5267 2.3435 2.7277 2002.4 -0.0054294 345.53 0.23695
155.38 53782. undefined 434.60 1000.7 1.5322 655.00 0.0015267 434.60 1000.7 1.5322 2.3476 2.7314 2003.4 -0.0054223 345.39 0.23723 655.00 0.0015267 434.60 1000.7 1.5322 2.3476 2.7314 2003.4 -0.0054223 345.39 0.23723
156.38 53949. undefined 436.95 1004.8 1.5377 655.00 0.0015267 436.95 1004.8 1.5377 2.3517 2.7350 2004.4 -0.0054152 345.26 0.23752 655.00 0.0015267 436.95 1004.8 1.5377 2.3517 2.7350 2004.4 -0.0054152 345.26 0.23752
157.38 54115. undefined 439.30 1008.9 1.5431 655.00 0.0015267 439.30 1008.9 1.5431 2.3558 2.7387 2005.4 -0.0054081 345.13 0.23781 655.00 0.0015267 439.30 1008.9 1.5431 2.3558 2.7387 2005.4 -0.0054081 345.13 0.23781
158.38 54282. undefined 441.66 1013.0 1.5486 655.00 0.0015267 441.66 1013.0 1.5486 2.3599 2.7424 2006.4 -0.0054010 344.99 0.23810 655.00 0.0015267 441.66 1013.0 1.5486 2.3599 2.7424 2006.4 -0.0054010 344.99 0.23810
159.38 54448. undefined 444.02 1017.2 1.5541 655.00 0.0015267 444.02 1017.2 1.5541 2.3640 2.7460 2007.4 -0.0053939 344.86 0.23839 655.00 0.0015267 444.02 1017.2 1.5541 2.3640 2.7460 2007.4 -0.0053939 344.86 0.23839
160.38 54615. undefined 446.38 1021.3 1.5595 655.00 0.0015267 446.38 1021.3 1.5595 2.3681 2.7497 2008.4 -0.0053869 344.73 0.23868 655.00 0.0015267 446.38 1021.3 1.5595 2.3681 2.7497 2008.4 -0.0053869 344.73 0.23868
161.38 54781. undefined 448.75 1025.4 1.5650 655.00 0.0015267 448.75 1025.4 1.5650 2.3721 2.7533 2009.3 -0.0053799 344.60 0.23897 655.00 0.0015267 448.75 1025.4 1.5650 2.3721 2.7533 2009.3 -0.0053799 344.60 0.23897
162.38 54946. undefined 451.13 1029.5 1.5705 655.00 0.0015267 451.13 1029.5 1.5705 2.3762 2.7570 2010.3 -0.0053729 344.48 0.23925 655.00 0.0015267 451.13 1029.5 1.5705 2.3762 2.7570 2010.3 -0.0053729 344.48 0.23925
163.38 55112. undefined 453.51 1033.6 1.5759 655.00 0.0015267 453.51 1033.6 1.5759 2.3803 2.7606 2011.3 -0.0053659 344.35 0.23954 655.00 0.0015267 453.51 1033.6 1.5759 2.3803 2.7606 2011.3 -0.0053659 344.35 0.23954
164.38 55278. undefined 455.89 1037.8 1.5814 655.00 0.0015267 455.89 1037.8 1.5814 2.3844 2.7643 2012.3 -0.0053590 344.22 0.23983 655.00 0.0015267 455.89 1037.8 1.5814 2.3844 2.7643 2012.3 -0.0053590 344.22 0.23983
165.38 55443. undefined 458.28 1041.9 1.5868 655.00 0.0015267 458.28 1041.9 1.5868 2.3884 2.7679 2013.3 -0.0053521 344.10 0.24012 655.00 0.0015267 458.28 1041.9 1.5868 2.3884 2.7679 2013.3 -0.0053521 344.10 0.24012
166.38 55608. undefined 460.67 1046.0 1.5923 655.00 0.0015267 460.67 1046.0 1.5923 2.3925 2.7716 2014.3 -0.0053452 343.97 0.24042 655.00 0.0015267 460.67 1046.0 1.5923 2.3925 2.7716 2014.3 -0.0053452 343.97 0.24042
167.38 55773. undefined 463.06 1050.2 1.5977 655.00 0.0015267 463.06 1050.2 1.5977 2.3965 2.7752 2015.3 -0.0053383 343.85 0.24071 655.00 0.0015267 463.06 1050.2 1.5977 2.3965 2.7752 2015.3 -0.0053383 343.85 0.24071
168.38 55938. undefined 465.46 1054.3 1.6031 655.00 0.0015267 465.46 1054.3 1.6031 2.4006 2.7789 2016.2 -0.0053314 343.73 0.24100 655.00 0.0015267 465.46 1054.3 1.6031 2.4006 2.7789 2016.2 -0.0053314 343.73 0.24100
169.38 56103. undefined 467.86 1058.4 1.6086 655.00 0.0015267 467.86 1058.4 1.6086 2.4046 2.7825 2017.2 -0.0053246 343.61 0.24129 655.00 0.0015267 467.86 1058.4 1.6086 2.4046 2.7825 2017.2 -0.0053246 343.61 0.24129
170.38 56267. undefined 470.27 1062.6 1.6140 655.00 0.0015267 470.27 1062.6 1.6140 2.4087 2.7861 2018.2 -0.0053178 343.49 0.24158 655.00 0.0015267 470.27 1062.6 1.6140 2.4087 2.7861 2018.2 -0.0053178 343.49 0.24158
171.38 56432. undefined 472.68 1066.7 1.6194 655.00 0.0015267 472.68 1066.7 1.6194 2.4127 2.7898 2019.2 -0.0053110 343.37 0.24187 655.00 0.0015267 472.68 1066.7 1.6194 2.4127 2.7898 2019.2 -0.0053110 343.37 0.24187
172.38 56596. undefined 475.09 1070.8 1.6249 655.00 0.0015267 475.09 1070.8 1.6249 2.4167 2.7934 2020.2 -0.0053042 343.25 0.24217 655.00 0.0015267 475.09 1070.8 1.6249 2.4167 2.7934 2020.2 -0.0053042 343.25 0.24217
173.38 56760. undefined 477.51 1075.0 1.6303 655.00 0.0015267 477.51 1075.0 1.6303 2.4208 2.7970 2021.1 -0.0052975 343.13 0.24246 655.00 0.0015267 477.51 1075.0 1.6303 2.4208 2.7970 2021.1 -0.0052975 343.13 0.24246
174.38 56924. undefined 479.94 1079.1 1.6357 655.00 0.0015267 479.94 1079.1 1.6357 2.4248 2.8006 2022.1 -0.0052908 343.02 0.24275 655.00 0.0015267 479.94 1079.1 1.6357 2.4248 2.8006 2022.1 -0.0052908 343.02 0.24275
175.38 57088. undefined 482.36 1083.3 1.6411 655.00 0.0015267 482.36 1083.3 1.6411 2.4288 2.8042 2023.1 -0.0052841 342.90 0.24304 655.00 0.0015267 482.36 1083.3 1.6411 2.4288 2.8042 2023.1 -0.0052841 342.90 0.24304
176.38 57251. undefined 484.79 1087.4 1.6465 655.00 0.0015267 484.79 1087.4 1.6465 2.4328 2.8079 2024.0 -0.0052774 342.79 0.24334 655.00 0.0015267 484.79 1087.4 1.6465 2.4328 2.8079 2024.0 -0.0052774 342.79 0.24334
177.38 57415. undefined 487.23 1091.6 1.6519 655.00 0.0015267 487.23 1091.6 1.6519 2.4368 2.8115 2025.0 -0.0052707 342.67 0.24363 655.00 0.0015267 487.23 1091.6 1.6519 2.4368 2.8115 2025.0 -0.0052707 342.67 0.24363
178.38 57578. undefined 489.67 1095.8 1.6574 655.00 0.0015267 489.67 1095.8 1.6574 2.4408 2.8151 2026.0 -0.0052641 342.56 0.24393 655.00 0.0015267 489.67 1095.8 1.6574 2.4408 2.8151 2026.0 -0.0052641 342.56 0.24393
179.38 57741. undefined 492.11 1099.9 1.6628 655.00 0.0015267 492.11 1099.9 1.6628 2.4448 2.8187 2027.0 -0.0052575 342.45 0.24422 655.00 0.0015267 492.11 1099.9 1.6628 2.4448 2.8187 2027.0 -0.0052575 342.45 0.24422
180.38 57904. undefined 494.56 1104.1 1.6682 655.00 0.0015267 494.56 1104.1 1.6682 2.4488 2.8223 2027.9 -0.0052509 342.33 0.24451 655.00 0.0015267 494.56 1104.1 1.6682 2.4488 2.8223 2027.9 -0.0052509 342.33 0.24451
181.38 58067. undefined 497.01 1108.2 1.6736 655.00 0.0015267 497.01 1108.2 1.6736 2.4528 2.8259 2028.9 -0.0052443 342.22 0.24481 655.00 0.0015267 497.01 1108.2 1.6736 2.4528 2.8259 2028.9 -0.0052443 342.22 0.24481
182.38 58229. undefined 499.46 1112.4 1.6789 655.00 0.0015267 499.46 1112.4 1.6789 2.4568 2.8295 2029.9 -0.0052378 342.11 0.24510 655.00 0.0015267 499.46 1112.4 1.6789 2.4568 2.8295 2029.9 -0.0052378 342.11 0.24510
183.38 58392. undefined 501.92 1116.6 1.6843 655.00 0.0015267 501.92 1116.6 1.6843 2.4608 2.8331 2030.8 -0.0052312 342.01 0.24540 655.00 0.0015267 501.92 1116.6 1.6843 2.4608 2.8331 2030.8 -0.0052312 342.01 0.24540
184.38 58554. undefined 504.38 1120.7 1.6897 655.00 0.0015267 504.38 1120.7 1.6897 2.4647 2.8366 2031.8 -0.0052247 341.90 0.24570 655.00 0.0015267 504.38 1120.7 1.6897 2.4647 2.8366 2031.8 -0.0052247 341.90 0.24570
185.38 58716. undefined 506.85 1124.9 1.6951 655.00 0.0015267 506.85 1124.9 1.6951 2.4687 2.8402 2032.7 -0.0052182 341.79 0.24599 655.00 0.0015267 506.85 1124.9 1.6951 2.4687 2.8402 2032.7 -0.0052182 341.79 0.24599
186.38 58878. undefined 509.32 1129.1 1.7005 655.00 0.0015267 509.32 1129.1 1.7005 2.4727 2.8438 2033.7 -0.0052118 341.68 0.24629 655.00 0.0015267 509.32 1129.1 1.7005 2.4727 2.8438 2033.7 -0.0052118 341.68 0.24629
187.38 59040. undefined 511.80 1133.3 1.7059 655.00 0.0015267 511.80 1133.3 1.7059 2.4766 2.8474 2034.7 -0.0052053 341.58 0.24659 655.00 0.0015267 511.80 1133.3 1.7059 2.4766 2.8474 2034.7 -0.0052053 341.58 0.24659
188.38 59202. undefined 514.27 1137.5 1.7113 655.00 0.0015267 514.27 1137.5 1.7113 2.4806 2.8510 2035.6 -0.0051989 341.47 0.24688 655.00 0.0015267 514.27 1137.5 1.7113 2.4806 2.8510 2035.6 -0.0051989 341.47 0.24688
189.38 59363. undefined 516.76 1141.6 1.7166 655.00 0.0015267 516.76 1141.6 1.7166 2.4845 2.8545 2036.6 -0.0051925 341.37 0.24718 655.00 0.0015267 516.76 1141.6 1.7166 2.4845 2.8545 2036.6 -0.0051925 341.37 0.24718
190.38 59524. undefined 519.24 1145.8 1.7220 655.00 0.0015267 519.24 1145.8 1.7220 2.4885 2.8581 2037.5 -0.0051861 341.27 0.24748 655.00 0.0015267 519.24 1145.8 1.7220 2.4885 2.8581 2037.5 -0.0051861 341.27 0.24748
191.38 59686. undefined 521.73 1150.0 1.7274 655.00 0.0015267 521.73 1150.0 1.7274 2.4924 2.8617 2038.5 -0.0051798 341.16 0.24778 655.00 0.0015267 521.73 1150.0 1.7274 2.4924 2.8617 2038.5 -0.0051798 341.16 0.24778
192.38 59847. undefined 524.23 1154.2 1.7327 655.00 0.0015267 524.23 1154.2 1.7327 2.4964 2.8652 2039.4 -0.0051734 341.06 0.24807 655.00 0.0015267 524.23 1154.2 1.7327 2.4964 2.8652 2039.4 -0.0051734 341.06 0.24807
193.38 60008. undefined 526.73 1158.4 1.7381 655.00 0.0015267 526.73 1158.4 1.7381 2.5003 2.8688 2040.4 -0.0051671 340.96 0.24837 655.00 0.0015267 526.73 1158.4 1.7381 2.5003 2.8688 2040.4 -0.0051671 340.96 0.24837
194.38 60168. undefined 529.23 1162.6 1.7434 655.00 0.0015267 529.23 1162.6 1.7434 2.5042 2.8723 2041.3 -0.0051608 340.86 0.24867 655.00 0.0015267 529.23 1162.6 1.7434 2.5042 2.8723 2041.3 -0.0051608 340.86 0.24867
195.38 60329. undefined 531.74 1166.8 1.7488 655.00 0.0015267 531.74 1166.8 1.7488 2.5081 2.8759 2042.3 -0.0051545 340.76 0.24897 655.00 0.0015267 531.74 1166.8 1.7488 2.5081 2.8759 2042.3 -0.0051545 340.76 0.24897
196.38 60489. undefined 534.25 1171.0 1.7542 655.00 0.0015267 534.25 1171.0 1.7542 2.5121 2.8794 2043.2 -0.0051483 340.66 0.24927 655.00 0.0015267 534.25 1171.0 1.7542 2.5121 2.8794 2043.2 -0.0051483 340.66 0.24927
197.38 60650. undefined 536.76 1175.2 1.7595 655.00 0.0015267 536.76 1175.2 1.7595 2.5160 2.8830 2044.2 -0.0051420 340.56 0.24957 655.00 0.0015267 536.76 1175.2 1.7595 2.5160 2.8830 2044.2 -0.0051420 340.56 0.24957
198.38 60810. undefined 539.28 1179.4 1.7648 655.00 0.0015267 539.28 1179.4 1.7648 2.5199 2.8865 2045.1 -0.0051358 340.47 0.24987 655.00 0.0015267 539.28 1179.4 1.7648 2.5199 2.8865 2045.1 -0.0051358 340.47 0.24987
199.38 60970. undefined 541.80 1183.6 1.7702 655.00 0.0015267 541.80 1183.6 1.7702 2.5238 2.8900 2046.1 -0.0051296 340.37 0.25017 655.00 0.0015267 541.80 1183.6 1.7702 2.5238 2.8900 2046.1 -0.0051296 340.37 0.25017
200.38 61130. undefined 544.32 1187.8 1.7755 655.00 0.0015267 544.32 1187.8 1.7755 2.5277 2.8936 2047.0 -0.0051235 340.27 0.25047 655.00 0.0015267 544.32 1187.8 1.7755 2.5277 2.8936 2047.0 -0.0051235 340.27 0.25047
201.38 61289. undefined 546.85 1192.0 1.7809 655.00 0.0015267 546.85 1192.0 1.7809 2.5315 2.8971 2048.0 -0.0051173 340.18 0.25077 655.00 0.0015267 546.85 1192.0 1.7809 2.5315 2.8971 2048.0 -0.0051173 340.18 0.25077
202.38 61449. undefined 549.39 1196.2 1.7862 655.00 0.0015267 549.39 1196.2 1.7862 2.5354 2.9006 2048.9 -0.0051112 340.08 0.25107 655.00 0.0015267 549.39 1196.2 1.7862 2.5354 2.9006 2048.9 -0.0051112 340.08 0.25107
203.38 61608. undefined 551.93 1200.4 1.7915 655.00 0.0015267 551.93 1200.4 1.7915 2.5393 2.9041 2049.8 -0.0051051 339.99 0.25137 655.00 0.0015267 551.93 1200.4 1.7915 2.5393 2.9041 2049.8 -0.0051051 339.99 0.25137
204.38 61768. undefined 554.47 1204.7 1.7969 655.00 0.0015267 554.47 1204.7 1.7969 2.5432 2.9077 2050.8 -0.0050990 339.90 0.25167 655.00 0.0015267 554.47 1204.7 1.7969 2.5432 2.9077 2050.8 -0.0050990 339.90 0.25167
205.38 61927. undefined 557.01 1208.9 1.8022 655.00 0.0015267 557.01 1208.9 1.8022 2.5471 2.9112 2051.7 -0.0050929 339.80 0.25198 655.00 0.0015267 557.01 1208.9 1.8022 2.5471 2.9112 2051.7 -0.0050929 339.80 0.25198
206.38 62086. undefined 559.56 1213.1 1.8075 655.00 0.0015267 559.56 1213.1 1.8075 2.5509 2.9147 2052.6 -0.0050868 339.71 0.25228 655.00 0.0015267 559.56 1213.1 1.8075 2.5509 2.9147 2052.6 -0.0050868 339.71 0.25228
207.38 62244. undefined 562.11 1217.3 1.8128 655.00 0.0015267 562.11 1217.3 1.8128 2.5548 2.9182 2053.6 -0.0050808 339.62 0.25258 655.00 0.0015267 562.11 1217.3 1.8128 2.5548 2.9182 2053.6 -0.0050808 339.62 0.25258
208.38 62403. undefined 564.67 1221.5 1.8181 655.00 0.0015267 564.67 1221.5 1.8181 2.5586 2.9217 2054.5 -0.0050748 339.53 0.25288 655.00 0.0015267 564.67 1221.5 1.8181 2.5586 2.9217 2054.5 -0.0050748 339.53 0.25288
209.38 62562. undefined 567.23 1225.8 1.8234 655.00 0.0015267 567.23 1225.8 1.8234 2.5625 2.9252 2055.5 -0.0050688 339.44 0.25319 655.00 0.0015267 567.23 1225.8 1.8234 2.5625 2.9252 2055.5 -0.0050688 339.44 0.25319
210.38 62720. undefined 569.80 1230.0 1.8288 655.00 0.0015267 569.80 1230.0 1.8288 2.5663 2.9287 2056.4 -0.0050628 339.35 0.25349 655.00 0.0015267 569.80 1230.0 1.8288 2.5663 2.9287 2056.4 -0.0050628 339.35 0.25349
211.38 62878. undefined 572.36 1234.2 1.8341 655.00 0.0015267 572.36 1234.2 1.8341 2.5702 2.9322 2057.3 -0.0050569 339.26 0.25379 655.00 0.0015267 572.36 1234.2 1.8341 2.5702 2.9322 2057.3 -0.0050569 339.26 0.25379
212.38 63036. undefined 574.94 1238.5 1.8394 655.00 0.0015267 574.94 1238.5 1.8394 2.5740 2.9356 2058.2 -0.0050510 339.18 0.25410 655.00 0.0015267 574.94 1238.5 1.8394 2.5740 2.9356 2058.2 -0.0050510 339.18 0.25410
213.38 63194. undefined 577.51 1242.7 1.8447 655.00 0.0015267 577.51 1242.7 1.8447 2.5778 2.9391 2059.2 -0.0050450 339.09 0.25440 655.00 0.0015267 577.51 1242.7 1.8447 2.5778 2.9391 2059.2 -0.0050450 339.09 0.25440
214.38 63352. undefined 580.09 1247.0 1.8500 655.00 0.0015267 580.09 1247.0 1.8500 2.5816 2.9426 2060.1 -0.0050392 339.00 0.25471 655.00 0.0015267 580.09 1247.0 1.8500 2.5816 2.9426 2060.1 -0.0050392 339.00 0.25471
215.38 63510. undefined 582.67 1251.2 1.8553 655.00 0.0015267 582.67 1251.2 1.8553 2.5855 2.9461 2061.0 -0.0050333 338.92 0.25501 655.00 0.0015267 582.67 1251.2 1.8553 2.5855 2.9461 2061.0 -0.0050333 338.92 0.25501
216.38 63667. undefined 585.26 1255.4 1.8605 655.00 0.0015267 585.26 1255.4 1.8605 2.5893 2.9496 2062.0 -0.0050274 338.83 0.25532 655.00 0.0015267 585.26 1255.4 1.8605 2.5893 2.9496 2062.0 -0.0050274 338.83 0.25532
217.38 63825. undefined 587.85 1259.7 1.8658 655.00 0.0015267 587.85 1259.7 1.8658 2.5931 2.9530 2062.9 -0.0050216 338.75 0.25562 655.00 0.0015267 587.85 1259.7 1.8658 2.5931 2.9530 2062.9 -0.0050216 338.75 0.25562
218.38 63982. undefined 590.45 1263.9 1.8711 655.00 0.0015267 590.45 1263.9 1.8711 2.5969 2.9565 2063.8 -0.0050158 338.66 0.25593 655.00 0.0015267 590.45 1263.9 1.8711 2.5969 2.9565 2063.8 -0.0050158 338.66 0.25593
219.38 64139. undefined 593.05 1268.2 1.8764 655.00 0.0015267 593.05 1268.2 1.8764 2.6007 2.9599 2064.7 -0.0050100 338.58 0.25623 655.00 0.0015267 593.05 1268.2 1.8764 2.6007 2.9599 2064.7 -0.0050100 338.58 0.25623
220.38 64296. undefined 595.65 1272.5 1.8817 655.00 0.0015267 595.65 1272.5 1.8817 2.6045 2.9634 2065.6 -0.0050042 338.50 0.25654 655.00 0.0015267 595.65 1272.5 1.8817 2.6045 2.9634 2065.6 -0.0050042 338.50 0.25654
221.38 64453. undefined 598.26 1276.7 1.8870 655.00 0.0015267 598.26 1276.7 1.8870 2.6083 2.9668 2066.6 -0.0049985 338.41 0.25685 655.00 0.0015267 598.26 1276.7 1.8870 2.6083 2.9668 2066.6 -0.0049985 338.41 0.25685
222.38 64610. undefined 600.87 1281.0 1.8922 655.00 0.0015267 600.87 1281.0 1.8922 2.6120 2.9703 2067.5 -0.0049927 338.33 0.25715 655.00 0.0015267 600.87 1281.0 1.8922 2.6120 2.9703 2067.5 -0.0049927 338.33 0.25715
223.38 64766. undefined 603.48 1285.2 1.8975 655.00 0.0015267 603.48 1285.2 1.8975 2.6158 2.9737 2068.4 -0.0049870 338.25 0.25746 655.00 0.0015267 603.48 1285.2 1.8975 2.6158 2.9737 2068.4 -0.0049870 338.25 0.25746
224.38 64922. undefined 606.10 1289.5 1.9028 655.00 0.0015267 606.10 1289.5 1.9028 2.6196 2.9772 2069.3 -0.0049813 338.17 0.25777 655.00 0.0015267 606.10 1289.5 1.9028 2.6196 2.9772 2069.3 -0.0049813 338.17 0.25777
225.38 65079. undefined 608.72 1293.8 1.9080 655.00 0.0015267 608.72 1293.8 1.9080 2.6233 2.9806 2070.2 -0.0049756 338.09 0.25808 655.00 0.0015267 608.72 1293.8 1.9080 2.6233 2.9806 2070.2 -0.0049756 338.09 0.25808
226.38 65235. undefined 611.34 1298.0 1.9133 655.00 0.0015267 611.34 1298.0 1.9133 2.6271 2.9840 2071.2 -0.0049700 338.01 0.25839 655.00 0.0015267 611.34 1298.0 1.9133 2.6271 2.9840 2071.2 -0.0049700 338.01 0.25839
227.38 65391. undefined 613.97 1302.3 1.9185 655.00 0.0015267 613.97 1302.3 1.9185 2.6309 2.9875 2072.1 -0.0049643 337.93 0.25869 655.00 0.0015267 613.97 1302.3 1.9185 2.6309 2.9875 2072.1 -0.0049643 337.93 0.25869
228.38 65547. undefined 616.61 1306.6 1.9238 655.00 0.0015267 616.61 1306.6 1.9238 2.6346 2.9909 2073.0 -0.0049587 337.85 0.25900 655.00 0.0015267 616.61 1306.6 1.9238 2.6346 2.9909 2073.0 -0.0049587 337.85 0.25900
229.38 65702. undefined 619.24 1310.8 1.9291 655.00 0.0015267 619.24 1310.8 1.9291 2.6384 2.9943 2073.9 -0.0049531 337.78 0.25931 655.00 0.0015267 619.24 1310.8 1.9291 2.6384 2.9943 2073.9 -0.0049531 337.78 0.25931
230.38 65858. undefined 621.88 1315.1 1.9343 655.00 0.0015267 621.88 1315.1 1.9343 2.6421 2.9977 2074.8 -0.0049475 337.70 0.25962 655.00 0.0015267 621.88 1315.1 1.9343 2.6421 2.9977 2074.8 -0.0049475 337.70 0.25962
231.38 66013. undefined 624.53 1319.4 1.9395 655.00 0.0015267 624.53 1319.4 1.9395 2.6458 3.0011 2075.7 -0.0049419 337.62 0.25993 655.00 0.0015267 624.53 1319.4 1.9395 2.6458 3.0011 2075.7 -0.0049419 337.62 0.25993
232.38 66169. undefined 627.17 1323.7 1.9448 655.00 0.0015267 627.17 1323.7 1.9448 2.6496 3.0045 2076.6 -0.0049364 337.55 0.26024 655.00 0.0015267 627.17 1323.7 1.9448 2.6496 3.0045 2076.6 -0.0049364 337.55 0.26024
233.38 66324. undefined 629.83 1328.0 1.9500 655.00 0.0015267 629.83 1328.0 1.9500 2.6533 3.0079 2077.5 -0.0049309 337.47 0.26055 655.00 0.0015267 629.83 1328.0 1.9500 2.6533 3.0079 2077.5 -0.0049309 337.47 0.26055
234.38 66479. undefined 632.48 1332.3 1.9553 655.00 0.0015267 632.48 1332.3 1.9553 2.6570 3.0113 2078.4 -0.0049254 337.40 0.26086 655.00 0.0015267 632.48 1332.3 1.9553 2.6570 3.0113 2078.4 -0.0049254 337.40 0.26086
235.38 66634. undefined 635.14 1336.6 1.9605 655.00 0.0015267 635.14 1336.6 1.9605 2.6607 3.0147 2079.3 -0.0049199 337.32 0.26117 655.00 0.0015267 635.14 1336.6 1.9605 2.6607 3.0147 2079.3 -0.0049199 337.32 0.26117
236.38 66789. undefined 637.80 1340.8 1.9657 655.00 0.0015267 637.80 1340.8 1.9657 2.6644 3.0181 2080.2 -0.0049144 337.25 0.26148 655.00 0.0015267 637.80 1340.8 1.9657 2.6644 3.0181 2080.2 -0.0049144 337.25 0.26148
237.38 66943. undefined 640.47 1345.1 1.9710 655.00 0.0015267 640.47 1345.1 1.9710 2.6681 3.0215 2081.1 -0.0049089 337.17 0.26179 655.00 0.0015267 640.47 1345.1 1.9710 2.6681 3.0215 2081.1 -0.0049089 337.17 0.26179
238.38 67098. undefined 643.14 1349.4 1.9762 655.00 0.0015267 643.14 1349.4 1.9762 2.6718 3.0249 2082.1 -0.0049035 337.10 0.26211 655.00 0.0015267 643.14 1349.4 1.9762 2.6718 3.0249 2082.1 -0.0049035 337.10 0.26211
239.38 67252. undefined 645.81 1353.7 1.9814 655.00 0.0015267 645.81 1353.7 1.9814 2.6755 3.0283 2083.0 -0.0048981 337.03 0.26242 655.00 0.0015267 645.81 1353.7 1.9814 2.6755 3.0283 2083.0 -0.0048981 337.03 0.26242
240.38 67406. undefined 648.49 1358.0 1.9866 655.00 0.0015267 648.49 1358.0 1.9866 2.6792 3.0316 2083.9 -0.0048927 336.96 0.26273 655.00 0.0015267 648.49 1358.0 1.9866 2.6792 3.0316 2083.9 -0.0048927 336.96 0.26273
241.38 67560. undefined 651.17 1362.3 1.9918 655.00 0.0015267 651.17 1362.3 1.9918 2.6829 3.0350 2084.8 -0.0048873 336.89 0.26304 655.00 0.0015267 651.17 1362.3 1.9918 2.6829 3.0350 2084.8 -0.0048873 336.89 0.26304
242.38 67714. undefined 653.86 1366.6 1.9971 655.00 0.0015267 653.86 1366.6 1.9971 2.6866 3.0384 2085.7 -0.0048819 336.82 0.26335 655.00 0.0015267 653.86 1366.6 1.9971 2.6866 3.0384 2085.7 -0.0048819 336.82 0.26335
243.38 67868. undefined 656.54 1370.9 2.0023 655.00 0.0015267 656.54 1370.9 2.0023 2.6902 3.0417 2086.5 -0.0048766 336.75 0.26367 655.00 0.0015267 656.54 1370.9 2.0023 2.6902 3.0417 2086.5 -0.0048766 336.75 0.26367
244.38 68022. undefined 659.24 1375.3 2.0075 655.00 0.0015267 659.24 1375.3 2.0075 2.6939 3.0451 2087.4 -0.0048712 336.68 0.26398 655.00 0.0015267 659.24 1375.3 2.0075 2.6939 3.0451 2087.4 -0.0048712 336.68 0.26398
245.38 68176. undefined 661.93 1379.6 2.0127 655.00 0.0015267 661.93 1379.6 2.0127 2.6976 3.0484 2088.3 -0.0048659 336.61 0.26429 655.00 0.0015267 661.93 1379.6 2.0127 2.6976 3.0484 2088.3 -0.0048659 336.61 0.26429
246.38 68329. undefined 664.63 1383.9 2.0179 655.00 0.0015267 664.63 1383.9 2.0179 2.7012 3.0518 2089.2 -0.0048606 336.54 0.26461 655.00 0.0015267 664.63 1383.9 2.0179 2.7012 3.0518 2089.2 -0.0048606 336.54 0.26461
247.38 68482. undefined 667.33 1388.2 2.0231 655.00 0.0015267 667.33 1388.2 2.0231 2.7049 3.0551 2090.1 -0.0048553 336.47 0.26492 655.00 0.0015267 667.33 1388.2 2.0231 2.7049 3.0551 2090.1 -0.0048553 336.47 0.26492
248.38 68636. undefined 670.04 1392.5 2.0283 655.00 0.0015267 670.04 1392.5 2.0283 2.7085 3.0585 2091.0 -0.0048501 336.40 0.26524 655.00 0.0015267 670.04 1392.5 2.0283 2.7085 3.0585 2091.0 -0.0048501 336.40 0.26524
249.38 68789. undefined 672.75 1396.8 2.0335 655.00 0.0015267 672.75 1396.8 2.0335 2.7121 3.0618 2091.9 -0.0048448 336.33 0.26555 655.00 0.0015267 672.75 1396.8 2.0335 2.7121 3.0618 2091.9 -0.0048448 336.33 0.26555
250.38 68942. undefined 675.46 1401.2 2.0386 655.00 0.0015267 675.46 1401.2 2.0386 2.7158 3.0651 2092.8 -0.0048396 336.27 0.26587 655.00 0.0015267 675.46 1401.2 2.0386 2.7158 3.0651 2092.8 -0.0048396 336.27 0.26587
251.38 69094. undefined 678.18 1405.5 2.0438 655.00 0.0015267 678.18 1405.5 2.0438 2.7194 3.0685 2093.7 -0.0048344 336.20 0.26618 655.00 0.0015267 678.18 1405.5 2.0438 2.7194 3.0685 2093.7 -0.0048344 336.20 0.26618
252.38 69247. undefined 680.90 1409.8 2.0490 655.00 0.0015267 680.90 1409.8 2.0490 2.7230 3.0718 2094.6 -0.0048292 336.14 0.26650 655.00 0.0015267 680.90 1409.8 2.0490 2.7230 3.0718 2094.6 -0.0048292 336.14 0.26650
253.38 69400. undefined 683.63 1414.2 2.0542 655.00 0.0015267 683.63 1414.2 2.0542 2.7266 3.0751 2095.5 -0.0048240 336.07 0.26681 655.00 0.0015267 683.63 1414.2 2.0542 2.7266 3.0751 2095.5 -0.0048240 336.07 0.26681
254.38 69552. undefined 686.36 1418.5 2.0594 655.00 0.0015267 686.36 1418.5 2.0594 2.7303 3.0784 2096.4 -0.0048189 336.01 0.26713 655.00 0.0015267 686.36 1418.5 2.0594 2.7303 3.0784 2096.4 -0.0048189 336.01 0.26713
255.38 69704. undefined 689.09 1422.8 2.0645 655.00 0.0015267 689.09 1422.8 2.0645 2.7339 3.0817 2097.2 -0.0048137 335.94 0.26745 655.00 0.0015267 689.09 1422.8 2.0645 2.7339 3.0817 2097.2 -0.0048137 335.94 0.26745
256.38 69857. undefined 691.82 1427.2 2.0697 655.00 0.0015267 691.82 1427.2 2.0697 2.7375 3.0850 2098.1 -0.0048086 335.88 0.26776 655.00 0.0015267 691.82 1427.2 2.0697 2.7375 3.0850 2098.1 -0.0048086 335.88 0.26776
257.38 70009. undefined 694.56 1431.5 2.0749 655.00 0.0015267 694.56 1431.5 2.0749 2.7411 3.0883 2099.0 -0.0048035 335.81 0.26808 655.00 0.0015267 694.56 1431.5 2.0749 2.7411 3.0883 2099.0 -0.0048035 335.81 0.26808
258.38 70161. undefined 697.31 1435.8 2.0801 655.00 0.0015267 697.31 1435.8 2.0801 2.7447 3.0916 2099.9 -0.0047984 335.75 0.26840 655.00 0.0015267 697.31 1435.8 2.0801 2.7447 3.0916 2099.9 -0.0047984 335.75 0.26840
259.38 70312. undefined 700.05 1440.2 2.0852 655.00 0.0015267 700.05 1440.2 2.0852 2.7483 3.0949 2100.8 -0.0047933 335.69 0.26872 655.00 0.0015267 700.05 1440.2 2.0852 2.7483 3.0949 2100.8 -0.0047933 335.69 0.26872
260.38 70464. undefined 702.80 1444.5 2.0904 655.00 0.0015267 702.80 1444.5 2.0904 2.7518 3.0982 2101.7 -0.0047883 335.63 0.26903 655.00 0.0015267 702.80 1444.5 2.0904 2.7518 3.0982 2101.7 -0.0047883 335.63 0.26903
261.38 70616. undefined 705.56 1448.9 2.0955 655.00 0.0015267 705.56 1448.9 2.0955 2.7554 3.1015 2102.5 -0.0047832 335.56 0.26935 655.00 0.0015267 705.56 1448.9 2.0955 2.7554 3.1015 2102.5 -0.0047832 335.56 0.26935
262.38 70767. undefined 708.31 1453.2 2.1007 655.00 0.0015267 708.31 1453.2 2.1007 2.7590 3.1048 2103.4 -0.0047782 335.50 0.26967 655.00 0.0015267 708.31 1453.2 2.1007 2.7590 3.1048 2103.4 -0.0047782 335.50 0.26967
263.38 70918. undefined 711.08 1457.6 2.1058 655.00 0.0015267 711.08 1457.6 2.1058 2.7626 3.1081 2104.3 -0.0047732 335.44 0.26999 655.00 0.0015267 711.08 1457.6 2.1058 2.7626 3.1081 2104.3 -0.0047732 335.44 0.26999
264.38 71069. undefined 713.84 1461.9 2.1110 655.00 0.0015267 713.84 1461.9 2.1110 2.7661 3.1113 2105.2 -0.0047682 335.38 0.27031 655.00 0.0015267 713.84 1461.9 2.1110 2.7661 3.1113 2105.2 -0.0047682 335.38 0.27031
265.38 71221. undefined 716.61 1466.3 2.1161 655.00 0.0015267 716.61 1466.3 2.1161 2.7697 3.1146 2106.0 -0.0047632 335.32 0.27063 655.00 0.0015267 716.61 1466.3 2.1161 2.7697 3.1146 2106.0 -0.0047632 335.32 0.27063
266.38 71371. undefined 719.38 1470.7 2.1213 655.00 0.0015267 719.38 1470.7 2.1213 2.7732 3.1179 2106.9 -0.0047583 335.26 0.27095 655.00 0.0015267 719.38 1470.7 2.1213 2.7732 3.1179 2106.9 -0.0047583 335.26 0.27095
267.38 71522. undefined 722.15 1475.0 2.1264 655.00 0.0015267 722.15 1475.0 2.1264 2.7768 3.1211 2107.8 -0.0047533 335.20 0.27127 655.00 0.0015267 722.15 1475.0 2.1264 2.7768 3.1211 2107.8 -0.0047533 335.20 0.27127
268.38 71673. undefined 724.93 1479.4 2.1315 655.00 0.0015267 724.93 1479.4 2.1315 2.7803 3.1244 2108.7 -0.0047484 335.14 0.27159 655.00 0.0015267 724.93 1479.4 2.1315 2.7803 3.1244 2108.7 -0.0047484 335.14 0.27159
269.38 71824. undefined 727.71 1483.8 2.1367 655.00 0.0015267 727.71 1483.8 2.1367 2.7839 3.1276 2109.5 -0.0047435 335.08 0.27191 655.00 0.0015267 727.71 1483.8 2.1367 2.7839 3.1276 2109.5 -0.0047435 335.08 0.27191
270.38 71974. undefined 730.50 1488.1 2.1418 655.00 0.0015267 730.50 1488.1 2.1418 2.7874 3.1309 2110.4 -0.0047386 335.03 0.27223 655.00 0.0015267 730.50 1488.1 2.1418 2.7874 3.1309 2110.4 -0.0047386 335.03 0.27223
271.38 72124. undefined 733.29 1492.5 2.1469 655.00 0.0015267 733.29 1492.5 2.1469 2.7909 3.1341 2111.3 -0.0047337 334.97 0.27255 655.00 0.0015267 733.29 1492.5 2.1469 2.7909 3.1341 2111.3 -0.0047337 334.97 0.27255
272.38 72274. undefined 736.08 1496.9 2.1521 655.00 0.0015267 736.08 1496.9 2.1521 2.7944 3.1374 2112.2 -0.0047288 334.91 0.27287 655.00 0.0015267 736.08 1496.9 2.1521 2.7944 3.1374 2112.2 -0.0047288 334.91 0.27287
273.38 72425. undefined 738.88 1501.2 2.1572 655.00 0.0015267 738.88 1501.2 2.1572 2.7979 3.1406 2113.0 -0.0047240 334.86 0.27320 655.00 0.0015267 738.88 1501.2 2.1572 2.7979 3.1406 2113.0 -0.0047240 334.86 0.27320
274.38 72575. undefined 741.68 1505.6 2.1623 655.00 0.0015267 741.68 1505.6 2.1623 2.8015 3.1438 2113.9 -0.0047191 334.80 0.27352 655.00 0.0015267 741.68 1505.6 2.1623 2.8015 3.1438 2113.9 -0.0047191 334.80 0.27352
275.38 72724. undefined 744.48 1510.0 2.1674 655.00 0.0015267 744.48 1510.0 2.1674 2.8050 3.1471 2114.8 -0.0047143 334.74 0.27384 655.00 0.0015267 744.48 1510.0 2.1674 2.8050 3.1471 2114.8 -0.0047143 334.74 0.27384
276.38 72874. undefined 747.29 1514.4 2.1725 655.00 0.0015267 747.29 1514.4 2.1725 2.8085 3.1503 2115.6 -0.0047095 334.69 0.27416 655.00 0.0015267 747.29 1514.4 2.1725 2.8085 3.1503 2115.6 -0.0047095 334.69 0.27416
277.38 73024. undefined 750.10 1518.8 2.1776 655.00 0.0015267 750.10 1518.8 2.1776 2.8120 3.1535 2116.5 -0.0047047 334.63 0.27449 655.00 0.0015267 750.10 1518.8 2.1776 2.8120 3.1535 2116.5 -0.0047047 334.63 0.27449
278.38 73173. undefined 752.91 1523.2 2.1827 655.00 0.0015267 752.91 1523.2 2.1827 2.8154 3.1567 2117.3 -0.0047000 334.58 0.27481 655.00 0.0015267 752.91 1523.2 2.1827 2.8154 3.1567 2117.3 -0.0047000 334.58 0.27481
279.38 73323. undefined 755.73 1527.5 2.1878 655.00 0.0015267 755.73 1527.5 2.1878 2.8189 3.1599 2118.2 -0.0046952 334.52 0.27513 655.00 0.0015267 755.73 1527.5 2.1878 2.8189 3.1599 2118.2 -0.0046952 334.52 0.27513
280.38 73472. undefined 758.55 1531.9 2.1929 655.00 0.0015267 758.55 1531.9 2.1929 2.8224 3.1631 2119.1 -0.0046905 334.47 0.27546 655.00 0.0015267 758.55 1531.9 2.1929 2.8224 3.1631 2119.1 -0.0046905 334.47 0.27546
281.38 73621. undefined 761.37 1536.3 2.1980 655.00 0.0015267 761.37 1536.3 2.1980 2.8259 3.1663 2119.9 -0.0046857 334.41 0.27578 655.00 0.0015267 761.37 1536.3 2.1980 2.8259 3.1663 2119.9 -0.0046857 334.41 0.27578
282.38 73770. undefined 764.20 1540.7 2.2031 655.00 0.0015267 764.20 1540.7 2.2031 2.8294 3.1695 2120.8 -0.0046810 334.36 0.27597 655.00 0.0015267 764.20 1540.7 2.2031 2.8294 3.1695 2120.8 -0.0046810 334.36 0.27597
283.38 73919. undefined 767.03 1545.1 2.2082 655.00 0.0015267 767.03 1545.1 2.2082 2.8328 3.1727 2121.7 -0.0046763 334.31 0.27630 655.00 0.0015267 767.03 1545.1 2.2082 2.8328 3.1727 2121.7 -0.0046763 334.31 0.27630
284.38 74068. undefined 769.87 1549.5 2.2133 655.00 0.0015267 769.87 1549.5 2.2133 2.8363 3.1759 2122.5 -0.0046717 334.26 0.27662 655.00 0.0015267 769.87 1549.5 2.2133 2.8363 3.1759 2122.5 -0.0046717 334.26 0.27662
285.38 74216. undefined 772.70 1553.9 2.2184 655.00 0.0015267 772.70 1553.9 2.2184 2.8397 3.1791 2123.4 -0.0046670 334.20 0.27695 655.00 0.0015267 772.70 1553.9 2.2184 2.8397 3.1791 2123.4 -0.0046670 334.20 0.27695
286.38 74365. undefined 775.55 1558.3 2.2235 655.00 0.0015267 775.55 1558.3 2.2235 2.8432 3.1823 2124.2 -0.0046623 334.15 0.27727 655.00 0.0015267 775.55 1558.3 2.2235 2.8432 3.1823 2124.2 -0.0046623 334.15 0.27727
287.38 74513. undefined 778.39 1562.7 2.2286 655.00 0.0015267 778.39 1562.7 2.2286 2.8466 3.1855 2125.1 -0.0046577 334.10 0.27760 655.00 0.0015267 778.39 1562.7 2.2286 2.8466 3.1855 2125.1 -0.0046577 334.10 0.27760
288.38 74662. undefined 781.24 1567.2 2.2336 655.00 0.0015267 781.24 1567.2 2.2336 2.8501 3.1886 2125.9 -0.0046531 334.05 0.27792 655.00 0.0015267 781.24 1567.2 2.2336 2.8501 3.1886 2125.9 -0.0046531 334.05 0.27792
289.38 74810. undefined 784.09 1571.6 2.2387 655.00 0.0015267 784.09 1571.6 2.2387 2.8535 3.1918 2126.8 -0.0046485 334.00 0.27825 655.00 0.0015267 784.09 1571.6 2.2387 2.8535 3.1918 2126.8 -0.0046485 334.00 0.27825
290.38 74958. undefined 786.95 1576.0 2.2438 655.00 0.0015267 786.95 1576.0 2.2438 2.8569 3.1950 2127.6 -0.0046439 333.95 0.27858 655.00 0.0015267 786.95 1576.0 2.2438 2.8569 3.1950 2127.6 -0.0046439 333.95 0.27858
291.38 75106. undefined 789.81 1580.4 2.2489 655.00 0.0015267 789.81 1580.4 2.2489 2.8604 3.1981 2128.5 -0.0046393 333.90 0.27890 655.00 0.0015267 789.81 1580.4 2.2489 2.8604 3.1981 2128.5 -0.0046393 333.90 0.27890
292.38 75254. undefined 792.67 1584.8 2.2539 655.00 0.0015267 792.67 1584.8 2.2539 2.8638 3.2013 2129.3 -0.0046347 333.85 0.27923 655.00 0.0015267 792.67 1584.8 2.2539 2.8638 3.2013 2129.3 -0.0046347 333.85 0.27923
293.38 75402. undefined 795.53 1589.2 2.2590 655.00 0.0015267 795.53 1589.2 2.2590 2.8672 3.2045 2130.2 -0.0046302 333.80 0.27956 655.00 0.0015267 795.53 1589.2 2.2590 2.8672 3.2045 2130.2 -0.0046302 333.80 0.27956
294.38 75549. undefined 798.40 1593.7 2.2640 655.00 0.0015267 798.40 1593.7 2.2640 2.8706 3.2076 2131.0 -0.0046257 333.75 0.27989 655.00 0.0015267 798.40 1593.7 2.2640 2.8706 3.2076 2131.0 -0.0046257 333.75 0.27989
295.38 75697. undefined 801.27 1598.1 2.2691 655.00 0.0015267 801.27 1598.1 2.2691 2.8740 3.2107 2131.9 -0.0046211 333.70 0.28021 655.00 0.0015267 801.27 1598.1 2.2691 2.8740 3.2107 2131.9 -0.0046211 333.70 0.28021
296.38 75844. undefined 804.15 1602.5 2.2742 655.00 0.0015267 804.15 1602.5 2.2742 2.8774 3.2139 2132.7 -0.0046166 333.65 0.28054 655.00 0.0015267 804.15 1602.5 2.2742 2.8774 3.2139 2132.7 -0.0046166 333.65 0.28054
297.38 75991. undefined 807.03 1606.9 2.2792 655.00 0.0015267 807.03 1606.9 2.2792 2.8808 3.2170 2133.6 -0.0046121 333.60 0.28087 655.00 0.0015267 807.03 1606.9 2.2792 2.8808 3.2170 2133.6 -0.0046121 333.60 0.28087
298.38 76139. undefined 809.91 1611.4 2.2843 655.00 0.0015267 809.91 1611.4 2.2843 2.8842 3.2202 2134.4 -0.0046077 333.56 0.28120 655.00 0.0015267 809.91 1611.4 2.2843 2.8842 3.2202 2134.4 -0.0046077 333.56 0.28120
299.38 76286. undefined 812.80 1615.8 2.2893 655.00 0.0015267 812.80 1615.8 2.2893 2.8876 3.2233 2135.3 -0.0046032 333.51 0.28153 655.00 0.0015267 812.80 1615.8 2.2893 2.8876 3.2233 2135.3 -0.0046032 333.51 0.28153
300.38 76433. undefined 815.69 1620.2 2.2943 655.00 0.0015267 815.69 1620.2 2.2943 2.8910 3.2264 2136.1 -0.0045988 333.46 0.28186 655.00 0.0015267 815.69 1620.2 2.2943 2.8910 3.2264 2136.1 -0.0045988 333.46 0.28186