Temperature (C) Pressure (psia) Quality (l+v) Internal Energy (l+v, kJ/kg) Enthalpy (l+v, kJ/kg) Entropy (l+v, J/g*K) Density (l, kg/m3) Volume (l, m3/kg) Internal Energy (l, kJ/kg) Enthalpy (l, kJ/kg) Entropy (l, J/g*K) Cv (l, J/g*K) Cp (l, J/g*K) Sound Spd. (l, m/s) Joule-Thomson (l, F/psia) Viscosity (l, uPa*s) Therm. Cond. (l, W/m*K) Density (v, kg/m3) Volume (v, m3/kg) Internal Energy (v, kJ/kg) Enthalpy (v, kJ/kg) Entropy (v, J/g*K) Cv (v, J/g*K) Cp (v, J/g*K) Sound Spd. (v, m/s) Joule-Thomson (v, F/psia) Viscosity (v, uPa*s) Therm. Cond. (v, W/m*K)
-187.62 2.4953e-08 1.6123e-12 -196.64 -196.64 -1.3959 733.13 0.0013640 -196.64 -196.64 -1.3959 1.3553 1.9158 2136.4 -0.0077592 10960. 0.20792 1.0669e-08 9.3732e+07 350.13 366.26 5.1858 0.69067 0.87923 143.28 6.1051 2.3259 0.0017061
-186.62 3.7339e-08 2.3541e-12 -194.73 -194.73 -1.3736 732.08 0.0013660 -194.73 -194.73 -1.3736 1.3539 1.9166 2129.6 -0.0077546 10073. 0.20765 1.5780e-08 6.3371e+07 350.82 367.14 5.1200 0.69462 0.88317 144.03 5.9178 2.3534 0.0017533
-185.62 5.5322e-08 3.4030e-12 -192.81 -192.81 -1.3516 731.04 0.0013679 -192.81 -192.81 -1.3516 1.3525 1.9174 2122.9 -0.0077498 9276.1 0.20737 2.3112e-08 4.3267e+07 351.52 368.02 5.0561 0.69857 0.88713 144.77 5.7383 2.3808 0.0018007
-184.62 8.1182e-08 4.8719e-12 -190.89 -190.89 -1.3298 730.00 0.0013699 -190.89 -190.89 -1.3298 1.3513 1.9182 2116.1 -0.0077448 8557.8 0.20708 3.3533e-08 2.9821e+07 352.22 368.91 4.9939 0.70253 0.89108 145.51 5.5662 2.4083 0.0018485
-183.62 1.1803e-07 6.9101e-12 -188.97 -188.97 -1.3083 728.96 0.0013718 -188.97 -188.97 -1.3083 1.3501 1.9191 2109.3 -0.0077395 7909.8 0.20678 4.8211e-08 2.0742e+07 352.92 369.81 4.9333 0.70648 0.89504 146.24 5.4011 2.4357 0.0018965
-182.62 1.7009e-07 9.7131e-12 -187.05 -187.05 -1.2869 727.92 0.0013738 -187.05 -187.05 -1.2869 1.3490 1.9201 2102.5 -0.0077340 7324.3 0.20647 6.8704e-08 1.4555e+07 353.63 370.70 4.8744 0.71043 0.89899 146.97 5.2426 2.4632 0.0019448
-181.62 2.4299e-07 1.3534e-11 -185.13 -185.13 -1.2658 726.88 0.0013757 -185.13 -185.13 -1.2658 1.3480 1.9210 2095.7 -0.0077283 6794.5 0.20616 9.7079e-08 1.0301e+07 354.35 371.60 4.8170 0.71438 0.90294 147.69 5.0904 2.4906 0.0019934
-180.62 3.4425e-07 1.8700e-11 -183.21 -183.21 -1.2450 725.85 0.0013777 -183.21 -183.21 -1.2450 1.3470 1.9220 2088.9 -0.0077225 6314.4 0.20584 1.3605e-07 7.3504e+06 355.06 372.51 4.7612 0.71833 0.90688 148.41 4.9442 2.5181 0.0020423
-179.62 4.8378e-07 2.5627e-11 -181.29 -181.29 -1.2243 724.81 0.0013797 -181.29 -181.29 -1.2243 1.3461 1.9231 2082.0 -0.0077164 5878.8 0.20551 1.8915e-07 5.2868e+06 355.78 373.42 4.7068 0.72227 0.91082 149.13 4.8038 2.5456 0.0020915
-178.62 6.7459e-07 3.4843e-11 -179.37 -179.37 -1.2038 723.78 0.0013816 -179.37 -179.37 -1.2038 1.3453 1.9241 2075.2 -0.0077102 5482.9 0.20517 2.6096e-07 3.8320e+06 356.51 374.33 4.6538 0.72620 0.91475 149.84 4.6688 2.5731 0.0021410
-177.62 9.3358e-07 4.7011e-11 -177.44 -177.44 -1.1836 722.75 0.0013836 -177.44 -177.44 -1.1836 1.3445 1.9252 2068.4 -0.0077039 5122.6 0.20483 3.5737e-07 2.7982e+06 357.23 375.25 4.6022 0.73012 0.91867 150.54 4.5390 2.6005 0.0021907
-176.62 1.2826e-06 6.2956e-11 -175.52 -175.52 -1.1635 721.72 0.0013856 -175.52 -175.52 -1.1635 1.3437 1.9263 2061.5 -0.0076973 4794.1 0.20447 4.8588e-07 2.0581e+06 357.97 376.17 4.5519 0.73403 0.92258 151.25 4.4142 2.6280 0.0022408
-175.62 1.7496e-06 8.3703e-11 -173.59 -173.59 -1.1437 720.69 0.0013876 -173.59 -173.59 -1.1437 1.3430 1.9274 2054.7 -0.0076907 4494.3 0.20411 6.5601e-07 1.5244e+06 358.70 377.09 4.5029 0.73792 0.92648 151.95 4.2941 2.6555 0.0022912
-174.62 2.3705e-06 1.1051e-10 -171.66 -171.66 -1.1240 719.66 0.0013895 -171.66 -171.66 -1.1240 1.3423 1.9286 2047.9 -0.0076838 4220.2 0.20375 8.7976e-07 1.1367e+06 359.44 378.02 4.4551 0.74181 0.93036 152.64 4.1784 2.6830 0.0023418
-173.62 3.1903e-06 1.4491e-10 -169.73 -169.73 -1.1045 718.64 0.0013915 -169.73 -169.73 -1.1045 1.3417 1.9298 2041.0 -0.0076769 3969.3 0.20338 1.1721e-06 8.5314e+05 360.19 378.95 4.4085 0.74568 0.93423 153.33 4.0671 2.7105 0.0023928
-172.62 4.2661e-06 1.8876e-10 -167.80 -167.80 -1.0852 717.61 0.0013935 -167.80 -167.80 -1.0852 1.3411 1.9310 2034.2 -0.0076698 3739.3 0.20300 1.5518e-06 6.4441e+05 360.93 379.89 4.3631 0.74953 0.93809 154.02 3.9599 2.7379 0.0024440
-171.62 5.6692e-06 2.4430e-10 -165.87 -165.87 -1.0661 716.58 0.0013955 -165.87 -165.87 -1.0661 1.3405 1.9322 2027.3 -0.0076625 3528.0 0.20261 2.0419e-06 4.8974e+05 361.69 380.83 4.3188 0.75337 0.94193 154.71 3.8566 2.7654 0.0024955
-170.62 7.4884e-06 3.1421e-10 -163.94 -163.94 -1.0472 715.56 0.0013975 -163.94 -163.94 -1.0472 1.3400 1.9334 2020.5 -0.0076552 3333.8 0.20222 2.6708e-06 3.7442e+05 362.44 381.77 4.2755 0.75720 0.94575 155.39 3.7570 2.7929 0.0025473
-169.62 9.8334e-06 4.0167e-10 -162.00 -162.00 -1.0284 714.54 0.0013995 -162.00 -162.00 -1.0284 1.3395 1.9347 2013.6 -0.0076477 3154.9 0.20182 3.4733e-06 2.8791e+05 363.20 382.72 4.2334 0.76100 0.94956 156.07 3.6609 2.8204 0.0025994
-168.62 1.2839e-05 5.1043e-10 -160.07 -160.07 -1.0098 713.52 0.0014015 -160.07 -160.07 -1.0098 1.3390 1.9359 2006.8 -0.0076401 2989.9 0.20141 4.4917e-06 2.2263e+05 363.96 383.67 4.1922 0.76479 0.95335 156.74 3.5683 2.8479 0.0026518
-167.62 1.6672e-05 6.4491e-10 -158.13 -158.13 -0.99134 712.49 0.0014035 -158.13 -158.13 -0.99134 1.3386 1.9372 2000.0 -0.0076323 2837.5 0.20100 5.7771e-06 1.7310e+05 364.73 384.63 4.1521 0.76856 0.95712 157.41 3.4790 2.8754 0.0027045
-166.62 2.1533e-05 8.1024e-10 -156.19 -156.19 -0.97306 711.47 0.0014055 -156.19 -156.19 -0.97306 1.3382 1.9385 1993.1 -0.0076245 2696.5 0.20058 7.3914e-06 1.3529e+05 365.50 385.59 4.1129 0.77232 0.96087 158.08 3.3927 2.9029 0.0027575
-165.62 2.7666e-05 1.0124e-09 -154.25 -154.25 -0.95494 710.45 0.0014075 -154.25 -154.25 -0.95494 1.3378 1.9398 1986.3 -0.0076165 2566.0 0.20016 9.4084e-06 1.0629e+05 366.27 386.55 4.0746 0.77605 0.96460 158.75 3.3095 2.9304 0.0028108
-164.62 3.5367e-05 1.2581e-09 -152.31 -152.31 -0.93698 709.44 0.0014096 -152.31 -152.31 -0.93698 1.3375 1.9411 1979.4 -0.0076084 2444.9 0.19973 1.1916e-05 83918. 367.05 387.52 4.0372 0.77976 0.96832 159.41 3.2291 2.9579 0.0028643
-163.62 4.4989e-05 1.5554e-09 -150.37 -150.37 -0.91917 708.42 0.0014116 -150.37 -150.37 -0.91917 1.3371 1.9424 1972.6 -0.0076002 2332.3 0.19930 1.5020e-05 66577. 367.83 388.49 4.0008 0.78346 0.97201 160.07 3.1514 2.9854 0.0029182
-162.62 5.6956e-05 1.9131e-09 -148.43 -148.43 -0.90151 707.40 0.0014136 -148.43 -148.43 -0.90151 1.3368 1.9437 1965.8 -0.0075919 2227.7 0.19886 1.8844e-05 53068. 368.62 389.46 3.9651 0.78713 0.97569 160.72 3.0764 3.0129 0.0029723
-161.62 7.1773e-05 2.3413e-09 -146.48 -146.48 -0.88400 706.38 0.0014157 -146.48 -146.48 -0.88400 1.3365 1.9451 1959.0 -0.0075834 2130.2 0.19841 2.3533e-05 42494. 369.41 390.44 3.9304 0.79079 0.97935 161.38 3.0038 3.0404 0.0030268
-160.62 9.0036e-05 2.8513e-09 -144.54 -144.54 -0.86663 705.37 0.0014177 -144.54 -144.54 -0.86663 1.3363 1.9465 1952.1 -0.0075748 2039.2 0.19796 2.9258e-05 34178. 370.20 391.42 3.8964 0.79443 0.98298 162.03 2.9337 3.0679 0.0030815
-159.62 0.00011245 3.4558e-09 -142.59 -142.59 -0.84940 704.35 0.0014197 -142.59 -142.59 -0.84940 1.3360 1.9478 1945.3 -0.0075661 1954.2 0.19751 3.6221e-05 27609. 371.00 392.40 3.8632 0.79805 0.98660 162.68 2.8658 3.0955 0.0031365
-158.62 0.00013985 4.1688e-09 -140.64 -140.64 -0.83231 703.34 0.0014218 -140.64 -140.64 -0.83231 1.3358 1.9492 1938.5 -0.0075573 1874.8 0.19705 4.4652e-05 22395. 371.80 393.39 3.8307 0.80164 0.99020 163.32 2.8002 3.1230 0.0031918
-157.62 0.00017320 5.0057e-09 -138.69 -138.69 -0.81536 702.32 0.0014238 -138.69 -138.69 -0.81536 1.3356 1.9506 1931.7 -0.0075484 1800.3 0.19658 5.4822e-05 18241. 372.60 394.38 3.7990 0.80522 0.99378 163.96 2.7367 3.1505 0.0032474
-156.62 0.00021364 5.9834e-09 -136.74 -136.74 -0.79854 701.31 0.0014259 -136.74 -136.74 -0.79854 1.3354 1.9520 1924.9 -0.0075393 1730.5 0.19611 6.7040e-05 14916. 373.41 395.38 3.7680 0.80878 0.99734 164.60 2.6752 3.1780 0.0033033
-155.62 0.00026248 7.1203e-09 -134.79 -134.79 -0.78185 700.30 0.0014280 -134.79 -134.79 -0.78185 1.3352 1.9534 1918.1 -0.0075302 1664.9 0.19564 8.1666e-05 12245. 374.22 396.38 3.7377 0.81232 1.0009 165.24 2.6157 3.2055 0.0033595
-154.62 0.00032125 8.4362e-09 -132.83 -132.83 -0.76530 699.29 0.0014300 -132.83 -132.83 -0.76530 1.3350 1.9548 1911.3 -0.0075209 1603.3 0.19516 9.9109e-05 10090. 375.03 397.38 3.7081 0.81585 1.0044 165.87 2.5580 3.2330 0.0034160
-153.62 0.00039171 9.9522e-09 -130.88 -130.88 -0.74887 698.27 0.0014321 -130.88 -130.88 -0.74887 1.3349 1.9563 1904.5 -0.0075114 1545.3 0.19468 0.00011984 8344.6 375.85 398.39 3.6792 0.81935 1.0079 166.50 2.5022 3.2606 0.0034727
-152.62 0.00047590 1.1691e-08 -128.92 -128.92 -0.73256 697.26 0.0014342 -128.92 -128.92 -0.73256 1.3348 1.9577 1897.8 -0.0075019 1490.6 0.19419 0.00014439 6925.9 376.67 399.40 3.6509 0.82284 1.0114 167.13 2.4481 3.2881 0.0035298
-151.62 0.00057613 1.3675e-08 -126.96 -126.96 -0.71638 696.25 0.0014363 -126.96 -126.96 -0.71638 1.3346 1.9592 1891.0 -0.0074922 1438.9 0.19370 0.00017336 5768.4 377.49 400.41 3.6232 0.82631 1.0149 167.76 2.3957 3.3156 0.0035872
-150.62 0.00069507 1.5931e-08 -125.00 -125.00 -0.70032 695.24 0.0014384 -125.00 -125.00 -0.70032 1.3345 1.9606 1884.2 -0.0074824 1390.2 0.19320 0.00020744 4820.7 378.32 401.42 3.5962 0.82976 1.0183 168.38 2.3448 3.3431 0.0036448
-149.62 0.00083574 1.8482e-08 -123.04 -123.04 -0.68438 694.23 0.0014404 -123.04 -123.04 -0.68438 1.3345 1.9621 1877.4 -0.0074724 1344.0 0.19270 0.00024740 4042.0 379.15 402.44 3.5697 0.83319 1.0218 169.00 2.2956 3.3706 0.0037027
-148.62 0.0010016 2.1354e-08 -121.08 -121.08 -0.66855 693.22 0.0014425 -121.08 -121.08 -0.66855 1.3344 1.9636 1870.7 -0.0074623 1300.3 0.19220 0.00029412 3400.0 379.99 403.47 3.5438 0.83661 1.0252 169.62 2.2478 3.3982 0.0037610
-147.62 0.0011965 2.4572e-08 -119.11 -119.11 -0.65284 692.21 0.0014447 -119.11 -119.11 -0.65284 1.3343 1.9651 1863.9 -0.0074521 1258.9 0.19169 0.00034856 2869.0 380.83 404.49 3.5185 0.84001 1.0286 170.24 2.2014 3.4257 0.0038195
-146.62 0.0014249 2.8162e-08 -117.15 -117.15 -0.63724 691.20 0.0014468 -117.15 -117.15 -0.63724 1.3343 1.9666 1857.2 -0.0074417 1219.6 0.19117 0.00041181 2428.3 381.67 405.52 3.4938 0.84340 1.0320 170.85 2.1565 3.4532 0.0038783
-145.62 0.0016917 3.2146e-08 -115.18 -115.18 -0.62175 690.19 0.0014489 -115.18 -115.18 -0.62175 1.3343 1.9682 1850.4 -0.0074312 1182.3 0.19066 0.00048510 2061.4 382.51 406.56 3.4695 0.84677 1.0353 171.46 2.1128 3.4807 0.0039374
-144.62 0.0020026 3.6547e-08 -113.21 -113.21 -0.60637 689.18 0.0014510 -113.21 -113.21 -0.60637 1.3343 1.9697 1843.7 -0.0074206 1146.8 0.19014 0.00056976 1755.1 383.36 407.59 3.4458 0.85012 1.0387 172.07 2.0705 3.5082 0.0039967
-143.62 0.0023637 4.1384e-08 -111.24 -111.24 -0.59110 688.17 0.0014531 -111.24 -111.24 -0.59110 1.3343 1.9713 1836.9 -0.0074098 1113.0 0.18962 0.00066731 1498.6 384.21 408.63 3.4226 0.85346 1.0420 172.68 2.0294 3.5358 0.0040564
-142.62 0.0027820 4.6670e-08 -109.27 -109.27 -0.57593 687.16 0.0014553 -109.27 -109.27 -0.57593 1.3343 1.9728 1830.2 -0.0073988 1080.8 0.18909 0.00077939 1283.1 385.07 409.68 3.3999 0.85679 1.0454 173.28 1.9896 3.5633 0.0041164
-141.62 0.0032653 5.2418e-08 -107.30 -107.30 -0.56087 686.15 0.0014574 -107.30 -107.30 -0.56087 1.3343 1.9744 1823.5 -0.0073878 1050.1 0.18856 0.00090784 1101.5 385.93 410.72 3.3777 0.86011 1.0487 173.88 1.9508 3.5908 0.0041766
-140.62 0.0038222 5.8630e-08 -105.32 -105.32 -0.54591 685.14 0.0014596 -105.32 -105.32 -0.54591 1.3344 1.9760 1816.7 -0.0073765 1020.7 0.18803 0.0010547 948.16 386.79 411.77 3.3560 0.86341 1.0520 174.48 1.9133 3.6183 0.0042372
-139.62 0.0044623 6.5305e-08 -103.34 -103.34 -0.53105 684.13 0.0014617 -103.34 -103.34 -0.53105 1.3344 1.9776 1810.0 -0.0073651 992.74 0.18749 0.0012221 818.26 387.65 412.83 3.3347 0.86670 1.0553 175.08 1.8768 3.6459 0.0042980
-138.62 0.0051963 7.2429e-08 -101.37 -101.37 -0.51629 683.12 0.0014639 -101.37 -101.37 -0.51629 1.3345 1.9792 1803.3 -0.0073536 965.97 0.18695 0.0014125 707.94 388.52 413.88 3.3139 0.86998 1.0586 175.67 1.8413 3.6734 0.0043592
-137.62 0.0060358 7.9981e-08 -99.386 -99.386 -0.50162 682.11 0.0014660 -99.386 -99.386 -0.50162 1.3346 1.9808 1796.6 -0.0073419 940.35 0.18641 0.0016287 614.00 389.39 414.94 3.2935 0.87325 1.0619 176.26 1.8069 3.7009 0.0044206
-136.62 0.0069938 8.7923e-08 -97.404 -97.404 -0.48705 681.10 0.0014682 -97.404 -97.404 -0.48705 1.3347 1.9825 1789.9 -0.0073301 915.81 0.18586 0.0018733 533.80 390.26 416.00 3.2735 0.87650 1.0651 176.85 1.7734 3.7284 0.0044823
-135.62 0.0080843 9.6207e-08 -95.421 -95.421 -0.47258 680.09 0.0014704 -95.421 -95.421 -0.47258 1.3348 1.9841 1783.2 -0.0073180 892.30 0.18531 0.0021497 465.17 391.14 417.07 3.2540 0.87975 1.0684 177.44 1.7409 3.7559 0.0045443
-134.62 0.0093230 1.0476e-07 -93.436 -93.436 -0.45820 679.08 0.0014726 -93.436 -93.436 -0.45820 1.3350 1.9858 1776.5 -0.0073059 869.75 0.18476 0.0024613 406.30 392.02 418.14 3.2348 0.88299 1.0716 178.02 1.7093 3.7834 0.0046066
-133.62 0.010727 1.1350e-07 -91.449 -91.449 -0.44391 678.07 0.0014748 -91.450 -91.449 -0.44391 1.3351 1.9875 1769.8 -0.0072935 848.11 0.18421 0.0028116 355.67 392.91 419.21 3.2161 0.88622 1.0749 178.61 1.6786 3.8109 0.0046691
-132.62 0.012315 1.2232e-07 -89.461 -89.461 -0.42971 677.06 0.0014770 -89.461 -89.461 -0.42971 1.3353 1.9892 1763.1 -0.0072810 827.32 0.18365 0.0032049 312.03 393.79 420.29 3.1977 0.88944 1.0781 179.19 1.6488 3.8385 0.0047320
-131.62 0.014106 1.3108e-07 -87.471 -87.471 -0.41560 676.04 0.0014792 -87.471 -87.471 -0.41560 1.3354 1.9909 1756.4 -0.0072684 807.34 0.18309 0.0036453 274.33 394.68 421.36 3.1798 0.89266 1.0813 179.76 1.6197 3.8660 0.0047951
-130.62 0.016124 1.3961e-07 -85.479 -85.479 -0.40157 675.03 0.0014814 -85.479 -85.479 -0.40157 1.3356 1.9926 1749.7 -0.0072555 788.12 0.18253 0.0041375 241.69 395.58 422.44 3.1622 0.89586 1.0846 180.34 1.5915 3.8935 0.0048586
-129.62 0.018392 1.4771e-07 -83.486 -83.486 -0.38763 674.02 0.0014836 -83.486 -83.486 -0.38763 1.3358 1.9944 1743.0 -0.0072425 769.63 0.18196 0.0046867 213.37 396.47 423.53 3.1450 0.89906 1.0878 180.91 1.5641 3.9210 0.0049223
-128.62 0.020935 1.5516e-07 -81.491 -81.490 -0.37378 673.01 0.0014859 -81.491 -81.490 -0.37378 1.3360 1.9961 1736.3 -0.0072294 751.83 0.18140 0.0052981 188.75 397.37 424.62 3.1281 0.90226 1.0910 181.48 1.5374 3.9485 0.0049863
-127.62 0.023783 1.6167e-07 -79.494 -79.493 -0.36001 672.00 0.0014881 -79.494 -79.493 -0.36001 1.3363 1.9979 1729.6 -0.0072160 734.67 0.18083 0.0059776 167.29 398.27 425.71 3.1116 0.90545 1.0942 182.05 1.5114 3.9760 0.0050506
-126.62 0.026966 1.6693e-07 -77.495 -77.494 -0.34632 670.98 0.0014904 -77.495 -77.495 -0.34632 1.3365 1.9997 1722.9 -0.0072025 718.14 0.18025 0.0067313 148.56 399.18 426.80 3.0954 0.90863 1.0974 182.62 1.4861 4.0035 0.0051152
-125.62 0.030515 1.7057e-07 -75.494 -75.494 -0.33272 669.97 0.0014926 -75.494 -75.494 -0.33272 1.3368 2.0015 1716.2 -0.0071888 702.18 0.17968 0.0075660 132.17 400.09 427.89 3.0795 0.91181 1.1006 183.18 1.4615 4.0310 0.0051800
-124.62 0.034467 1.7216e-07 -73.492 -73.491 -0.31919 668.95 0.0014949 -73.492 -73.492 -0.31919 1.3371 2.0033 1709.5 -0.0071749 686.79 0.17910 0.0084885 117.81 401.00 428.99 3.0640 0.91499 1.1038 183.74 1.4375 4.0584 0.0052452
-123.62 0.038859 1.7122e-07 -71.488 -71.487 -0.30574 667.94 0.0014971 -71.488 -71.487 -0.30574 1.3374 2.0051 1702.8 -0.0071609 671.93 0.17852 0.0095065 105.19 401.91 430.10 3.0488 0.91816 1.1070 184.30 1.4141 4.0859 0.0053106
-122.62 0.043731 1.6719e-07 -69.482 -69.481 -0.29237 666.92 0.0014994 -69.482 -69.481 -0.29237 1.3377 2.0070 1696.2 -0.0071466 657.57 0.17794 0.010628 94.092 402.83 431.20 3.0339 0.92134 1.1102 184.86 1.3913 4.1134 0.0053764
-121.62 0.049128 1.5946e-07 -67.474 -67.473 -0.27907 665.91 0.0015017 -67.474 -67.473 -0.27907 1.3380 2.0089 1689.5 -0.0071322 643.70 0.17736 0.011861 84.309 403.75 432.31 3.0193 0.92451 1.1134 185.41 1.3691 4.1409 0.0054424
-120.62 0.055096 1.4733e-07 -65.464 -65.463 -0.26585 664.89 0.0015040 -65.464 -65.463 -0.26585 1.3384 2.0107 1682.8 -0.0071176 630.28 0.17678 0.013215 75.669 404.67 433.42 3.0050 0.92767 1.1166 185.96 1.3475 4.1683 0.0055087
-119.62 0.061684 1.3001e-07 -63.452 -63.452 -0.25271 663.87 0.0015063 -63.452 -63.452 -0.25271 1.3387 2.0126 1676.1 -0.0071028 617.30 0.17619 0.014700 68.027 405.60 434.53 2.9909 0.93084 1.1198 186.51 1.3264 4.1958 0.0055752
-118.62 0.068946 1.0662e-07 -61.439 -61.438 -0.23963 662.86 0.0015086 -61.439 -61.438 -0.23963 1.3391 2.0146 1669.4 -0.0070878 604.74 0.17560 0.016325 61.255 406.53 435.64 2.9772 0.93401 1.1231 187.06 1.3058 4.2233 0.0056421
-117.62 0.076937 7.6195e-08 -59.423 -59.422 -0.22663 661.84 0.0015109 -59.423 -59.422 -0.22663 1.3395 2.0165 1662.8 -0.0070726 592.58 0.17501 0.018101 55.245 407.46 436.76 2.9638 0.93718 1.1263 187.60 1.2857 4.2507 0.0057092
-116.62 0.085718 3.7652e-08 -57.406 -57.405 -0.21370 660.82 0.0015133 -57.406 -57.405 -0.21370 1.3400 2.0184 1656.1 -0.0070573 580.80 0.17442 0.020040 49.901 408.39 437.88 2.9506 0.94035 1.1295 188.14 1.2660 4.2782 0.0057767
-115.62 52.667 undefined -55.520 -54.970 -0.20169 660.00 0.0015152 -55.520 -54.970 -0.20169 1.3408 2.0199 1651.2 -0.0070459 571.04 0.17399 660.00 0.0015152 -55.520 -54.970 -0.20169 1.3408 2.0199 1651.2 -0.0070459 571.04 0.17399
-114.62 319.68 undefined -54.178 -50.838 -0.19320 660.00 0.0015152 -54.178 -50.838 -0.19320 1.3431 2.0193 1653.7 -0.0070517 568.21 0.17421 660.00 0.0015152 -54.178 -50.838 -0.19320 1.3431 2.0193 1653.7 -0.0070517 568.21 0.17421
-113.62 585.95 undefined -52.834 -46.712 -0.18474 660.00 0.0015152 -52.834 -46.712 -0.18474 1.3455 2.0187 1656.3 -0.0070573 565.43 0.17443 660.00 0.0015152 -52.834 -46.712 -0.18474 1.3455 2.0187 1656.3 -0.0070573 565.43 0.17443
-112.62 851.49 undefined -51.487 -42.592 -0.17633 660.00 0.0015152 -51.487 -42.592 -0.17633 1.3479 2.0182 1658.8 -0.0070627 562.70 0.17465 660.00 0.0015152 -51.487 -42.592 -0.17633 1.3479 2.0182 1658.8 -0.0070627 562.70 0.17465
-111.62 1116.3 undefined -50.138 -38.476 -0.16795 660.00 0.0015152 -50.138 -38.476 -0.16795 1.3502 2.0177 1661.3 -0.0070678 560.00 0.17487 660.00 0.0015152 -50.138 -38.476 -0.16795 1.3502 2.0177 1661.3 -0.0070678 560.00 0.17487
-110.62 1380.4 undefined -48.786 -34.366 -0.15961 660.00 0.0015152 -48.786 -34.366 -0.15961 1.3526 2.0173 1663.8 -0.0070728 557.35 0.17509 660.00 0.0015152 -48.786 -34.366 -0.15961 1.3526 2.0173 1663.8 -0.0070728 557.35 0.17509
-109.62 1643.7 undefined -47.433 -30.261 -0.15131 660.00 0.0015152 -47.433 -30.261 -0.15131 1.3550 2.0169 1666.2 -0.0070776 554.74 0.17531 660.00 0.0015152 -47.433 -30.261 -0.15131 1.3550 2.0169 1666.2 -0.0070776 554.74 0.17531
-108.62 1906.4 undefined -46.076 -26.161 -0.14304 660.00 0.0015152 -46.076 -26.161 -0.14304 1.3574 2.0165 1668.7 -0.0070821 552.17 0.17553 660.00 0.0015152 -46.076 -26.161 -0.14304 1.3574 2.0165 1668.7 -0.0070821 552.17 0.17553
-107.62 2168.4 undefined -44.718 -22.066 -0.13480 660.00 0.0015152 -44.718 -22.066 -0.13480 1.3598 2.0162 1671.2 -0.0070865 549.64 0.17575 660.00 0.0015152 -44.718 -22.066 -0.13480 1.3598 2.0162 1671.2 -0.0070865 549.64 0.17575
-106.62 2429.6 undefined -43.357 -17.975 -0.12661 660.00 0.0015152 -43.357 -17.975 -0.12661 1.3622 2.0159 1673.6 -0.0070907 547.15 0.17597 660.00 0.0015152 -43.357 -17.975 -0.12661 1.3622 2.0159 1673.6 -0.0070907 547.15 0.17597
-105.62 2690.2 undefined -41.993 -13.890 -0.11844 660.00 0.0015152 -41.993 -13.890 -0.11844 1.3647 2.0157 1676.0 -0.0070947 544.70 0.17619 660.00 0.0015152 -41.993 -13.890 -0.11844 1.3647 2.0157 1676.0 -0.0070947 544.70 0.17619
-104.62 2950.1 undefined -40.627 -9.8088 -0.11031 660.00 0.0015152 -40.627 -9.8088 -0.11031 1.3671 2.0155 1678.4 -0.0070985 542.28 0.17642 660.00 0.0015152 -40.627 -9.8088 -0.11031 1.3671 2.0155 1678.4 -0.0070985 542.28 0.17642
-103.62 3209.3 undefined -39.259 -5.7325 -0.10222 660.00 0.0015152 -39.259 -5.7325 -0.10222 1.3695 2.0154 1680.8 -0.0071021 539.91 0.17664 660.00 0.0015152 -39.259 -5.7325 -0.10222 1.3695 2.0154 1680.8 -0.0071021 539.91 0.17664
-102.62 3467.9 undefined -37.888 -1.6608 -0.094157 660.00 0.0015152 -37.888 -1.6608 -0.094157 1.3720 2.0153 1683.2 -0.0071055 537.57 0.17686 660.00 0.0015152 -37.888 -1.6608 -0.094157 1.3720 2.0153 1683.2 -0.0071055 537.57 0.17686
-101.62 3725.8 undefined -36.515 2.4064 -0.086128 660.00 0.0015152 -36.515 2.4064 -0.086128 1.3744 2.0152 1685.6 -0.0071087 535.26 0.17709 660.00 0.0015152 -36.515 2.4064 -0.086128 1.3744 2.0152 1685.6 -0.0071087 535.26 0.17709
-100.62 3983.0 undefined -35.140 6.4691 -0.078131 660.00 0.0015152 -35.140 6.4691 -0.078131 1.3769 2.0152 1687.9 -0.0071118 532.99 0.17731 660.00 0.0015152 -35.140 6.4691 -0.078131 1.3769 2.0152 1687.9 -0.0071118 532.99 0.17731
-99.625 4239.6 undefined -33.761 10.528 -0.070166 660.00 0.0015152 -33.761 10.528 -0.070166 1.3794 2.0152 1690.3 -0.0071146 530.75 0.17753 660.00 0.0015152 -33.761 10.528 -0.070166 1.3794 2.0152 1690.3 -0.0071146 530.75 0.17753
-98.625 4495.5 undefined -32.381 14.582 -0.062233 660.00 0.0015152 -32.381 14.582 -0.062233 1.3819 2.0153 1692.6 -0.0071173 528.55 0.17776 660.00 0.0015152 -32.381 14.582 -0.062233 1.3819 2.0153 1692.6 -0.0071173 528.55 0.17776
-97.625 4750.8 undefined -30.998 18.632 -0.054330 660.00 0.0015152 -30.998 18.632 -0.054330 1.3844 2.0154 1694.9 -0.0071198 526.38 0.17798 660.00 0.0015152 -30.998 18.632 -0.054330 1.3844 2.0154 1694.9 -0.0071198 526.38 0.17798
-96.625 5005.4 undefined -29.612 22.677 -0.046458 660.00 0.0015152 -29.612 22.677 -0.046458 1.3869 2.0155 1697.2 -0.0071221 524.24 0.17821 660.00 0.0015152 -29.612 22.677 -0.046458 1.3869 2.0155 1697.2 -0.0071221 524.24 0.17821
-95.625 5259.4 undefined -28.224 26.719 -0.038616 660.00 0.0015152 -28.224 26.719 -0.038616 1.3894 2.0157 1699.5 -0.0071242 522.14 0.17843 660.00 0.0015152 -28.224 26.719 -0.038616 1.3894 2.0157 1699.5 -0.0071242 522.14 0.17843
-94.625 5512.8 undefined -26.833 30.757 -0.030805 660.00 0.0015152 -26.833 30.757 -0.030805 1.3920 2.0159 1701.8 -0.0071262 520.07 0.17866 660.00 0.0015152 -26.833 30.757 -0.030805 1.3920 2.0159 1701.8 -0.0071262 520.07 0.17866
-93.625 5765.5 undefined -25.440 34.790 -0.023022 660.00 0.0015152 -25.440 34.790 -0.023022 1.3945 2.0162 1704.1 -0.0071279 518.02 0.17888 660.00 0.0015152 -25.440 34.790 -0.023022 1.3945 2.0162 1704.1 -0.0071279 518.02 0.17888
-92.625 6017.7 undefined -24.044 38.820 -0.015269 660.00 0.0015152 -24.044 38.820 -0.015269 1.3971 2.0165 1706.3 -0.0071295 516.01 0.17911 660.00 0.0015152 -24.044 38.820 -0.015269 1.3971 2.0165 1706.3 -0.0071295 516.01 0.17911
-91.625 6269.2 undefined -22.646 42.846 -0.0075440 660.00 0.0015152 -22.646 42.846 -0.0075440 1.3997 2.0168 1708.5 -0.0071310 514.03 0.17933 660.00 0.0015152 -22.646 42.846 -0.0075440 1.3997 2.0168 1708.5 -0.0071310 514.03 0.17933
-90.625 6520.1 undefined -21.245 46.868 0.00015259 660.00 0.0015152 -21.245 46.868 0.00015259 1.4023 2.0172 1710.8 -0.0071322 512.08 0.17956 660.00 0.0015152 -21.245 46.868 0.00015259 1.4023 2.0172 1710.8 -0.0071322 512.08 0.17956
-89.625 6770.4 undefined -19.841 50.887 0.0078213 660.00 0.0015152 -19.841 50.887 0.0078213 1.4049 2.0176 1713.0 -0.0071333 510.15 0.17979 660.00 0.0015152 -19.841 50.887 0.0078213 1.4049 2.0176 1713.0 -0.0071333 510.15 0.17979
-88.625 7020.2 undefined -18.435 54.902 0.015463 660.00 0.0015152 -18.435 54.902 0.015463 1.4075 2.0181 1715.2 -0.0071342 508.26 0.18001 660.00 0.0015152 -18.435 54.902 0.015463 1.4075 2.0181 1715.2 -0.0071342 508.26 0.18001
-87.625 7269.3 undefined -17.026 58.913 0.023077 660.00 0.0015152 -17.026 58.913 0.023077 1.4101 2.0186 1717.3 -0.0071350 506.39 0.18024 660.00 0.0015152 -17.026 58.913 0.023077 1.4101 2.0186 1717.3 -0.0071350 506.39 0.18024
-86.625 7517.8 undefined -15.615 62.921 0.030664 660.00 0.0015152 -15.615 62.921 0.030664 1.4128 2.0191 1719.5 -0.0071356 504.55 0.18047 660.00 0.0015152 -15.615 62.921 0.030664 1.4128 2.0191 1719.5 -0.0071356 504.55 0.18047
-85.625 7765.8 undefined -14.201 66.925 0.038225 660.00 0.0015152 -14.201 66.925 0.038225 1.4154 2.0197 1721.7 -0.0071360 502.73 0.18070 660.00 0.0015152 -14.201 66.925 0.038225 1.4154 2.0197 1721.7 -0.0071360 502.73 0.18070
-84.625 8013.1 undefined -12.784 70.926 0.045760 660.00 0.0015152 -12.784 70.926 0.045760 1.4181 2.0203 1723.8 -0.0071362 500.94 0.18092 660.00 0.0015152 -12.784 70.926 0.045760 1.4181 2.0203 1723.8 -0.0071362 500.94 0.18092
-83.625 8259.9 undefined -11.364 74.924 0.053269 660.00 0.0015152 -11.364 74.924 0.053269 1.4208 2.0209 1725.9 -0.0071363 499.18 0.18115 660.00 0.0015152 -11.364 74.924 0.053269 1.4208 2.0209 1725.9 -0.0071363 499.18 0.18115
-82.625 8506.1 undefined -9.9423 78.918 0.060753 660.00 0.0015152 -9.9423 78.918 0.060753 1.4235 2.0216 1728.0 -0.0071363 497.44 0.18138 660.00 0.0015152 -9.9423 78.918 0.060753 1.4235 2.0216 1728.0 -0.0071363 497.44 0.18138
-81.625 8751.8 undefined -8.5175 82.909 0.068212 660.00 0.0015152 -8.5175 82.909 0.068212 1.4262 2.0223 1730.1 -0.0071360 495.73 0.18161 660.00 0.0015152 -8.5175 82.909 0.068212 1.4262 2.0223 1730.1 -0.0071360 495.73 0.18161
-80.625 8996.9 undefined -7.0899 86.897 0.075646 660.00 0.0015152 -7.0899 86.897 0.075646 1.4289 2.0230 1732.2 -0.0071357 494.04 0.18184 660.00 0.0015152 -7.0899 86.897 0.075646 1.4289 2.0230 1732.2 -0.0071357 494.04 0.18184
-79.625 9241.4 undefined -5.6596 90.882 0.083056 660.00 0.0015152 -5.6596 90.882 0.083056 1.4317 2.0238 1734.3 -0.0071351 492.38 0.18207 660.00 0.0015152 -5.6596 90.882 0.083056 1.4317 2.0238 1734.3 -0.0071351 492.38 0.18207
-78.625 9485.4 undefined -4.2265 94.863 0.090442 660.00 0.0015152 -4.2265 94.863 0.090442 1.4344 2.0246 1736.4 -0.0071345 490.74 0.18230 660.00 0.0015152 -4.2265 94.863 0.090442 1.4344 2.0246 1736.4 -0.0071345 490.74 0.18230
-77.625 9728.8 undefined -2.7907 98.842 0.097805 660.00 0.0015152 -2.7907 98.842 0.097805 1.4372 2.0255 1738.4 -0.0071336 489.12 0.18253 660.00 0.0015152 -2.7907 98.842 0.097805 1.4372 2.0255 1738.4 -0.0071336 489.12 0.18253
-76.625 9971.6 undefined -1.3521 102.82 0.10514 660.00 0.0015152 -1.3521 102.82 0.10514 1.4400 2.0264 1740.4 -0.0071326 487.53 0.18276 660.00 0.0015152 -1.3521 102.82 0.10514 1.4400 2.0264 1740.4 -0.0071326 487.53 0.18276
-75.625 10214. undefined 0.089312 106.79 0.11246 660.00 0.0015152 0.089312 106.79 0.11246 1.4428 2.0273 1742.5 -0.0071315 485.95 0.18299 660.00 0.0015152 0.089312 106.79 0.11246 1.4428 2.0273 1742.5 -0.0071315 485.95 0.18299
-74.625 10456. undefined 1.5335 110.76 0.11975 660.00 0.0015152 1.5335 110.76 0.11975 1.4456 2.0282 1744.5 -0.0071302 484.40 0.18322 660.00 0.0015152 1.5335 110.76 0.11975 1.4456 2.0282 1744.5 -0.0071302 484.40 0.18322
-73.625 10697. undefined 2.9806 114.73 0.12702 660.00 0.0015152 2.9806 114.73 0.12702 1.4485 2.0292 1746.5 -0.0071288 482.87 0.18345 660.00 0.0015152 2.9806 114.73 0.12702 1.4485 2.0292 1746.5 -0.0071288 482.87 0.18345
-72.625 10938. undefined 4.4305 118.69 0.13427 660.00 0.0015152 4.4305 118.69 0.13427 1.4513 2.0302 1748.4 -0.0071272 481.37 0.18369 660.00 0.0015152 4.4305 118.69 0.13427 1.4513 2.0302 1748.4 -0.0071272 481.37 0.18369
-71.625 11178. undefined 5.8833 122.65 0.14150 660.00 0.0015152 5.8833 122.65 0.14150 1.4542 2.0313 1750.4 -0.0071255 479.88 0.18392 660.00 0.0015152 5.8833 122.65 0.14150 1.4542 2.0313 1750.4 -0.0071255 479.88 0.18392
-70.625 11418. undefined 7.3389 126.61 0.14870 660.00 0.0015152 7.3389 126.61 0.14870 1.4571 2.0324 1752.4 -0.0071236 478.41 0.18415 660.00 0.0015152 7.3389 126.61 0.14870 1.4571 2.0324 1752.4 -0.0071236 478.41 0.18415
-69.625 11657. undefined 8.7975 130.57 0.15589 660.00 0.0015152 8.7975 130.57 0.15589 1.4600 2.0335 1754.3 -0.0071216 476.97 0.18438 660.00 0.0015152 8.7975 130.57 0.15589 1.4600 2.0335 1754.3 -0.0071216 476.97 0.18438
-68.625 11895. undefined 10.259 134.52 0.16305 660.00 0.0015152 10.259 134.52 0.16305 1.4629 2.0347 1756.3 -0.0071195 475.54 0.18462 660.00 0.0015152 10.259 134.52 0.16305 1.4629 2.0347 1756.3 -0.0071195 475.54 0.18462
-67.625 12133. undefined 11.723 138.48 0.17019 660.00 0.0015152 11.723 138.48 0.17019 1.4659 2.0359 1758.2 -0.0071172 474.13 0.18485 660.00 0.0015152 11.723 138.48 0.17019 1.4659 2.0359 1758.2 -0.0071172 474.13 0.18485
-66.625 12371. undefined 13.191 142.42 0.17732 660.00 0.0015152 13.191 142.42 0.17732 1.4688 2.0371 1760.1 -0.0071148 472.74 0.18508 660.00 0.0015152 13.191 142.42 0.17732 1.4688 2.0371 1760.1 -0.0071148 472.74 0.18508
-65.625 12608. undefined 14.661 146.37 0.18442 660.00 0.0015152 14.661 146.37 0.18442 1.4718 2.0383 1762.0 -0.0071123 471.37 0.18532 660.00 0.0015152 14.661 146.37 0.18442 1.4718 2.0383 1762.0 -0.0071123 471.37 0.18532
-64.625 12845. undefined 16.134 150.32 0.19150 660.00 0.0015152 16.134 150.32 0.19150 1.4748 2.0396 1763.9 -0.0071096 470.02 0.18555 660.00 0.0015152 16.134 150.32 0.19150 1.4748 2.0396 1763.9 -0.0071096 470.02 0.18555
-63.625 13081. undefined 17.611 154.26 0.19856 660.00 0.0015152 17.611 154.26 0.19856 1.4778 2.0410 1765.7 -0.0071068 468.69 0.18578 660.00 0.0015152 17.611 154.26 0.19856 1.4778 2.0410 1765.7 -0.0071068 468.69 0.18578
-62.625 13316. undefined 19.090 158.20 0.20561 660.00 0.0015152 19.090 158.20 0.20561 1.4808 2.0423 1767.6 -0.0071039 467.38 0.18602 660.00 0.0015152 19.090 158.20 0.20561 1.4808 2.0423 1767.6 -0.0071039 467.38 0.18602
-61.625 13551. undefined 20.572 162.14 0.21263 660.00 0.0015152 20.572 162.14 0.21263 1.4838 2.0437 1769.4 -0.0071008 466.08 0.18625 660.00 0.0015152 20.572 162.14 0.21263 1.4838 2.0437 1769.4 -0.0071008 466.08 0.18625
-60.625 13786. undefined 22.057 166.07 0.21964 660.00 0.0015152 22.057 166.07 0.21964 1.4869 2.0451 1771.3 -0.0070977 464.80 0.18649 660.00 0.0015152 22.057 166.07 0.21964 1.4869 2.0451 1771.3 -0.0070977 464.80 0.18649
-59.625 14020. undefined 23.546 170.01 0.22662 660.00 0.0015152 23.546 170.01 0.22662 1.4900 2.0466 1773.1 -0.0070943 463.53 0.18672 660.00 0.0015152 23.546 170.01 0.22662 1.4900 2.0466 1773.1 -0.0070943 463.53 0.18672
-58.625 14253. undefined 25.037 173.94 0.23359 660.00 0.0015152 25.037 173.94 0.23359 1.4930 2.0480 1774.9 -0.0070909 462.29 0.18696 660.00 0.0015152 25.037 173.94 0.23359 1.4930 2.0480 1774.9 -0.0070909 462.29 0.18696
-57.625 14486. undefined 26.532 177.87 0.24054 660.00 0.0015152 26.532 177.87 0.24054 1.4961 2.0495 1776.7 -0.0070874 461.06 0.18720 660.00 0.0015152 26.532 177.87 0.24054 1.4961 2.0495 1776.7 -0.0070874 461.06 0.18720
-56.625 14719. undefined 28.030 181.79 0.24748 660.00 0.0015152 28.030 181.79 0.24748 1.4993 2.0511 1778.5 -0.0070837 459.84 0.18743 660.00 0.0015152 28.030 181.79 0.24748 1.4993 2.0511 1778.5 -0.0070837 459.84 0.18743
-55.625 14951. undefined 29.530 185.72 0.25439 660.00 0.0015152 29.530 185.72 0.25439 1.5024 2.0527 1780.3 -0.0070799 458.64 0.18767 660.00 0.0015152 29.530 185.72 0.25439 1.5024 2.0527 1780.3 -0.0070799 458.64 0.18767
-54.625 15183. undefined 31.034 189.64 0.26129 660.00 0.0015152 31.034 189.64 0.26129 1.5056 2.0543 1782.0 -0.0070760 457.46 0.18791 660.00 0.0015152 31.034 189.64 0.26129 1.5056 2.0543 1782.0 -0.0070760 457.46 0.18791
-53.625 15414. undefined 32.542 193.57 0.26817 660.00 0.0015152 32.542 193.57 0.26817 1.5087 2.0559 1783.8 -0.0070719 456.29 0.18814 660.00 0.0015152 32.542 193.57 0.26817 1.5087 2.0559 1783.8 -0.0070719 456.29 0.18814
-52.625 15645. undefined 34.052 197.49 0.27503 660.00 0.0015152 34.052 197.49 0.27503 1.5119 2.0575 1785.5 -0.0070678 455.14 0.18838 660.00 0.0015152 34.052 197.49 0.27503 1.5119 2.0575 1785.5 -0.0070678 455.14 0.18838
-51.625 15875. undefined 35.565 201.40 0.28188 660.00 0.0015152 35.565 201.40 0.28188 1.5151 2.0592 1787.3 -0.0070635 454.00 0.18862 660.00 0.0015152 35.565 201.40 0.28188 1.5151 2.0592 1787.3 -0.0070635 454.00 0.18862
-50.625 16105. undefined 37.082 205.32 0.28871 660.00 0.0015152 37.082 205.32 0.28871 1.5183 2.0610 1789.0 -0.0070592 452.88 0.18886 660.00 0.0015152 37.082 205.32 0.28871 1.5183 2.0610 1789.0 -0.0070592 452.88 0.18886
-49.625 16334. undefined 38.602 209.24 0.29553 660.00 0.0015152 38.602 209.24 0.29553 1.5216 2.0627 1790.7 -0.0070547 451.77 0.18909 660.00 0.0015152 38.602 209.24 0.29553 1.5216 2.0627 1790.7 -0.0070547 451.77 0.18909
-48.625 16563. undefined 40.125 213.15 0.30233 660.00 0.0015152 40.125 213.15 0.30233 1.5248 2.0645 1792.4 -0.0070501 450.68 0.18933 660.00 0.0015152 40.125 213.15 0.30233 1.5248 2.0645 1792.4 -0.0070501 450.68 0.18933
-47.625 16791. undefined 41.652 217.06 0.30911 660.00 0.0015152 41.652 217.06 0.30911 1.5281 2.0663 1794.1 -0.0070454 449.60 0.18957 660.00 0.0015152 41.652 217.06 0.30911 1.5281 2.0663 1794.1 -0.0070454 449.60 0.18957
-46.625 17019. undefined 43.182 220.97 0.31588 660.00 0.0015152 43.182 220.97 0.31588 1.5314 2.0681 1795.8 -0.0070406 448.53 0.18981 660.00 0.0015152 43.182 220.97 0.31588 1.5314 2.0681 1795.8 -0.0070406 448.53 0.18981
-45.625 17247. undefined 44.715 224.88 0.32263 660.00 0.0015152 44.715 224.88 0.32263 1.5347 2.0700 1797.5 -0.0070357 447.48 0.19005 660.00 0.0015152 44.715 224.88 0.32263 1.5347 2.0700 1797.5 -0.0070357 447.48 0.19005
-44.625 17474. undefined 46.251 228.79 0.32937 660.00 0.0015152 46.251 228.79 0.32937 1.5380 2.0719 1799.1 -0.0070307 446.43 0.19029 660.00 0.0015152 46.251 228.79 0.32937 1.5380 2.0719 1799.1 -0.0070307 446.43 0.19029
-43.625 17700. undefined 47.791 232.70 0.33609 660.00 0.0015152 47.791 232.70 0.33609 1.5414 2.0738 1800.8 -0.0070256 445.41 0.19053 660.00 0.0015152 47.791 232.70 0.33609 1.5414 2.0738 1800.8 -0.0070256 445.41 0.19053
-42.625 17926. undefined 49.334 236.60 0.34280 660.00 0.0015152 49.334 236.60 0.34280 1.5447 2.0758 1802.4 -0.0070204 444.39 0.19077 660.00 0.0015152 49.334 236.60 0.34280 1.5447 2.0758 1802.4 -0.0070204 444.39 0.19077
-41.625 18152. undefined 50.880 240.51 0.34950 660.00 0.0015152 50.880 240.51 0.34950 1.5481 2.0777 1804.1 -0.0070151 443.39 0.19101 660.00 0.0015152 50.880 240.51 0.34950 1.5481 2.0777 1804.1 -0.0070151 443.39 0.19101
-40.625 18377. undefined 52.430 244.41 0.35617 660.00 0.0015152 52.430 244.41 0.35617 1.5515 2.0797 1805.7 -0.0070097 442.40 0.19125 660.00 0.0015152 52.430 244.41 0.35617 1.5515 2.0797 1805.7 -0.0070097 442.40 0.19125
-39.625 18602. undefined 53.983 248.31 0.36284 660.00 0.0015152 53.983 248.31 0.36284 1.5549 2.0818 1807.3 -0.0070042 441.42 0.19149 660.00 0.0015152 53.983 248.31 0.36284 1.5549 2.0818 1807.3 -0.0070042 441.42 0.19149
-38.625 18826. undefined 55.540 252.21 0.36949 660.00 0.0015152 55.540 252.21 0.36949 1.5583 2.0838 1808.9 -0.0069986 440.46 0.19174 660.00 0.0015152 55.540 252.21 0.36949 1.5583 2.0838 1808.9 -0.0069986 440.46 0.19174
-37.625 19050. undefined 57.100 256.11 0.37613 660.00 0.0015152 57.100 256.11 0.37613 1.5617 2.0859 1810.5 -0.0069929 439.50 0.19198 660.00 0.0015152 57.100 256.11 0.37613 1.5617 2.0859 1810.5 -0.0069929 439.50 0.19198
-36.625 19274. undefined 58.663 260.01 0.38275 660.00 0.0015152 58.663 260.01 0.38275 1.5652 2.0880 1812.1 -0.0069871 438.56 0.19222 660.00 0.0015152 58.663 260.01 0.38275 1.5652 2.0880 1812.1 -0.0069871 438.56 0.19222
-35.625 19497. undefined 60.230 263.91 0.38936 660.00 0.0015152 60.230 263.91 0.38936 1.5687 2.0902 1813.7 -0.0069812 437.63 0.19246 660.00 0.0015152 60.230 263.91 0.38936 1.5687 2.0902 1813.7 -0.0069812 437.63 0.19246
-34.625 19720. undefined 61.800 267.80 0.39596 660.00 0.0015152 61.800 267.80 0.39596 1.5721 2.0923 1815.3 -0.0069753 436.71 0.19271 660.00 0.0015152 61.800 267.80 0.39596 1.5721 2.0923 1815.3 -0.0069753 436.71 0.19271
-33.625 19942. undefined 63.374 271.70 0.40255 660.00 0.0015152 63.374 271.70 0.40255 1.5756 2.0945 1816.8 -0.0069692 435.80 0.19295 660.00 0.0015152 63.374 271.70 0.40255 1.5756 2.0945 1816.8 -0.0069692 435.80 0.19295
-32.625 20164. undefined 64.952 275.59 0.40912 660.00 0.0015152 64.952 275.59 0.40912 1.5792 2.0967 1818.4 -0.0069631 434.90 0.19319 660.00 0.0015152 64.952 275.59 0.40912 1.5792 2.0967 1818.4 -0.0069631 434.90 0.19319
-31.625 20385. undefined 66.533 279.49 0.41568 660.00 0.0015152 66.533 279.49 0.41568 1.5827 2.0990 1819.9 -0.0069569 434.02 0.19344 660.00 0.0015152 66.533 279.49 0.41568 1.5827 2.0990 1819.9 -0.0069569 434.02 0.19344
-30.625 20606. undefined 68.117 283.38 0.42222 660.00 0.0015152 68.117 283.38 0.42222 1.5862 2.1012 1821.5 -0.0069506 433.14 0.19368 660.00 0.0015152 68.117 283.38 0.42222 1.5862 2.1012 1821.5 -0.0069506 433.14 0.19368
-29.625 20827. undefined 69.705 287.27 0.42876 660.00 0.0015152 69.705 287.27 0.42876 1.5898 2.1035 1823.0 -0.0069442 432.28 0.19392 660.00 0.0015152 69.705 287.27 0.42876 1.5898 2.1035 1823.0 -0.0069442 432.28 0.19392
-28.625 21047. undefined 71.297 291.16 0.43528 660.00 0.0015152 71.297 291.16 0.43528 1.5934 2.1058 1824.5 -0.0069377 431.42 0.19417 660.00 0.0015152 71.297 291.16 0.43528 1.5934 2.1058 1824.5 -0.0069377 431.42 0.19417
-27.625 21266. undefined 72.892 295.05 0.44179 660.00 0.0015152 72.892 295.05 0.44179 1.5969 2.1082 1826.1 -0.0069312 430.58 0.19441 660.00 0.0015152 72.892 295.05 0.44179 1.5969 2.1082 1826.1 -0.0069312 430.58 0.19441
-26.625 21486. undefined 74.491 298.94 0.44829 660.00 0.0015152 74.491 298.94 0.44829 1.6005 2.1105 1827.6 -0.0069246 429.74 0.19466 660.00 0.0015152 74.491 298.94 0.44829 1.6005 2.1105 1827.6 -0.0069246 429.74 0.19466
-25.625 21705. undefined 76.093 302.83 0.45478 660.00 0.0015152 76.093 302.83 0.45478 1.6042 2.1129 1829.1 -0.0069179 428.92 0.19490 660.00 0.0015152 76.093 302.83 0.45478 1.6042 2.1129 1829.1 -0.0069179 428.92 0.19490
-24.625 21923. undefined 77.699 306.72 0.46125 660.00 0.0015152 77.699 306.72 0.46125 1.6078 2.1153 1830.6 -0.0069111 428.10 0.19515 660.00 0.0015152 77.699 306.72 0.46125 1.6078 2.1153 1830.6 -0.0069111 428.10 0.19515
-23.625 22141. undefined 79.309 310.61 0.46771 660.00 0.0015152 79.309 310.61 0.46771 1.6114 2.1178 1832.0 -0.0069043 427.29 0.19540 660.00 0.0015152 79.309 310.61 0.46771 1.6114 2.1178 1832.0 -0.0069043 427.29 0.19540
-22.625 22359. undefined 80.922 314.50 0.47417 660.00 0.0015152 80.922 314.50 0.47417 1.6151 2.1202 1833.5 -0.0068974 426.50 0.19564 660.00 0.0015152 80.922 314.50 0.47417 1.6151 2.1202 1833.5 -0.0068974 426.50 0.19564
-21.625 22576. undefined 82.539 318.38 0.48061 660.00 0.0015152 82.539 318.38 0.48061 1.6188 2.1227 1835.0 -0.0068904 425.71 0.19589 660.00 0.0015152 82.539 318.38 0.48061 1.6188 2.1227 1835.0 -0.0068904 425.71 0.19589
-20.625 22793. undefined 84.159 322.27 0.48704 660.00 0.0015152 84.159 322.27 0.48704 1.6225 2.1252 1836.5 -0.0068833 424.93 0.19613 660.00 0.0015152 84.159 322.27 0.48704 1.6225 2.1252 1836.5 -0.0068833 424.93 0.19613
-19.625 23010. undefined 85.784 326.16 0.49346 660.00 0.0015152 85.784 326.16 0.49346 1.6262 2.1277 1837.9 -0.0068762 424.16 0.19638 660.00 0.0015152 85.784 326.16 0.49346 1.6262 2.1277 1837.9 -0.0068762 424.16 0.19638
-18.625 23226. undefined 87.412 330.04 0.49987 660.00 0.0015152 87.412 330.04 0.49987 1.6299 2.1303 1839.4 -0.0068690 423.40 0.19663 660.00 0.0015152 87.412 330.04 0.49987 1.6299 2.1303 1839.4 -0.0068690 423.40 0.19663
-17.625 23442. undefined 89.043 333.93 0.50626 660.00 0.0015152 89.043 333.93 0.50626 1.6336 2.1328 1840.8 -0.0068618 422.65 0.19688 660.00 0.0015152 89.043 333.93 0.50626 1.6336 2.1328 1840.8 -0.0068618 422.65 0.19688
-16.625 23657. undefined 90.679 337.81 0.51265 660.00 0.0015152 90.679 337.81 0.51265 1.6373 2.1354 1842.3 -0.0068545 421.90 0.19713 660.00 0.0015152 90.679 337.81 0.51265 1.6373 2.1354 1842.3 -0.0068545 421.90 0.19713
-15.625 23872. undefined 92.318 341.70 0.51903 660.00 0.0015152 92.318 341.70 0.51903 1.6411 2.1380 1843.7 -0.0068471 421.17 0.19737 660.00 0.0015152 92.318 341.70 0.51903 1.6411 2.1380 1843.7 -0.0068471 421.17 0.19737
-14.625 24087. undefined 93.961 345.58 0.52540 660.00 0.0015152 93.961 345.58 0.52540 1.6448 2.1407 1845.1 -0.0068397 420.44 0.19762 660.00 0.0015152 93.961 345.58 0.52540 1.6448 2.1407 1845.1 -0.0068397 420.44 0.19762
-13.625 24301. undefined 95.608 349.47 0.53176 660.00 0.0015152 95.608 349.47 0.53176 1.6486 2.1433 1846.6 -0.0068322 419.72 0.19787 660.00 0.0015152 95.608 349.47 0.53176 1.6486 2.1433 1846.6 -0.0068322 419.72 0.19787
-12.625 24515. undefined 97.258 353.35 0.53810 660.00 0.0015152 97.258 353.35 0.53810 1.6524 2.1460 1848.0 -0.0068246 419.01 0.19812 660.00 0.0015152 97.258 353.35 0.53810 1.6524 2.1460 1848.0 -0.0068246 419.01 0.19812
-11.625 24728. undefined 98.913 357.24 0.54444 660.00 0.0015152 98.913 357.24 0.54444 1.6562 2.1487 1849.4 -0.0068170 418.31 0.19837 660.00 0.0015152 98.913 357.24 0.54444 1.6562 2.1487 1849.4 -0.0068170 418.31 0.19837
-10.625 24941. undefined 100.57 361.12 0.55077 660.00 0.0015152 100.57 361.12 0.55077 1.6600 2.1514 1850.8 -0.0068094 417.62 0.19862 660.00 0.0015152 100.57 361.12 0.55077 1.6600 2.1514 1850.8 -0.0068094 417.62 0.19862
-9.6250 25154. undefined 102.23 365.01 0.55709 660.00 0.0015152 102.23 365.01 0.55709 1.6639 2.1541 1852.2 -0.0068017 416.93 0.19887 660.00 0.0015152 102.23 365.01 0.55709 1.6639 2.1541 1852.2 -0.0068017 416.93 0.19887
-8.6250 25366. undefined 103.90 368.89 0.56340 660.00 0.0015152 103.90 368.89 0.56340 1.6677 2.1569 1853.6 -0.0067939 416.25 0.19912 660.00 0.0015152 103.90 368.89 0.56340 1.6677 2.1569 1853.6 -0.0067939 416.25 0.19912
-7.6250 25578. undefined 105.57 372.77 0.56970 660.00 0.0015152 105.57 372.77 0.56970 1.6715 2.1597 1855.0 -0.0067861 415.58 0.19937 660.00 0.0015152 105.57 372.77 0.56970 1.6715 2.1597 1855.0 -0.0067861 415.58 0.19937
-6.6250 25790. undefined 107.24 376.66 0.57599 660.00 0.0015152 107.24 376.66 0.57599 1.6754 2.1625 1856.3 -0.0067782 414.92 0.19962 660.00 0.0015152 107.24 376.66 0.57599 1.6754 2.1625 1856.3 -0.0067782 414.92 0.19962
-5.6250 26001. undefined 108.92 380.54 0.58227 660.00 0.0015152 108.92 380.54 0.58227 1.6793 2.1653 1857.7 -0.0067703 414.26 0.19987 660.00 0.0015152 108.92 380.54 0.58227 1.6793 2.1653 1857.7 -0.0067703 414.26 0.19987
-4.6250 26212. undefined 110.60 384.43 0.58854 660.00 0.0015152 110.60 384.43 0.58854 1.6831 2.1681 1859.1 -0.0067623 413.61 0.20012 660.00 0.0015152 110.60 384.43 0.58854 1.6831 2.1681 1859.1 -0.0067623 413.61 0.20012
-3.6250 26423. undefined 112.29 388.31 0.59480 660.00 0.0015152 112.29 388.31 0.59480 1.6870 2.1709 1860.5 -0.0067543 412.97 0.20038 660.00 0.0015152 112.29 388.31 0.59480 1.6870 2.1709 1860.5 -0.0067543 412.97 0.20038
-2.6250 26633. undefined 113.97 392.20 0.60106 660.00 0.0015152 113.97 392.20 0.60106 1.6909 2.1738 1861.8 -0.0067463 412.33 0.20063 660.00 0.0015152 113.97 392.20 0.60106 1.6909 2.1738 1861.8 -0.0067463 412.33 0.20063
-1.6250 26843. undefined 115.67 396.08 0.60731 660.00 0.0015152 115.67 396.08 0.60731 1.6949 2.1767 1863.2 -0.0067382 411.70 0.20088 660.00 0.0015152 115.67 396.08 0.60731 1.6949 2.1767 1863.2 -0.0067382 411.70 0.20088
-0.62500 27052. undefined 117.36 399.97 0.61354 660.00 0.0015152 117.36 399.97 0.61354 1.6988 2.1796 1864.5 -0.0067300 411.08 0.20113 660.00 0.0015152 117.36 399.97 0.61354 1.6988 2.1796 1864.5 -0.0067300 411.08 0.20113
0.37500 27261. undefined 119.06 403.85 0.61977 660.00 0.0015152 119.06 403.85 0.61977 1.7027 2.1825 1865.9 -0.0067219 410.47 0.20139 660.00 0.0015152 119.06 403.85 0.61977 1.7027 2.1825 1865.9 -0.0067219 410.47 0.20139
1.3750 27470. undefined 120.77 407.74 0.62599 660.00 0.0015152 120.77 407.74 0.62599 1.7067 2.1854 1867.2 -0.0067136 409.86 0.20164 660.00 0.0015152 120.77 407.74 0.62599 1.7067 2.1854 1867.2 -0.0067136 409.86 0.20164
2.3750 27678. undefined 122.48 411.62 0.63221 660.00 0.0015152 122.48 411.62 0.63221 1.7106 2.1884 1868.5 -0.0067054 409.26 0.20189 660.00 0.0015152 122.48 411.62 0.63221 1.7106 2.1884 1868.5 -0.0067054 409.26 0.20189
3.3750 27887. undefined 124.19 415.51 0.63841 660.00 0.0015152 124.19 415.51 0.63841 1.7146 2.1914 1869.9 -0.0066971 408.66 0.20215 660.00 0.0015152 124.19 415.51 0.63841 1.7146 2.1914 1869.9 -0.0066971 408.66 0.20215
4.3750 28094. undefined 125.91 419.40 0.64461 660.00 0.0015152 125.91 419.40 0.64461 1.7185 2.1944 1871.2 -0.0066887 408.07 0.20240 660.00 0.0015152 125.91 419.40 0.64461 1.7185 2.1944 1871.2 -0.0066887 408.07 0.20240
5.3750 28302. undefined 127.63 423.28 0.65080 660.00 0.0015152 127.63 423.28 0.65080 1.7225 2.1974 1872.5 -0.0066804 407.49 0.20266 660.00 0.0015152 127.63 423.28 0.65080 1.7225 2.1974 1872.5 -0.0066804 407.49 0.20266
6.3750 28509. undefined 129.35 427.17 0.65698 660.00 0.0015152 129.35 427.17 0.65698 1.7265 2.2004 1873.8 -0.0066720 406.91 0.20291 660.00 0.0015152 129.35 427.17 0.65698 1.7265 2.2004 1873.8 -0.0066720 406.91 0.20291
7.3750 28715. undefined 131.08 431.06 0.66315 660.00 0.0015152 131.08 431.06 0.66315 1.7305 2.2034 1875.2 -0.0066635 406.34 0.20317 660.00 0.0015152 131.08 431.06 0.66315 1.7305 2.2034 1875.2 -0.0066635 406.34 0.20317
8.3750 28922. undefined 132.81 434.95 0.66931 660.00 0.0015152 132.81 434.95 0.66931 1.7345 2.2065 1876.5 -0.0066551 405.78 0.20342 660.00 0.0015152 132.81 434.95 0.66931 1.7345 2.2065 1876.5 -0.0066551 405.78 0.20342
9.3750 29128. undefined 134.55 438.84 0.67547 660.00 0.0015152 134.55 438.84 0.67547 1.7385 2.2095 1877.8 -0.0066466 405.22 0.20368 660.00 0.0015152 134.55 438.84 0.67547 1.7385 2.2095 1877.8 -0.0066466 405.22 0.20368
10.375 29333. undefined 136.29 442.73 0.68162 660.00 0.0015152 136.29 442.73 0.68162 1.7426 2.2126 1879.1 -0.0066380 404.67 0.20393 660.00 0.0015152 136.29 442.73 0.68162 1.7426 2.2126 1879.1 -0.0066380 404.67 0.20393
11.375 29539. undefined 138.03 446.62 0.68776 660.00 0.0015152 138.03 446.62 0.68776 1.7466 2.2157 1880.4 -0.0066295 404.12 0.20419 660.00 0.0015152 138.03 446.62 0.68776 1.7466 2.2157 1880.4 -0.0066295 404.12 0.20419
12.375 29744. undefined 139.78 450.51 0.69390 660.00 0.0015152 139.78 450.51 0.69390 1.7506 2.2188 1881.7 -0.0066209 403.58 0.20445 660.00 0.0015152 139.78 450.51 0.69390 1.7506 2.2188 1881.7 -0.0066209 403.58 0.20445
13.375 29949. undefined 141.54 454.40 0.70003 660.00 0.0015152 141.54 454.40 0.70003 1.7547 2.2219 1882.9 -0.0066123 403.04 0.20470 660.00 0.0015152 141.54 454.40 0.70003 1.7547 2.2219 1882.9 -0.0066123 403.04 0.20470
14.375 30153. undefined 143.29 458.29 0.70615 660.00 0.0015152 143.29 458.29 0.70615 1.7587 2.2251 1884.2 -0.0066036 402.51 0.20496 660.00 0.0015152 143.29 458.29 0.70615 1.7587 2.2251 1884.2 -0.0066036 402.51 0.20496
15.375 30357. undefined 145.05 462.18 0.71226 660.00 0.0015152 145.05 462.18 0.71226 1.7628 2.2282 1885.5 -0.0065949 401.99 0.20522 660.00 0.0015152 145.05 462.18 0.71226 1.7628 2.2282 1885.5 -0.0065949 401.99 0.20522
16.375 30561. undefined 146.82 466.07 0.71837 660.00 0.0015152 146.82 466.07 0.71837 1.7669 2.2314 1886.8 -0.0065863 401.47 0.20547 660.00 0.0015152 146.82 466.07 0.71837 1.7669 2.2314 1886.8 -0.0065863 401.47 0.20547
17.375 30764. undefined 148.59 469.97 0.72446 660.00 0.0015152 148.59 469.97 0.72446 1.7710 2.2346 1888.1 -0.0065775 400.96 0.20573 660.00 0.0015152 148.59 469.97 0.72446 1.7710 2.2346 1888.1 -0.0065775 400.96 0.20573
18.375 30967. undefined 150.36 473.86 0.73056 660.00 0.0015152 150.36 473.86 0.73056 1.7751 2.2378 1889.3 -0.0065688 400.45 0.20599 660.00 0.0015152 150.36 473.86 0.73056 1.7751 2.2378 1889.3 -0.0065688 400.45 0.20599
19.375 31170. undefined 152.14 477.76 0.73664 660.00 0.0015152 152.14 477.76 0.73664 1.7792 2.2410 1890.6 -0.0065600 399.94 0.20625 660.00 0.0015152 152.14 477.76 0.73664 1.7792 2.2410 1890.6 -0.0065600 399.94 0.20625
20.375 31373. undefined 153.92 481.65 0.74272 660.00 0.0015152 153.92 481.65 0.74272 1.7833 2.2442 1891.8 -0.0065513 399.45 0.20651 660.00 0.0015152 153.92 481.65 0.74272 1.7833 2.2442 1891.8 -0.0065513 399.45 0.20651
21.375 31575. undefined 155.70 485.55 0.74879 660.00 0.0015152 155.70 485.55 0.74879 1.7874 2.2474 1893.1 -0.0065425 398.95 0.20677 660.00 0.0015152 155.70 485.55 0.74879 1.7874 2.2474 1893.1 -0.0065425 398.95 0.20677
22.375 31776. undefined 157.49 489.45 0.75486 660.00 0.0015152 157.49 489.45 0.75486 1.7915 2.2507 1894.4 -0.0065336 398.47 0.20703 660.00 0.0015152 157.49 489.45 0.75486 1.7915 2.2507 1894.4 -0.0065336 398.47 0.20703
23.375 31978. undefined 159.29 493.35 0.76092 660.00 0.0015152 159.29 493.35 0.76092 1.7956 2.2539 1895.6 -0.0065248 397.98 0.20729 660.00 0.0015152 159.29 493.35 0.76092 1.7956 2.2539 1895.6 -0.0065248 397.98 0.20729
24.375 32179. undefined 161.08 497.25 0.76697 660.00 0.0015152 161.08 497.25 0.76697 1.7997 2.2572 1896.9 -0.0065160 397.50 0.20755 660.00 0.0015152 161.08 497.25 0.76697 1.7997 2.2572 1896.9 -0.0065160 397.50 0.20755
25.375 32380. undefined 162.89 501.15 0.77302 660.00 0.0015152 162.89 501.15 0.77302 1.8039 2.2605 1898.1 -0.0065071 397.03 0.20781 660.00 0.0015152 162.89 501.15 0.77302 1.8039 2.2605 1898.1 -0.0065071 397.03 0.20781
26.375 32581. undefined 164.69 505.05 0.77905 660.00 0.0015152 164.69 505.05 0.77905 1.8080 2.2638 1899.3 -0.0064982 396.56 0.20807 660.00 0.0015152 164.69 505.05 0.77905 1.8080 2.2638 1899.3 -0.0064982 396.56 0.20807
27.375 32781. undefined 166.50 508.95 0.78509 660.00 0.0015152 166.50 508.95 0.78509 1.8122 2.2671 1900.6 -0.0064893 396.10 0.20833 660.00 0.0015152 166.50 508.95 0.78509 1.8122 2.2671 1900.6 -0.0064893 396.10 0.20833
28.375 32981. undefined 168.32 512.86 0.79111 660.00 0.0015152 168.32 512.86 0.79111 1.8163 2.2704 1901.8 -0.0064804 395.64 0.20859 660.00 0.0015152 168.32 512.86 0.79111 1.8163 2.2704 1901.8 -0.0064804 395.64 0.20859
29.375 33181. undefined 170.13 516.76 0.79714 660.00 0.0015152 170.13 516.76 0.79714 1.8205 2.2738 1903.0 -0.0064715 395.18 0.20885 660.00 0.0015152 170.13 516.76 0.79714 1.8205 2.2738 1903.0 -0.0064715 395.18 0.20885
30.375 33380. undefined 171.96 520.67 0.80315 660.00 0.0015152 171.96 520.67 0.80315 1.8246 2.2771 1904.3 -0.0064626 394.73 0.20911 660.00 0.0015152 171.96 520.67 0.80315 1.8246 2.2771 1904.3 -0.0064626 394.73 0.20911
31.375 33579. undefined 173.78 524.57 0.80916 660.00 0.0015152 173.78 524.57 0.80916 1.8288 2.2804 1905.5 -0.0064536 394.29 0.20937 660.00 0.0015152 173.78 524.57 0.80916 1.8288 2.2804 1905.5 -0.0064536 394.29 0.20937
32.375 33778. undefined 175.62 528.48 0.81516 660.00 0.0015152 175.62 528.48 0.81516 1.8330 2.2838 1906.7 -0.0064447 393.85 0.20964 660.00 0.0015152 175.62 528.48 0.81516 1.8330 2.2838 1906.7 -0.0064447 393.85 0.20964
33.375 33976. undefined 177.45 532.39 0.82116 660.00 0.0015152 177.45 532.39 0.82116 1.8371 2.2872 1907.9 -0.0064357 393.41 0.20990 660.00 0.0015152 177.45 532.39 0.82116 1.8371 2.2872 1907.9 -0.0064357 393.41 0.20990
34.375 34175. undefined 179.29 536.30 0.82715 660.00 0.0015152 179.29 536.30 0.82715 1.8413 2.2906 1909.1 -0.0064267 392.98 0.21016 660.00 0.0015152 179.29 536.30 0.82715 1.8413 2.2906 1909.1 -0.0064267 392.98 0.21016
35.375 34372. undefined 181.13 540.21 0.83313 660.00 0.0015152 181.13 540.21 0.83313 1.8455 2.2940 1910.3 -0.0064177 392.55 0.21043 660.00 0.0015152 181.13 540.21 0.83313 1.8455 2.2940 1910.3 -0.0064177 392.55 0.21043
36.375 34570. undefined 182.98 544.12 0.83911 660.00 0.0015152 182.98 544.12 0.83911 1.8497 2.2974 1911.5 -0.0064088 392.13 0.21069 660.00 0.0015152 182.98 544.12 0.83911 1.8497 2.2974 1911.5 -0.0064088 392.13 0.21069
37.375 34767. undefined 184.83 548.03 0.84508 660.00 0.0015152 184.83 548.03 0.84508 1.8539 2.3008 1912.8 -0.0063998 391.71 0.21095 660.00 0.0015152 184.83 548.03 0.84508 1.8539 2.3008 1912.8 -0.0063998 391.71 0.21095
38.375 34964. undefined 186.69 551.95 0.85105 660.00 0.0015152 186.69 551.95 0.85105 1.8581 2.3042 1914.0 -0.0063908 391.29 0.21122 660.00 0.0015152 186.69 551.95 0.85105 1.8581 2.3042 1914.0 -0.0063908 391.29 0.21122
39.375 35161. undefined 188.55 555.86 0.85701 660.00 0.0015152 188.55 555.86 0.85701 1.8623 2.3076 1915.2 -0.0063818 390.88 0.21148 660.00 0.0015152 188.55 555.86 0.85701 1.8623 2.3076 1915.2 -0.0063818 390.88 0.21148
40.375 35358. undefined 190.41 559.78 0.86297 660.00 0.0015152 190.41 559.78 0.86297 1.8665 2.3111 1916.3 -0.0063728 390.47 0.21175 660.00 0.0015152 190.41 559.78 0.86297 1.8665 2.3111 1916.3 -0.0063728 390.47 0.21175
41.375 35554. undefined 192.28 563.70 0.86892 660.00 0.0015152 192.28 563.70 0.86892 1.8708 2.3145 1917.5 -0.0063637 390.07 0.21201 660.00 0.0015152 192.28 563.70 0.86892 1.8708 2.3145 1917.5 -0.0063637 390.07 0.21201
42.375 35750. undefined 194.15 567.62 0.87487 660.00 0.0015152 194.15 567.62 0.87487 1.8750 2.3180 1918.7 -0.0063547 389.67 0.21228 660.00 0.0015152 194.15 567.62 0.87487 1.8750 2.3180 1918.7 -0.0063547 389.67 0.21228
43.375 35945. undefined 196.03 571.54 0.88081 660.00 0.0015152 196.03 571.54 0.88081 1.8792 2.3214 1919.9 -0.0063457 389.27 0.21254 660.00 0.0015152 196.03 571.54 0.88081 1.8792 2.3214 1919.9 -0.0063457 389.27 0.21254
44.375 36140. undefined 197.91 575.46 0.88674 660.00 0.0015152 197.91 575.46 0.88674 1.8834 2.3249 1921.1 -0.0063367 388.88 0.21281 660.00 0.0015152 197.91 575.46 0.88674 1.8834 2.3249 1921.1 -0.0063367 388.88 0.21281
45.375 36335. undefined 199.80 579.38 0.89267 660.00 0.0015152 199.80 579.38 0.89267 1.8877 2.3284 1922.3 -0.0063277 388.49 0.21307 660.00 0.0015152 199.80 579.38 0.89267 1.8877 2.3284 1922.3 -0.0063277 388.49 0.21307
46.375 36530. undefined 201.69 583.30 0.89859 660.00 0.0015152 201.69 583.30 0.89859 1.8919 2.3319 1923.5 -0.0063187 388.10 0.21334 660.00 0.0015152 201.69 583.30 0.89859 1.8919 2.3319 1923.5 -0.0063187 388.10 0.21334
47.375 36725. undefined 203.58 587.23 0.90451 660.00 0.0015152 203.58 587.23 0.90451 1.8961 2.3354 1924.6 -0.0063096 387.72 0.21361 660.00 0.0015152 203.58 587.23 0.90451 1.8961 2.3354 1924.6 -0.0063096 387.72 0.21361
48.375 36919. undefined 205.48 591.16 0.91042 660.00 0.0015152 205.48 591.16 0.91042 1.9004 2.3389 1925.8 -0.0063006 387.34 0.21387 660.00 0.0015152 205.48 591.16 0.91042 1.9004 2.3389 1925.8 -0.0063006 387.34 0.21387
49.375 37113. undefined 207.38 595.09 0.91633 660.00 0.0015152 207.38 595.09 0.91633 1.9046 2.3424 1927.0 -0.0062916 386.97 0.21414 660.00 0.0015152 207.38 595.09 0.91633 1.9046 2.3424 1927.0 -0.0062916 386.97 0.21414
50.375 37306. undefined 209.29 599.02 0.92223 660.00 0.0015152 209.29 599.02 0.92223 1.9089 2.3459 1928.1 -0.0062826 386.60 0.21441 660.00 0.0015152 209.29 599.02 0.92223 1.9089 2.3459 1928.1 -0.0062826 386.60 0.21441
51.375 37500. undefined 211.20 602.95 0.92813 660.00 0.0015152 211.20 602.95 0.92813 1.9131 2.3495 1929.3 -0.0062736 386.23 0.21468 660.00 0.0015152 211.20 602.95 0.92813 1.9131 2.3495 1929.3 -0.0062736 386.23 0.21468
52.375 37693. undefined 213.12 606.88 0.93402 660.00 0.0015152 213.12 606.88 0.93402 1.9174 2.3530 1930.5 -0.0062646 385.87 0.21495 660.00 0.0015152 213.12 606.88 0.93402 1.9174 2.3530 1930.5 -0.0062646 385.87 0.21495
53.375 37886. undefined 215.04 610.81 0.93991 660.00 0.0015152 215.04 610.81 0.93991 1.9216 2.3565 1931.6 -0.0062556 385.51 0.21521 660.00 0.0015152 215.04 610.81 0.93991 1.9216 2.3565 1931.6 -0.0062556 385.51 0.21521
54.375 38078. undefined 216.96 614.75 0.94579 660.00 0.0015152 216.96 614.75 0.94579 1.9259 2.3601 1932.8 -0.0062466 385.15 0.21548 660.00 0.0015152 216.96 614.75 0.94579 1.9259 2.3601 1932.8 -0.0062466 385.15 0.21548
55.375 38271. undefined 218.89 618.69 0.95167 660.00 0.0015152 218.89 618.69 0.95167 1.9301 2.3636 1934.0 -0.0062376 384.80 0.21575 660.00 0.0015152 218.89 618.69 0.95167 1.9301 2.3636 1934.0 -0.0062376 384.80 0.21575
56.375 38463. undefined 220.82 622.62 0.95754 660.00 0.0015152 220.82 622.62 0.95754 1.9344 2.3672 1935.1 -0.0062286 384.45 0.21602 660.00 0.0015152 220.82 622.62 0.95754 1.9344 2.3672 1935.1 -0.0062286 384.45 0.21602
57.375 38654. undefined 222.76 626.56 0.96341 660.00 0.0015152 222.76 626.56 0.96341 1.9387 2.3708 1936.3 -0.0062196 384.10 0.21629 660.00 0.0015152 222.76 626.56 0.96341 1.9387 2.3708 1936.3 -0.0062196 384.10 0.21629
58.375 38846. undefined 224.70 630.51 0.96928 660.00 0.0015152 224.70 630.51 0.96928 1.9429 2.3744 1937.4 -0.0062106 383.76 0.21656 660.00 0.0015152 224.70 630.51 0.96928 1.9429 2.3744 1937.4 -0.0062106 383.76 0.21656
59.375 39037. undefined 226.64 634.45 0.97513 660.00 0.0015152 226.64 634.45 0.97513 1.9472 2.3779 1938.5 -0.0062016 383.42 0.21683 660.00 0.0015152 226.64 634.45 0.97513 1.9472 2.3779 1938.5 -0.0062016 383.42 0.21683
60.375 39228. undefined 228.59 638.39 0.98099 660.00 0.0015152 228.59 638.39 0.98099 1.9515 2.3815 1939.7 -0.0061926 383.08 0.21710 660.00 0.0015152 228.59 638.39 0.98099 1.9515 2.3815 1939.7 -0.0061926 383.08 0.21710
61.375 39419. undefined 230.54 642.34 0.98684 660.00 0.0015152 230.54 642.34 0.98684 1.9557 2.3851 1940.8 -0.0061837 382.74 0.21737 660.00 0.0015152 230.54 642.34 0.98684 1.9557 2.3851 1940.8 -0.0061837 382.74 0.21737
62.375 39609. undefined 232.50 646.29 0.99268 660.00 0.0015152 232.50 646.29 0.99268 1.9600 2.3887 1942.0 -0.0061747 382.41 0.21764 660.00 0.0015152 232.50 646.29 0.99268 1.9600 2.3887 1942.0 -0.0061747 382.41 0.21764
63.375 39800. undefined 234.46 650.24 0.99852 660.00 0.0015152 234.46 650.24 0.99852 1.9643 2.3923 1943.1 -0.0061658 382.08 0.21791 660.00 0.0015152 234.46 650.24 0.99852 1.9643 2.3923 1943.1 -0.0061658 382.08 0.21791
64.375 39990. undefined 236.43 654.19 1.0044 660.00 0.0015152 236.43 654.19 1.0044 1.9686 2.3959 1944.2 -0.0061569 381.76 0.21819 660.00 0.0015152 236.43 654.19 1.0044 1.9686 2.3959 1944.2 -0.0061569 381.76 0.21819
65.375 40179. undefined 238.40 658.14 1.0102 660.00 0.0015152 238.40 658.14 1.0102 1.9729 2.3996 1945.4 -0.0061479 381.44 0.21846 660.00 0.0015152 238.40 658.14 1.0102 1.9729 2.3996 1945.4 -0.0061479 381.44 0.21846
66.375 40369. undefined 240.38 662.09 1.0160 660.00 0.0015152 240.38 662.09 1.0160 1.9771 2.4032 1946.5 -0.0061390 381.12 0.21873 660.00 0.0015152 240.38 662.09 1.0160 1.9771 2.4032 1946.5 -0.0061390 381.12 0.21873
67.375 40558. undefined 242.36 666.05 1.0218 660.00 0.0015152 242.36 666.05 1.0218 1.9814 2.4068 1947.6 -0.0061301 380.80 0.21900 660.00 0.0015152 242.36 666.05 1.0218 1.9814 2.4068 1947.6 -0.0061301 380.80 0.21900
68.375 40747. undefined 244.34 670.01 1.0276 660.00 0.0015152 244.34 670.01 1.0276 1.9857 2.4104 1948.8 -0.0061212 380.49 0.21928 660.00 0.0015152 244.34 670.01 1.0276 1.9857 2.4104 1948.8 -0.0061212 380.49 0.21928
69.375 40936. undefined 246.33 673.97 1.0335 660.00 0.0015152 246.33 673.97 1.0335 1.9900 2.4141 1949.9 -0.0061123 380.18 0.21955 660.00 0.0015152 246.33 673.97 1.0335 1.9900 2.4141 1949.9 -0.0061123 380.18 0.21955
70.375 41124. undefined 248.32 677.93 1.0393 660.00 0.0015152 248.32 677.93 1.0393 1.9943 2.4177 1951.0 -0.0061035 379.87 0.21982 660.00 0.0015152 248.32 677.93 1.0393 1.9943 2.4177 1951.0 -0.0061035 379.87 0.21982
71.375 41312. undefined 250.32 681.89 1.0451 660.00 0.0015152 250.32 681.89 1.0451 1.9986 2.4214 1952.1 -0.0060946 379.56 0.22010 660.00 0.0015152 250.32 681.89 1.0451 1.9986 2.4214 1952.1 -0.0060946 379.56 0.22010
72.375 41500. undefined 252.32 685.85 1.0509 660.00 0.0015152 252.32 685.85 1.0509 2.0028 2.4250 1953.2 -0.0060857 379.26 0.22037 660.00 0.0015152 252.32 685.85 1.0509 2.0028 2.4250 1953.2 -0.0060857 379.26 0.22037
73.375 41688. undefined 254.32 689.82 1.0567 660.00 0.0015152 254.32 689.82 1.0567 2.0071 2.4287 1954.4 -0.0060769 378.96 0.22064 660.00 0.0015152 254.32 689.82 1.0567 2.0071 2.4287 1954.4 -0.0060769 378.96 0.22064
74.375 41875. undefined 256.33 693.79 1.0625 660.00 0.0015152 256.33 693.79 1.0625 2.0114 2.4323 1955.5 -0.0060681 378.66 0.22092 660.00 0.0015152 256.33 693.79 1.0625 2.0114 2.4323 1955.5 -0.0060681 378.66 0.22092
75.375 42063. undefined 258.34 697.76 1.0682 660.00 0.0015152 258.34 697.76 1.0682 2.0157 2.4360 1956.6 -0.0060593 378.37 0.22119 660.00 0.0015152 258.34 697.76 1.0682 2.0157 2.4360 1956.6 -0.0060593 378.37 0.22119
76.375 42250. undefined 260.36 701.73 1.0740 660.00 0.0015152 260.36 701.73 1.0740 2.0200 2.4397 1957.7 -0.0060505 378.08 0.22147 660.00 0.0015152 260.36 701.73 1.0740 2.0200 2.4397 1957.7 -0.0060505 378.08 0.22147
77.375 42436. undefined 262.38 705.70 1.0798 660.00 0.0015152 262.38 705.70 1.0798 2.0243 2.4433 1958.8 -0.0060417 377.79 0.22175 660.00 0.0015152 262.38 705.70 1.0798 2.0243 2.4433 1958.8 -0.0060417 377.79 0.22175
78.375 42623. undefined 264.41 709.67 1.0856 660.00 0.0015152 264.41 709.67 1.0856 2.0286 2.4470 1959.9 -0.0060329 377.50 0.22202 660.00 0.0015152 264.41 709.67 1.0856 2.0286 2.4470 1959.9 -0.0060329 377.50 0.22202
79.375 42809. undefined 266.44 713.65 1.0913 660.00 0.0015152 266.44 713.65 1.0913 2.0328 2.4507 1961.0 -0.0060242 377.22 0.22230 660.00 0.0015152 266.44 713.65 1.0913 2.0328 2.4507 1961.0 -0.0060242 377.22 0.22230
80.375 42995. undefined 268.48 717.63 1.0971 660.00 0.0015152 268.48 717.63 1.0971 2.0371 2.4544 1962.1 -0.0060154 376.94 0.22257 660.00 0.0015152 268.48 717.63 1.0971 2.0371 2.4544 1962.1 -0.0060154 376.94 0.22257
81.375 43181. undefined 270.52 721.61 1.1029 660.00 0.0015152 270.52 721.61 1.1029 2.0414 2.4580 1963.2 -0.0060067 376.66 0.22285 660.00 0.0015152 270.52 721.61 1.1029 2.0414 2.4580 1963.2 -0.0060067 376.66 0.22285
82.375 43366. undefined 272.56 725.59 1.1086 660.00 0.0015152 272.56 725.59 1.1086 2.0457 2.4617 1964.3 -0.0059980 376.38 0.22313 660.00 0.0015152 272.56 725.59 1.1086 2.0457 2.4617 1964.3 -0.0059980 376.38 0.22313
83.375 43552. undefined 274.61 729.57 1.1144 660.00 0.0015152 274.61 729.57 1.1144 2.0500 2.4654 1965.4 -0.0059893 376.10 0.22340 660.00 0.0015152 274.61 729.57 1.1144 2.0500 2.4654 1965.4 -0.0059893 376.10 0.22340
84.375 43737. undefined 276.66 733.56 1.1201 660.00 0.0015152 276.66 733.56 1.1201 2.0543 2.4691 1966.5 -0.0059806 375.83 0.22368 660.00 0.0015152 276.66 733.56 1.1201 2.0543 2.4691 1966.5 -0.0059806 375.83 0.22368
85.375 43921. undefined 278.72 737.55 1.1259 660.00 0.0015152 278.72 737.55 1.1259 2.0586 2.4728 1967.6 -0.0059719 375.56 0.22396 660.00 0.0015152 278.72 737.55 1.1259 2.0586 2.4728 1967.6 -0.0059719 375.56 0.22396
86.375 44106. undefined 280.78 741.54 1.1316 660.00 0.0015152 280.78 741.54 1.1316 2.0629 2.4765 1968.7 -0.0059633 375.30 0.22424 660.00 0.0015152 280.78 741.54 1.1316 2.0629 2.4765 1968.7 -0.0059633 375.30 0.22424
87.375 44290. undefined 282.84 745.53 1.1373 660.00 0.0015152 282.84 745.53 1.1373 2.0671 2.4802 1969.7 -0.0059546 375.03 0.22452 660.00 0.0015152 282.84 745.53 1.1373 2.0671 2.4802 1969.7 -0.0059546 375.03 0.22452
88.375 44475. undefined 284.91 749.52 1.1431 660.00 0.0015152 284.91 749.52 1.1431 2.0714 2.4839 1970.8 -0.0059460 374.77 0.22480 660.00 0.0015152 284.91 749.52 1.1431 2.0714 2.4839 1970.8 -0.0059460 374.77 0.22480
89.375 44659. undefined 286.98 753.51 1.1488 660.00 0.0015152 286.98 753.51 1.1488 2.0757 2.4876 1971.9 -0.0059374 374.51 0.22507 660.00 0.0015152 286.98 753.51 1.1488 2.0757 2.4876 1971.9 -0.0059374 374.51 0.22507
90.375 44842. undefined 289.06 757.51 1.1545 660.00 0.0015152 289.06 757.51 1.1545 2.0800 2.4913 1973.0 -0.0059288 374.25 0.22535 660.00 0.0015152 289.06 757.51 1.1545 2.0800 2.4913 1973.0 -0.0059288 374.25 0.22535
91.375 45026. undefined 291.14 761.51 1.1602 660.00 0.0015152 291.14 761.51 1.1602 2.0843 2.4950 1974.1 -0.0059203 373.99 0.22563 660.00 0.0015152 291.14 761.51 1.1602 2.0843 2.4950 1974.1 -0.0059203 373.99 0.22563
92.375 45209. undefined 293.23 765.51 1.1660 660.00 0.0015152 293.23 765.51 1.1660 2.0886 2.4987 1975.2 -0.0059117 373.74 0.22591 660.00 0.0015152 293.23 765.51 1.1660 2.0886 2.4987 1975.2 -0.0059117 373.74 0.22591
93.375 45392. undefined 295.32 769.51 1.1717 660.00 0.0015152 295.32 769.51 1.1717 2.0928 2.5024 1976.2 -0.0059032 373.49 0.22619 660.00 0.0015152 295.32 769.51 1.1717 2.0928 2.5024 1976.2 -0.0059032 373.49 0.22619
94.375 45575. undefined 297.42 773.52 1.1774 660.00 0.0015152 297.42 773.52 1.1774 2.0971 2.5062 1977.3 -0.0058947 373.24 0.22647 660.00 0.0015152 297.42 773.52 1.1774 2.0971 2.5062 1977.3 -0.0058947 373.24 0.22647
95.375 45757. undefined 299.52 777.52 1.1831 660.00 0.0015152 299.52 777.52 1.1831 2.1014 2.5099 1978.4 -0.0058862 372.99 0.22675 660.00 0.0015152 299.52 777.52 1.1831 2.1014 2.5099 1978.4 -0.0058862 372.99 0.22675
96.375 45940. undefined 301.62 781.53 1.1888 660.00 0.0015152 301.62 781.53 1.1888 2.1057 2.5136 1979.5 -0.0058777 372.75 0.22704 660.00 0.0015152 301.62 781.53 1.1888 2.1057 2.5136 1979.5 -0.0058777 372.75 0.22704
97.375 46122. undefined 303.73 785.54 1.1945 660.00 0.0015152 303.73 785.54 1.1945 2.1100 2.5173 1980.5 -0.0058693 372.50 0.22732 660.00 0.0015152 303.73 785.54 1.1945 2.1100 2.5173 1980.5 -0.0058693 372.50 0.22732
98.375 46303. undefined 305.84 789.55 1.2002 660.00 0.0015152 305.84 789.55 1.2002 2.1142 2.5210 1981.6 -0.0058608 372.26 0.22760 660.00 0.0015152 305.84 789.55 1.2002 2.1142 2.5210 1981.6 -0.0058608 372.26 0.22760
99.375 46485. undefined 307.96 793.57 1.2059 660.00 0.0015152 307.96 793.57 1.2059 2.1185 2.5248 1982.7 -0.0058524 372.02 0.22788 660.00 0.0015152 307.96 793.57 1.2059 2.1185 2.5248 1982.7 -0.0058524 372.02 0.22788
100.38 46667. undefined 310.08 797.58 1.2115 660.00 0.0015152 310.08 797.58 1.2115 2.1228 2.5285 1983.7 -0.0058440 371.79 0.22816 660.00 0.0015152 310.08 797.58 1.2115 2.1228 2.5285 1983.7 -0.0058440 371.79 0.22816
101.38 46848. undefined 312.20 801.60 1.2172 660.00 0.0015152 312.20 801.60 1.2172 2.1270 2.5322 1984.8 -0.0058356 371.55 0.22844 660.00 0.0015152 312.20 801.60 1.2172 2.1270 2.5322 1984.8 -0.0058356 371.55 0.22844
102.38 47029. undefined 314.33 805.62 1.2229 660.00 0.0015152 314.33 805.62 1.2229 2.1313 2.5359 1985.8 -0.0058273 371.32 0.22873 660.00 0.0015152 314.33 805.62 1.2229 2.1313 2.5359 1985.8 -0.0058273 371.32 0.22873
103.38 47210. undefined 316.46 809.64 1.2286 660.00 0.0015152 316.46 809.64 1.2286 2.1356 2.5397 1986.9 -0.0058189 371.09 0.22901 660.00 0.0015152 316.46 809.64 1.2286 2.1356 2.5397 1986.9 -0.0058189 371.09 0.22901
104.38 47390. undefined 318.60 813.67 1.2342 660.00 0.0015152 318.60 813.67 1.2342 2.1398 2.5434 1988.0 -0.0058106 370.86 0.22929 660.00 0.0015152 318.60 813.67 1.2342 2.1398 2.5434 1988.0 -0.0058106 370.86 0.22929
105.38 47571. undefined 320.74 817.69 1.2399 660.00 0.0015152 320.74 817.69 1.2399 2.1441 2.5471 1989.0 -0.0058023 370.63 0.22958 660.00 0.0015152 320.74 817.69 1.2399 2.1441 2.5471 1989.0 -0.0058023 370.63 0.22958
106.38 47751. undefined 322.89 821.72 1.2456 660.00 0.0015152 322.89 821.72 1.2456 2.1484 2.5509 1990.1 -0.0057940 370.41 0.22986 660.00 0.0015152 322.89 821.72 1.2456 2.1484 2.5509 1990.1 -0.0057940 370.41 0.22986
107.38 47931. undefined 325.04 825.75 1.2512 660.00 0.0015152 325.04 825.75 1.2512 2.1526 2.5546 1991.1 -0.0057858 370.18 0.23015 660.00 0.0015152 325.04 825.75 1.2512 2.1526 2.5546 1991.1 -0.0057858 370.18 0.23015
108.38 48110. undefined 327.19 829.78 1.2569 660.00 0.0015152 327.19 829.78 1.2569 2.1569 2.5583 1992.2 -0.0057775 369.96 0.23043 660.00 0.0015152 327.19 829.78 1.2569 2.1569 2.5583 1992.2 -0.0057775 369.96 0.23043
109.38 48290. undefined 329.35 833.82 1.2625 660.00 0.0015152 329.35 833.82 1.2625 2.1611 2.5620 1993.2 -0.0057693 369.74 0.23072 660.00 0.0015152 329.35 833.82 1.2625 2.1611 2.5620 1993.2 -0.0057693 369.74 0.23072
110.38 48469. undefined 331.52 837.86 1.2682 660.00 0.0015152 331.52 837.86 1.2682 2.1654 2.5658 1994.3 -0.0057611 369.52 0.23100 660.00 0.0015152 331.52 837.86 1.2682 2.1654 2.5658 1994.3 -0.0057611 369.52 0.23100
111.38 48648. undefined 333.68 841.89 1.2738 660.00 0.0015152 333.68 841.89 1.2738 2.1696 2.5695 1995.3 -0.0057530 369.31 0.23129 660.00 0.0015152 333.68 841.89 1.2738 2.1696 2.5695 1995.3 -0.0057530 369.31 0.23129
112.38 48827. undefined 335.86 845.93 1.2795 660.00 0.0015152 335.86 845.93 1.2795 2.1739 2.5732 1996.4 -0.0057448 369.09 0.23157 660.00 0.0015152 335.86 845.93 1.2795 2.1739 2.5732 1996.4 -0.0057448 369.09 0.23157
113.38 49006. undefined 338.03 849.98 1.2851 660.00 0.0015152 338.03 849.98 1.2851 2.1781 2.5770 1997.4 -0.0057367 368.88 0.23186 660.00 0.0015152 338.03 849.98 1.2851 2.1781 2.5770 1997.4 -0.0057367 368.88 0.23186
114.38 49184. undefined 340.21 854.02 1.2907 660.00 0.0015152 340.21 854.02 1.2907 2.1824 2.5807 1998.4 -0.0057285 368.67 0.23214 660.00 0.0015152 340.21 854.02 1.2907 2.1824 2.5807 1998.4 -0.0057285 368.67 0.23214
115.38 49362. undefined 342.40 858.07 1.2964 660.00 0.0015152 342.40 858.07 1.2964 2.1866 2.5844 1999.5 -0.0057205 368.46 0.23243 660.00 0.0015152 342.40 858.07 1.2964 2.1866 2.5844 1999.5 -0.0057205 368.46 0.23243
116.38 49541. undefined 344.59 862.12 1.3020 660.00 0.0015152 344.59 862.12 1.3020 2.1908 2.5882 2000.5 -0.0057124 368.25 0.23272 660.00 0.0015152 344.59 862.12 1.3020 2.1908 2.5882 2000.5 -0.0057124 368.25 0.23272
117.38 49718. undefined 346.78 866.17 1.3076 660.00 0.0015152 346.78 866.17 1.3076 2.1951 2.5919 2001.6 -0.0057043 368.05 0.23300 660.00 0.0015152 346.78 866.17 1.3076 2.1951 2.5919 2001.6 -0.0057043 368.05 0.23300
118.38 49896. undefined 348.98 870.22 1.3132 660.00 0.0015152 348.98 870.22 1.3132 2.1993 2.5956 2002.6 -0.0056963 367.85 0.23329 660.00 0.0015152 348.98 870.22 1.3132 2.1993 2.5956 2002.6 -0.0056963 367.85 0.23329
119.38 50073. undefined 351.18 874.27 1.3189 660.00 0.0015152 351.18 874.27 1.3189 2.2035 2.5994 2003.6 -0.0056883 367.64 0.23358 660.00 0.0015152 351.18 874.27 1.3189 2.2035 2.5994 2003.6 -0.0056883 367.64 0.23358
120.38 50251. undefined 353.38 878.33 1.3245 660.00 0.0015152 353.38 878.33 1.3245 2.2078 2.6031 2004.7 -0.0056803 367.44 0.23387 660.00 0.0015152 353.38 878.33 1.3245 2.2078 2.6031 2004.7 -0.0056803 367.44 0.23387
121.38 50428. undefined 355.59 882.39 1.3301 660.00 0.0015152 355.59 882.39 1.3301 2.2120 2.6068 2005.7 -0.0056724 367.24 0.23416 660.00 0.0015152 355.59 882.39 1.3301 2.2120 2.6068 2005.7 -0.0056724 367.24 0.23416
122.38 50605. undefined 357.81 886.45 1.3357 660.00 0.0015152 357.81 886.45 1.3357 2.2162 2.6106 2006.7 -0.0056644 367.05 0.23445 660.00 0.0015152 357.81 886.45 1.3357 2.2162 2.6106 2006.7 -0.0056644 367.05 0.23445
123.38 50781. undefined 360.03 890.52 1.3413 660.00 0.0015152 360.03 890.52 1.3413 2.2204 2.6143 2007.7 -0.0056565 366.85 0.23473 660.00 0.0015152 360.03 890.52 1.3413 2.2204 2.6143 2007.7 -0.0056565 366.85 0.23473
124.38 50958. undefined 362.25 894.58 1.3469 660.00 0.0015152 362.25 894.58 1.3469 2.2246 2.6180 2008.8 -0.0056486 366.66 0.23502 660.00 0.0015152 362.25 894.58 1.3469 2.2246 2.6180 2008.8 -0.0056486 366.66 0.23502
125.38 51134. undefined 364.47 898.65 1.3525 660.00 0.0015152 364.47 898.65 1.3525 2.2288 2.6217 2009.8 -0.0056407 366.46 0.23531 660.00 0.0015152 364.47 898.65 1.3525 2.2288 2.6217 2009.8 -0.0056407 366.46 0.23531
126.38 51310. undefined 366.71 902.72 1.3581 660.00 0.0015152 366.71 902.72 1.3581 2.2331 2.6255 2010.8 -0.0056329 366.27 0.23560 660.00 0.0015152 366.71 902.72 1.3581 2.2331 2.6255 2010.8 -0.0056329 366.27 0.23560
127.38 51486. undefined 368.94 906.79 1.3637 660.00 0.0015152 368.94 906.79 1.3637 2.2373 2.6292 2011.8 -0.0056250 366.08 0.23589 660.00 0.0015152 368.94 906.79 1.3637 2.2373 2.6292 2011.8 -0.0056250 366.08 0.23589
128.38 51661. undefined 371.18 910.87 1.3692 660.00 0.0015152 371.18 910.87 1.3692 2.2415 2.6329 2012.9 -0.0056172 365.89 0.23618 660.00 0.0015152 371.18 910.87 1.3692 2.2415 2.6329 2012.9 -0.0056172 365.89 0.23618
129.38 51837. undefined 373.42 914.94 1.3748 660.00 0.0015152 373.42 914.94 1.3748 2.2457 2.6367 2013.9 -0.0056094 365.71 0.23647 660.00 0.0015152 373.42 914.94 1.3748 2.2457 2.6367 2013.9 -0.0056094 365.71 0.23647
130.38 52012. undefined 375.67 919.02 1.3804 660.00 0.0015152 375.67 919.02 1.3804 2.2499 2.6404 2014.9 -0.0056017 365.52 0.23676 660.00 0.0015152 375.67 919.02 1.3804 2.2499 2.6404 2014.9 -0.0056017 365.52 0.23676
131.38 52187. undefined 377.92 923.10 1.3860 660.00 0.0015152 377.92 923.10 1.3860 2.2541 2.6441 2015.9 -0.0055939 365.34 0.23706 660.00 0.0015152 377.92 923.10 1.3860 2.2541 2.6441 2015.9 -0.0055939 365.34 0.23706
132.38 52362. undefined 380.18 927.18 1.3915 660.00 0.0015152 380.18 927.18 1.3915 2.2582 2.6478 2016.9 -0.0055862 365.16 0.23735 660.00 0.0015152 380.18 927.18 1.3915 2.2582 2.6478 2016.9 -0.0055862 365.16 0.23735
133.38 52537. undefined 382.44 931.27 1.3971 660.00 0.0015152 382.44 931.27 1.3971 2.2624 2.6515 2017.9 -0.0055785 364.98 0.23764 660.00 0.0015152 382.44 931.27 1.3971 2.2624 2.6515 2017.9 -0.0055785 364.98 0.23764
134.38 52711. undefined 384.70 935.36 1.4027 660.00 0.0015152 384.70 935.36 1.4027 2.2666 2.6553 2018.9 -0.0055708 364.80 0.23793 660.00 0.0015152 384.70 935.36 1.4027 2.2666 2.6553 2018.9 -0.0055708 364.80 0.23793
135.38 52885. undefined 386.97 939.45 1.4082 660.00 0.0015152 386.97 939.45 1.4082 2.2708 2.6590 2020.0 -0.0055632 364.62 0.23822 660.00 0.0015152 386.97 939.45 1.4082 2.2708 2.6590 2020.0 -0.0055632 364.62 0.23822
136.38 53059. undefined 389.25 943.54 1.4138 660.00 0.0015152 389.25 943.54 1.4138 2.2750 2.6627 2021.0 -0.0055556 364.44 0.23852 660.00 0.0015152 389.25 943.54 1.4138 2.2750 2.6627 2021.0 -0.0055556 364.44 0.23852
137.38 53233. undefined 391.52 947.63 1.4193 660.00 0.0015152 391.52 947.63 1.4193 2.2791 2.6664 2022.0 -0.0055480 364.27 0.23881 660.00 0.0015152 391.52 947.63 1.4193 2.2791 2.6664 2022.0 -0.0055480 364.27 0.23881
138.38 53407. undefined 393.80 951.73 1.4249 660.00 0.0015152 393.80 951.73 1.4249 2.2833 2.6701 2023.0 -0.0055404 364.10 0.23910 660.00 0.0015152 393.80 951.73 1.4249 2.2833 2.6701 2023.0 -0.0055404 364.10 0.23910
139.38 53581. undefined 396.09 955.82 1.4304 660.00 0.0015152 396.09 955.82 1.4304 2.2875 2.6738 2024.0 -0.0055328 363.92 0.23940 660.00 0.0015152 396.09 955.82 1.4304 2.2875 2.6738 2024.0 -0.0055328 363.92 0.23940
140.38 53754. undefined 398.38 959.92 1.4360 660.00 0.0015152 398.38 959.92 1.4360 2.2916 2.6775 2025.0 -0.0055253 363.75 0.23969 660.00 0.0015152 398.38 959.92 1.4360 2.2916 2.6775 2025.0 -0.0055253 363.75 0.23969
141.38 53927. undefined 400.67 964.03 1.4415 660.00 0.0015152 400.67 964.03 1.4415 2.2958 2.6812 2026.0 -0.0055178 363.58 0.23998 660.00 0.0015152 400.67 964.03 1.4415 2.2958 2.6812 2026.0 -0.0055178 363.58 0.23998
142.38 54100. undefined 402.97 968.13 1.4471 660.00 0.0015152 402.97 968.13 1.4471 2.2999 2.6849 2027.0 -0.0055103 363.41 0.24028 660.00 0.0015152 402.97 968.13 1.4471 2.2999 2.6849 2027.0 -0.0055103 363.41 0.24028
143.38 54273. undefined 405.27 972.24 1.4526 660.00 0.0015152 405.27 972.24 1.4526 2.3041 2.6887 2028.0 -0.0055028 363.25 0.24057 660.00 0.0015152 405.27 972.24 1.4526 2.3041 2.6887 2028.0 -0.0055028 363.25 0.24057
144.38 54445. undefined 407.58 976.35 1.4581 660.00 0.0015152 407.58 976.35 1.4581 2.3082 2.6924 2029.0 -0.0054954 363.08 0.24087 660.00 0.0015152 407.58 976.35 1.4581 2.3082 2.6924 2029.0 -0.0054954 363.08 0.24087
145.38 54618. undefined 409.89 980.46 1.4636 660.00 0.0015152 409.89 980.46 1.4636 2.3124 2.6961 2030.0 -0.0054879 362.92 0.24116 660.00 0.0015152 409.89 980.46 1.4636 2.3124 2.6961 2030.0 -0.0054879 362.92 0.24116
146.38 54790. undefined 412.20 984.57 1.4692 660.00 0.0015152 412.20 984.57 1.4692 2.3165 2.6998 2031.0 -0.0054805 362.76 0.24146 660.00 0.0015152 412.20 984.57 1.4692 2.3165 2.6998 2031.0 -0.0054805 362.76 0.24146
147.38 54962. undefined 414.52 988.69 1.4747 660.00 0.0015152 414.52 988.69 1.4747 2.3206 2.7035 2032.0 -0.0054731 362.59 0.24176 660.00 0.0015152 414.52 988.69 1.4747 2.3206 2.7035 2032.0 -0.0054731 362.59 0.24176
148.38 55134. undefined 416.84 992.81 1.4802 660.00 0.0015152 416.84 992.81 1.4802 2.3248 2.7071 2033.0 -0.0054658 362.43 0.24205 660.00 0.0015152 416.84 992.81 1.4802 2.3248 2.7071 2033.0 -0.0054658 362.43 0.24205
149.38 55306. undefined 419.17 996.93 1.4857 660.00 0.0015152 419.17 996.93 1.4857 2.3289 2.7108 2034.0 -0.0054585 362.27 0.24235 660.00 0.0015152 419.17 996.93 1.4857 2.3289 2.7108 2034.0 -0.0054585 362.27 0.24235
150.38 55477. undefined 421.50 1001.0 1.4912 660.00 0.0015152 421.50 1001.0 1.4912 2.3330 2.7145 2034.9 -0.0054511 362.12 0.24265 660.00 0.0015152 421.50 1001.0 1.4912 2.3330 2.7145 2034.9 -0.0054511 362.12 0.24265
151.38 55648. undefined 423.84 1005.2 1.4967 660.00 0.0015152 423.84 1005.2 1.4967 2.3371 2.7182 2035.9 -0.0054439 361.96 0.24294 660.00 0.0015152 423.84 1005.2 1.4967 2.3371 2.7182 2035.9 -0.0054439 361.96 0.24294
152.38 55819. undefined 426.18 1009.3 1.5022 660.00 0.0015152 426.18 1009.3 1.5022 2.3413 2.7219 2036.9 -0.0054366 361.80 0.24324 660.00 0.0015152 426.18 1009.3 1.5022 2.3413 2.7219 2036.9 -0.0054366 361.80 0.24324
153.38 55990. undefined 428.52 1013.4 1.5077 660.00 0.0015152 428.52 1013.4 1.5077 2.3454 2.7256 2037.9 -0.0054294 361.65 0.24354 660.00 0.0015152 428.52 1013.4 1.5077 2.3454 2.7256 2037.9 -0.0054294 361.65 0.24354
154.38 56161. undefined 430.87 1017.6 1.5132 660.00 0.0015152 430.87 1017.6 1.5132 2.3495 2.7293 2038.9 -0.0054221 361.50 0.24384 660.00 0.0015152 430.87 1017.6 1.5132 2.3495 2.7293 2038.9 -0.0054221 361.50 0.24384
155.38 56332. undefined 433.22 1021.7 1.5187 660.00 0.0015152 433.22 1021.7 1.5187 2.3536 2.7329 2039.9 -0.0054149 361.34 0.24413 660.00 0.0015152 433.22 1021.7 1.5187 2.3536 2.7329 2039.9 -0.0054149 361.34 0.24413
156.38 56502. undefined 435.57 1025.8 1.5242 660.00 0.0015152 435.57 1025.8 1.5242 2.3577 2.7366 2040.9 -0.0054078 361.19 0.24443 660.00 0.0015152 435.57 1025.8 1.5242 2.3577 2.7366 2040.9 -0.0054078 361.19 0.24443
157.38 56672. undefined 437.93 1030.0 1.5297 660.00 0.0015152 437.93 1030.0 1.5297 2.3618 2.7403 2041.8 -0.0054006 361.04 0.24473 660.00 0.0015152 437.93 1030.0 1.5297 2.3618 2.7403 2041.8 -0.0054006 361.04 0.24473
158.38 56842. undefined 440.30 1034.1 1.5352 660.00 0.0015152 440.30 1034.1 1.5352 2.3658 2.7440 2042.8 -0.0053935 360.90 0.24503 660.00 0.0015152 440.30 1034.1 1.5352 2.3658 2.7440 2042.8 -0.0053935 360.90 0.24503
159.38 57012. undefined 442.67 1038.3 1.5407 660.00 0.0015152 442.67 1038.3 1.5407 2.3699 2.7476 2043.8 -0.0053864 360.75 0.24533 660.00 0.0015152 442.67 1038.3 1.5407 2.3699 2.7476 2043.8 -0.0053864 360.75 0.24533
160.38 57182. undefined 445.04 1042.4 1.5462 660.00 0.0015152 445.04 1042.4 1.5462 2.3740 2.7513 2044.8 -0.0053793 360.60 0.24563 660.00 0.0015152 445.04 1042.4 1.5462 2.3740 2.7513 2044.8 -0.0053793 360.60 0.24563
161.38 57352. undefined 447.41 1046.5 1.5516 660.00 0.0015152 447.41 1046.5 1.5516 2.3781 2.7550 2045.7 -0.0053722 360.46 0.24593 660.00 0.0015152 447.41 1046.5 1.5516 2.3781 2.7550 2045.7 -0.0053722 360.46 0.24593
162.38 57521. undefined 449.79 1050.7 1.5571 660.00 0.0015152 449.79 1050.7 1.5571 2.3822 2.7586 2046.7 -0.0053652 360.31 0.24623 660.00 0.0015152 449.79 1050.7 1.5571 2.3822 2.7586 2046.7 -0.0053652 360.31 0.24623
163.38 57690. undefined 452.18 1054.8 1.5626 660.00 0.0015152 452.18 1054.8 1.5626 2.3862 2.7623 2047.7 -0.0053582 360.17 0.24653 660.00 0.0015152 452.18 1054.8 1.5626 2.3862 2.7623 2047.7 -0.0053582 360.17 0.24653
164.38 57859. undefined 454.57 1059.0 1.5680 660.00 0.0015152 454.57 1059.0 1.5680 2.3903 2.7659 2048.7 -0.0053512 360.03 0.24683 660.00 0.0015152 454.57 1059.0 1.5680 2.3903 2.7659 2048.7 -0.0053512 360.03 0.24683
165.38 58028. undefined 456.96 1063.2 1.5735 660.00 0.0015152 456.96 1063.2 1.5735 2.3943 2.7696 2049.6 -0.0053442 359.89 0.24713 660.00 0.0015152 456.96 1063.2 1.5735 2.3943 2.7696 2049.6 -0.0053442 359.89 0.24713
166.38 58197. undefined 459.36 1067.3 1.5790 660.00 0.0015152 459.36 1067.3 1.5790 2.3984 2.7732 2050.6 -0.0053373 359.75 0.24743 660.00 0.0015152 459.36 1067.3 1.5790 2.3984 2.7732 2050.6 -0.0053373 359.75 0.24743
167.38 58365. undefined 461.76 1071.5 1.5844 660.00 0.0015152 461.76 1071.5 1.5844 2.4024 2.7769 2051.6 -0.0053303 359.61 0.24774 660.00 0.0015152 461.76 1071.5 1.5844 2.4024 2.7769 2051.6 -0.0053303 359.61 0.24774
168.38 58533. undefined 464.16 1075.6 1.5899 660.00 0.0015152 464.16 1075.6 1.5899 2.4065 2.7805 2052.5 -0.0053234 359.47 0.24804 660.00 0.0015152 464.16 1075.6 1.5899 2.4065 2.7805 2052.5 -0.0053234 359.47 0.24804
169.38 58702. undefined 466.57 1079.8 1.5953 660.00 0.0015152 466.57 1079.8 1.5953 2.4105 2.7842 2053.5 -0.0053166 359.33 0.24834 660.00 0.0015152 466.57 1079.8 1.5953 2.4105 2.7842 2053.5 -0.0053166 359.33 0.24834
170.38 58870. undefined 468.98 1084.0 1.6008 660.00 0.0015152 468.98 1084.0 1.6008 2.4146 2.7878 2054.5 -0.0053097 359.20 0.24864 660.00 0.0015152 468.98 1084.0 1.6008 2.4146 2.7878 2054.5 -0.0053097 359.20 0.24864
171.38 59037. undefined 471.40 1088.1 1.6062 660.00 0.0015152 471.40 1088.1 1.6062 2.4186 2.7914 2055.4 -0.0053029 359.06 0.24895 660.00 0.0015152 471.40 1088.1 1.6062 2.4186 2.7914 2055.4 -0.0053029 359.06 0.24895
172.38 59205. undefined 473.82 1092.3 1.6116 660.00 0.0015152 473.82 1092.3 1.6116 2.4226 2.7951 2056.4 -0.0052961 358.93 0.24925 660.00 0.0015152 473.82 1092.3 1.6116 2.4226 2.7951 2056.4 -0.0052961 358.93 0.24925
173.38 59373. undefined 476.24 1096.5 1.6171 660.00 0.0015152 476.24 1096.5 1.6171 2.4266 2.7987 2057.4 -0.0052893 358.80 0.24955 660.00 0.0015152 476.24 1096.5 1.6171 2.4266 2.7987 2057.4 -0.0052893 358.80 0.24955
174.38 59540. undefined 478.67 1100.7 1.6225 660.00 0.0015152 478.67 1100.7 1.6225 2.4306 2.8023 2058.3 -0.0052825 358.67 0.24986 660.00 0.0015152 478.67 1100.7 1.6225 2.4306 2.8023 2058.3 -0.0052825 358.67 0.24986
175.38 59707. undefined 481.10 1104.8 1.6279 660.00 0.0015152 481.10 1104.8 1.6279 2.4347 2.8059 2059.3 -0.0052758 358.54 0.25016 660.00 0.0015152 481.10 1104.8 1.6279 2.4347 2.8059 2059.3 -0.0052758 358.54 0.25016
176.38 59874. undefined 483.54 1109.0 1.6334 660.00 0.0015152 483.54 1109.0 1.6334 2.4387 2.8096 2060.2 -0.0052690 358.41 0.25047 660.00 0.0015152 483.54 1109.0 1.6334 2.4387 2.8096 2060.2 -0.0052690 358.41 0.25047
177.38 60041. undefined 485.98 1113.2 1.6388 660.00 0.0015152 485.98 1113.2 1.6388 2.4427 2.8132 2061.2 -0.0052623 358.28 0.25077 660.00 0.0015152 485.98 1113.2 1.6388 2.4427 2.8132 2061.2 -0.0052623 358.28 0.25077
178.38 60207. undefined 488.43 1117.4 1.6442 660.00 0.0015152 488.43 1117.4 1.6442 2.4467 2.8168 2062.1 -0.0052556 358.15 0.25108 660.00 0.0015152 488.43 1117.4 1.6442 2.4467 2.8168 2062.1 -0.0052556 358.15 0.25108
179.38 60374. undefined 490.88 1121.6 1.6496 660.00 0.0015152 490.88 1121.6 1.6496 2.4507 2.8204 2063.1 -0.0052490 358.02 0.25138 660.00 0.0015152 490.88 1121.6 1.6496 2.4507 2.8204 2063.1 -0.0052490 358.02 0.25138
180.38 60540. undefined 493.33 1125.8 1.6550 660.00 0.0015152 493.33 1125.8 1.6550 2.4546 2.8240 2064.1 -0.0052423 357.90 0.25169 660.00 0.0015152 493.33 1125.8 1.6550 2.4546 2.8240 2064.1 -0.0052423 357.90 0.25169
181.38 60706. undefined 495.78 1130.0 1.6604 660.00 0.0015152 495.78 1130.0 1.6604 2.4586 2.8276 2065.0 -0.0052357 357.77 0.25199 660.00 0.0015152 495.78 1130.0 1.6604 2.4586 2.8276 2065.0 -0.0052357 357.77 0.25199
182.38 60872. undefined 498.24 1134.2 1.6659 660.00 0.0015152 498.24 1134.2 1.6659 2.4626 2.8312 2066.0 -0.0052291 357.65 0.25230 660.00 0.0015152 498.24 1134.2 1.6659 2.4626 2.8312 2066.0 -0.0052291 357.65 0.25230
183.38 61038. undefined 500.71 1138.4 1.6713 660.00 0.0015152 500.71 1138.4 1.6713 2.4666 2.8348 2066.9 -0.0052226 357.53 0.25260 660.00 0.0015152 500.71 1138.4 1.6713 2.4666 2.8348 2066.9 -0.0052226 357.53 0.25260
184.38 61204. undefined 503.18 1142.6 1.6767 660.00 0.0015152 503.18 1142.6 1.6767 2.4705 2.8384 2067.9 -0.0052160 357.40 0.25291 660.00 0.0015152 503.18 1142.6 1.6767 2.4705 2.8384 2067.9 -0.0052160 357.40 0.25291
185.38 61369. undefined 505.65 1146.8 1.6821 660.00 0.0015152 505.65 1146.8 1.6821 2.4745 2.8420 2068.8 -0.0052095 357.28 0.25322 660.00 0.0015152 505.65 1146.8 1.6821 2.4745 2.8420 2068.8 -0.0052095 357.28 0.25322
186.38 61535. undefined 508.13 1151.0 1.6875 660.00 0.0015152 508.13 1151.0 1.6875 2.4785 2.8456 2069.7 -0.0052030 357.16 0.25353 660.00 0.0015152 508.13 1151.0 1.6875 2.4785 2.8456 2069.7 -0.0052030 357.16 0.25353
187.38 61700. undefined 510.61 1155.2 1.6928 660.00 0.0015152 510.61 1155.2 1.6928 2.4824 2.8492 2070.7 -0.0051965 357.04 0.25383 660.00 0.0015152 510.61 1155.2 1.6928 2.4824 2.8492 2070.7 -0.0051965 357.04 0.25383
188.38 61865. undefined 513.09 1159.4 1.6982 660.00 0.0015152 513.09 1159.4 1.6982 2.4864 2.8527 2071.6 -0.0051900 356.92 0.25414 660.00 0.0015152 513.09 1159.4 1.6982 2.4864 2.8527 2071.6 -0.0051900 356.92 0.25414
189.38 62030. undefined 515.58 1163.6 1.7036 660.00 0.0015152 515.58 1163.6 1.7036 2.4903 2.8563 2072.6 -0.0051836 356.81 0.25445 660.00 0.0015152 515.58 1163.6 1.7036 2.4903 2.8563 2072.6 -0.0051836 356.81 0.25445
190.38 62195. undefined 518.07 1167.8 1.7090 660.00 0.0015152 518.07 1167.8 1.7090 2.4942 2.8599 2073.5 -0.0051772 356.69 0.25476 660.00 0.0015152 518.07 1167.8 1.7090 2.4942 2.8599 2073.5 -0.0051772 356.69 0.25476
191.38 62359. undefined 520.57 1172.0 1.7144 660.00 0.0015152 520.57 1172.0 1.7144 2.4982 2.8635 2074.5 -0.0051708 356.57 0.25507 660.00 0.0015152 520.57 1172.0 1.7144 2.4982 2.8635 2074.5 -0.0051708 356.57 0.25507
192.38 62524. undefined 523.07 1176.2 1.7198 660.00 0.0015152 523.07 1176.2 1.7198 2.5021 2.8670 2075.4 -0.0051644 356.46 0.25538 660.00 0.0015152 523.07 1176.2 1.7198 2.5021 2.8670 2075.4 -0.0051644 356.46 0.25538
193.38 62688. undefined 525.57 1180.4 1.7251 660.00 0.0015152 525.57 1180.4 1.7251 2.5060 2.8706 2076.3 -0.0051581 356.35 0.25569 660.00 0.0015152 525.57 1180.4 1.7251 2.5060 2.8706 2076.3 -0.0051581 356.35 0.25569
194.38 62852. undefined 528.08 1184.7 1.7305 660.00 0.0015152 528.08 1184.7 1.7305 2.5100 2.8741 2077.3 -0.0051517 356.23 0.25600 660.00 0.0015152 528.08 1184.7 1.7305 2.5100 2.8741 2077.3 -0.0051517 356.23 0.25600
195.38 63016. undefined 530.59 1188.9 1.7359 660.00 0.0015152 530.59 1188.9 1.7359 2.5139 2.8777 2078.2 -0.0051454 356.12 0.25631 660.00 0.0015152 530.59 1188.9 1.7359 2.5139 2.8777 2078.2 -0.0051454 356.12 0.25631
196.38 63180. undefined 533.11 1193.1 1.7412 660.00 0.0015152 533.11 1193.1 1.7412 2.5178 2.8812 2079.1 -0.0051391 356.01 0.25662 660.00 0.0015152 533.11 1193.1 1.7412 2.5178 2.8812 2079.1 -0.0051391 356.01 0.25662
197.38 63343. undefined 535.63 1197.3 1.7466 660.00 0.0015152 535.63 1197.3 1.7466 2.5217 2.8848 2080.1 -0.0051328 355.90 0.25693 660.00 0.0015152 535.63 1197.3 1.7466 2.5217 2.8848 2080.1 -0.0051328 355.90 0.25693
198.38 63507. undefined 538.15 1201.6 1.7520 660.00 0.0015152 538.15 1201.6 1.7520 2.5256 2.8883 2081.0 -0.0051266 355.79 0.25724 660.00 0.0015152 538.15 1201.6 1.7520 2.5256 2.8883 2081.0 -0.0051266 355.79 0.25724
199.38 63670. undefined 540.68 1205.8 1.7573 660.00 0.0015152 540.68 1205.8 1.7573 2.5295 2.8919 2081.9 -0.0051204 355.68 0.25755 660.00 0.0015152 540.68 1205.8 1.7573 2.5295 2.8919 2081.9 -0.0051204 355.68 0.25755
200.38 63833. undefined 543.21 1210.0 1.7627 660.00 0.0015152 543.21 1210.0 1.7627 2.5334 2.8954 2082.9 -0.0051142 355.57 0.25786 660.00 0.0015152 543.21 1210.0 1.7627 2.5334 2.8954 2082.9 -0.0051142 355.57 0.25786
201.38 63996. undefined 545.75 1214.3 1.7680 660.00 0.0015152 545.75 1214.3 1.7680 2.5372 2.8989 2083.8 -0.0051080 355.46 0.25817 660.00 0.0015152 545.75 1214.3 1.7680 2.5372 2.8989 2083.8 -0.0051080 355.46 0.25817
202.38 64159. undefined 548.29 1218.5 1.7734 660.00 0.0015152 548.29 1218.5 1.7734 2.5411 2.9025 2084.7 -0.0051018 355.35 0.25848 660.00 0.0015152 548.29 1218.5 1.7734 2.5411 2.9025 2084.7 -0.0051018 355.35 0.25848
203.38 64322. undefined 550.83 1222.8 1.7787 660.00 0.0015152 550.83 1222.8 1.7787 2.5450 2.9060 2085.7 -0.0050957 355.25 0.25880 660.00 0.0015152 550.83 1222.8 1.7787 2.5450 2.9060 2085.7 -0.0050957 355.25 0.25880
204.38 64484. undefined 553.38 1227.0 1.7840 660.00 0.0015152 553.38 1227.0 1.7840 2.5489 2.9095 2086.6 -0.0050895 355.14 0.25911 660.00 0.0015152 553.38 1227.0 1.7840 2.5489 2.9095 2086.6 -0.0050895 355.14 0.25911
205.38 64647. undefined 555.93 1231.3 1.7894 660.00 0.0015152 555.93 1231.3 1.7894 2.5527 2.9130 2087.5 -0.0050834 355.04 0.25942 660.00 0.0015152 555.93 1231.3 1.7894 2.5527 2.9130 2087.5 -0.0050834 355.04 0.25942
206.38 64809. undefined 558.48 1235.5 1.7947 660.00 0.0015152 558.48 1235.5 1.7947 2.5566 2.9166 2088.4 -0.0050773 354.93 0.25973 660.00 0.0015152 558.48 1235.5 1.7947 2.5566 2.9166 2088.4 -0.0050773 354.93 0.25973
207.38 64971. undefined 561.04 1239.8 1.8000 660.00 0.0015152 561.04 1239.8 1.8000 2.5604 2.9201 2089.4 -0.0050713 354.83 0.26005 660.00 0.0015152 561.04 1239.8 1.8000 2.5604 2.9201 2089.4 -0.0050713 354.83 0.26005
208.38 65133. undefined 563.60 1244.0 1.8054 660.00 0.0015152 563.60 1244.0 1.8054 2.5643 2.9236 2090.3 -0.0050652 354.73 0.26036 660.00 0.0015152 563.60 1244.0 1.8054 2.5643 2.9236 2090.3 -0.0050652 354.73 0.26036
209.38 65295. undefined 566.17 1248.3 1.8107 660.00 0.0015152 566.17 1248.3 1.8107 2.5681 2.9271 2091.2 -0.0050592 354.63 0.26068 660.00 0.0015152 566.17 1248.3 1.8107 2.5681 2.9271 2091.2 -0.0050592 354.63 0.26068
210.38 65456. undefined 568.74 1252.5 1.8160 660.00 0.0015152 568.74 1252.5 1.8160 2.5720 2.9306 2092.1 -0.0050532 354.53 0.26099 660.00 0.0015152 568.74 1252.5 1.8160 2.5720 2.9306 2092.1 -0.0050532 354.53 0.26099
211.38 65618. undefined 571.31 1256.8 1.8213 660.00 0.0015152 571.31 1256.8 1.8213 2.5758 2.9341 2093.0 -0.0050472 354.43 0.26130 660.00 0.0015152 571.31 1256.8 1.8213 2.5758 2.9341 2093.0 -0.0050472 354.43 0.26130
212.38 65779. undefined 573.89 1261.1 1.8266 660.00 0.0015152 573.89 1261.1 1.8266 2.5796 2.9376 2094.0 -0.0050413 354.33 0.26162 660.00 0.0015152 573.89 1261.1 1.8266 2.5796 2.9376 2094.0 -0.0050413 354.33 0.26162
213.38 65940. undefined 576.47 1265.3 1.8319 660.00 0.0015152 576.47 1265.3 1.8319 2.5834 2.9410 2094.9 -0.0050353 354.23 0.26193 660.00 0.0015152 576.47 1265.3 1.8319 2.5834 2.9410 2094.9 -0.0050353 354.23 0.26193
214.38 66101. undefined 579.06 1269.6 1.8373 660.00 0.0015152 579.06 1269.6 1.8373 2.5873 2.9445 2095.8 -0.0050294 354.13 0.26225 660.00 0.0015152 579.06 1269.6 1.8373 2.5873 2.9445 2095.8 -0.0050294 354.13 0.26225
215.38 66262. undefined 581.65 1273.9 1.8426 660.00 0.0015152 581.65 1273.9 1.8426 2.5911 2.9480 2096.7 -0.0050235 354.03 0.26257 660.00 0.0015152 581.65 1273.9 1.8426 2.5911 2.9480 2096.7 -0.0050235 354.03 0.26257
216.38 66423. undefined 584.24 1278.1 1.8479 660.00 0.0015152 584.24 1278.1 1.8479 2.5949 2.9515 2097.6 -0.0050176 353.93 0.26288 660.00 0.0015152 584.24 1278.1 1.8479 2.5949 2.9515 2097.6 -0.0050176 353.93 0.26288
217.38 66584. undefined 586.84 1282.4 1.8532 660.00 0.0015152 586.84 1282.4 1.8532 2.5987 2.9549 2098.5 -0.0050118 353.84 0.26320 660.00 0.0015152 586.84 1282.4 1.8532 2.5987 2.9549 2098.5 -0.0050118 353.84 0.26320
218.38 66744. undefined 589.44 1286.7 1.8585 660.00 0.0015152 589.44 1286.7 1.8585 2.6025 2.9584 2099.4 -0.0050059 353.74 0.26351 660.00 0.0015152 589.44 1286.7 1.8585 2.6025 2.9584 2099.4 -0.0050059 353.74 0.26351
219.38 66905. undefined 592.04 1291.0 1.8638 660.00 0.0015152 592.04 1291.0 1.8638 2.6063 2.9619 2100.3 -0.0050001 353.65 0.26383 660.00 0.0015152 592.04 1291.0 1.8638 2.6063 2.9619 2100.3 -0.0050001 353.65 0.26383
220.38 67065. undefined 594.65 1295.2 1.8690 660.00 0.0015152 594.65 1295.2 1.8690 2.6100 2.9653 2101.3 -0.0049943 353.55 0.26415 660.00 0.0015152 594.65 1295.2 1.8690 2.6100 2.9653 2101.3 -0.0049943 353.55 0.26415
221.38 67225. undefined 597.26 1299.5 1.8743 660.00 0.0015152 597.26 1299.5 1.8743 2.6138 2.9688 2102.2 -0.0049885 353.46 0.26447 660.00 0.0015152 597.26 1299.5 1.8743 2.6138 2.9688 2102.2 -0.0049885 353.46 0.26447
222.38 67385. undefined 599.88 1303.8 1.8796 660.00 0.0015152 599.88 1303.8 1.8796 2.6176 2.9722 2103.1 -0.0049827 353.37 0.26478 660.00 0.0015152 599.88 1303.8 1.8796 2.6176 2.9722 2103.1 -0.0049827 353.37 0.26478
223.38 67544. undefined 602.50 1308.1 1.8849 660.00 0.0015152 602.50 1308.1 1.8849 2.6214 2.9757 2104.0 -0.0049770 353.28 0.26510 660.00 0.0015152 602.50 1308.1 1.8849 2.6214 2.9757 2104.0 -0.0049770 353.28 0.26510
224.38 67704. undefined 605.12 1312.4 1.8902 660.00 0.0015152 605.12 1312.4 1.8902 2.6251 2.9791 2104.9 -0.0049713 353.19 0.26542 660.00 0.0015152 605.12 1312.4 1.8902 2.6251 2.9791 2104.9 -0.0049713 353.19 0.26542
225.38 67863. undefined 607.75 1316.7 1.8954 660.00 0.0015152 607.75 1316.7 1.8954 2.6289 2.9826 2105.8 -0.0049656 353.09 0.26574 660.00 0.0015152 607.75 1316.7 1.8954 2.6289 2.9826 2105.8 -0.0049656 353.09 0.26574
226.38 68023. undefined 610.38 1321.0 1.9007 660.00 0.0015152 610.38 1321.0 1.9007 2.6327 2.9860 2106.7 -0.0049599 353.00 0.26606 660.00 0.0015152 610.38 1321.0 1.9007 2.6327 2.9860 2106.7 -0.0049599 353.00 0.26606
227.38 68182. undefined 613.01 1325.3 1.9060 660.00 0.0015152 613.01 1325.3 1.9060 2.6364 2.9894 2107.6 -0.0049542 352.92 0.26638 660.00 0.0015152 613.01 1325.3 1.9060 2.6364 2.9894 2107.6 -0.0049542 352.92 0.26638
228.38 68341. undefined 615.65 1329.6 1.9113 660.00 0.0015152 615.65 1329.6 1.9113 2.6401 2.9929 2108.5 -0.0049486 352.83 0.26670 660.00 0.0015152 615.65 1329.6 1.9113 2.6401 2.9929 2108.5 -0.0049486 352.83 0.26670
229.38 68500. undefined 618.29 1333.9 1.9165 660.00 0.0015152 618.29 1333.9 1.9165 2.6439 2.9963 2109.4 -0.0049429 352.74 0.26702 660.00 0.0015152 618.29 1333.9 1.9165 2.6439 2.9963 2109.4 -0.0049429 352.74 0.26702
230.38 68659. undefined 620.94 1338.2 1.9218 660.00 0.0015152 620.94 1338.2 1.9218 2.6476 2.9997 2110.3 -0.0049373 352.65 0.26734 660.00 0.0015152 620.94 1338.2 1.9218 2.6476 2.9997 2110.3 -0.0049373 352.65 0.26734
231.38 68817. undefined 623.59 1342.5 1.9270 660.00 0.0015152 623.59 1342.5 1.9270 2.6513 3.0031 2111.2 -0.0049317 352.56 0.26766 660.00 0.0015152 623.59 1342.5 1.9270 2.6513 3.0031 2111.2 -0.0049317 352.56 0.26766
232.38 68976. undefined 626.24 1346.8 1.9323 660.00 0.0015152 626.24 1346.8 1.9323 2.6551 3.0065 2112.1 -0.0049261 352.48 0.26798 660.00 0.0015152 626.24 1346.8 1.9323 2.6551 3.0065 2112.1 -0.0049261 352.48 0.26798
233.38 69134. undefined 628.90 1351.1 1.9375 660.00 0.0015152 628.90 1351.1 1.9375 2.6588 3.0099 2113.0 -0.0049206 352.39 0.26830 660.00 0.0015152 628.90 1351.1 1.9375 2.6588 3.0099 2113.0 -0.0049206 352.39 0.26830
234.38 69292. undefined 631.56 1355.4 1.9428 660.00 0.0015152 631.56 1355.4 1.9428 2.6625 3.0133 2113.9 -0.0049150 352.31 0.26862 660.00 0.0015152 631.56 1355.4 1.9428 2.6625 3.0133 2113.9 -0.0049150 352.31 0.26862
235.38 69450. undefined 634.22 1359.7 1.9480 660.00 0.0015152 634.22 1359.7 1.9480 2.6662 3.0167 2114.8 -0.0049095 352.22 0.26894 660.00 0.0015152 634.22 1359.7 1.9480 2.6662 3.0167 2114.8 -0.0049095 352.22 0.26894
236.38 69608. undefined 636.89 1364.1 1.9533 660.00 0.0015152 636.89 1364.1 1.9533 2.6699 3.0201 2115.7 -0.0049040 352.14 0.26926 660.00 0.0015152 636.89 1364.1 1.9533 2.6699 3.0201 2115.7 -0.0049040 352.14 0.26926
237.38 69766. undefined 639.56 1368.4 1.9585 660.00 0.0015152 639.56 1368.4 1.9585 2.6736 3.0235 2116.6 -0.0048985 352.05 0.26959 660.00 0.0015152 639.56 1368.4 1.9585 2.6736 3.0235 2116.6 -0.0048985 352.05 0.26959
238.38 69924. undefined 642.24 1372.7 1.9637 660.00 0.0015152 642.24 1372.7 1.9637 2.6773 3.0269 2117.5 -0.0048931 351.97 0.26991 660.00 0.0015152 642.24 1372.7 1.9637 2.6773 3.0269 2117.5 -0.0048931 351.97 0.26991
239.38 70081. undefined 644.92 1377.0 1.9690 660.00 0.0015152 644.92 1377.0 1.9690 2.6810 3.0303 2118.3 -0.0048876 351.89 0.27023 660.00 0.0015152 644.92 1377.0 1.9690 2.6810 3.0303 2118.3 -0.0048876 351.89 0.27023
240.38 70239. undefined 647.60 1381.4 1.9742 660.00 0.0015152 647.60 1381.4 1.9742 2.6847 3.0337 2119.2 -0.0048822 351.81 0.27056 660.00 0.0015152 647.60 1381.4 1.9742 2.6847 3.0337 2119.2 -0.0048822 351.81 0.27056
241.38 70396. undefined 650.29 1385.7 1.9794 660.00 0.0015152 650.29 1385.7 1.9794 2.6883 3.0370 2120.1 -0.0048768 351.73 0.27088 660.00 0.0015152 650.29 1385.7 1.9794 2.6883 3.0370 2120.1 -0.0048768 351.73 0.27088
242.38 70553. undefined 652.98 1390.0 1.9847 660.00 0.0015152 652.98 1390.0 1.9847 2.6920 3.0404 2121.0 -0.0048714 351.65 0.27120 660.00 0.0015152 652.98 1390.0 1.9847 2.6920 3.0404 2121.0 -0.0048714 351.65 0.27120
243.38 70710. undefined 655.67 1394.4 1.9899 660.00 0.0015152 655.67 1394.4 1.9899 2.6957 3.0438 2121.9 -0.0048660 351.57 0.27153 660.00 0.0015152 655.67 1394.4 1.9899 2.6957 3.0438 2121.9 -0.0048660 351.57 0.27153
244.38 70867. undefined 658.37 1398.7 1.9951 660.00 0.0015152 658.37 1398.7 1.9951 2.6993 3.0471 2122.8 -0.0048607 351.49 0.27185 660.00 0.0015152 658.37 1398.7 1.9951 2.6993 3.0471 2122.8 -0.0048607 351.49 0.27185
245.38 71024. undefined 661.07 1403.0 2.0003 660.00 0.0015152 661.07 1403.0 2.0003 2.7030 3.0505 2123.7 -0.0048553 351.41 0.27218 660.00 0.0015152 661.07 1403.0 2.0003 2.7030 3.0505 2123.7 -0.0048553 351.41 0.27218
246.38 71180. undefined 663.77 1407.4 2.0055 660.00 0.0015152 663.77 1407.4 2.0055 2.7066 3.0538 2124.5 -0.0048500 351.33 0.27250 660.00 0.0015152 663.77 1407.4 2.0055 2.7066 3.0538 2124.5 -0.0048500 351.33 0.27250
247.38 71337. undefined 666.48 1411.7 2.0107 660.00 0.0015152 666.48 1411.7 2.0107 2.7103 3.0572 2125.4 -0.0048447 351.25 0.27283 660.00 0.0015152 666.48 1411.7 2.0107 2.7103 3.0572 2125.4 -0.0048447 351.25 0.27283
248.38 71493. undefined 669.19 1416.1 2.0159 660.00 0.0015152 669.19 1416.1 2.0159 2.7139 3.0605 2126.3 -0.0048394 351.18 0.27315 660.00 0.0015152 669.19 1416.1 2.0159 2.7139 3.0605 2126.3 -0.0048394 351.18 0.27315
249.38 71649. undefined 671.91 1420.4 2.0211 660.00 0.0015152 671.91 1420.4 2.0211 2.7176 3.0639 2127.2 -0.0048342 351.10 0.27348 660.00 0.0015152 671.91 1420.4 2.0211 2.7176 3.0639 2127.2 -0.0048342 351.10 0.27348
250.38 71805. undefined 674.63 1424.8 2.0263 660.00 0.0015152 674.63 1424.8 2.0263 2.7212 3.0672 2128.1 -0.0048289 351.02 0.27380 660.00 0.0015152 674.63 1424.8 2.0263 2.7212 3.0672 2128.1 -0.0048289 351.02 0.27380
251.38 71961. undefined 677.35 1429.1 2.0315 660.00 0.0015152 677.35 1429.1 2.0315 2.7248 3.0705 2129.0 -0.0048237 350.95 0.27413 660.00 0.0015152 677.35 1429.1 2.0315 2.7248 3.0705 2129.0 -0.0048237 350.95 0.27413
252.38 72117. undefined 680.08 1433.5 2.0367 660.00 0.0015152 680.08 1433.5 2.0367 2.7284 3.0739 2129.8 -0.0048185 350.87 0.27446 660.00 0.0015152 680.08 1433.5 2.0367 2.7284 3.0739 2129.8 -0.0048185 350.87 0.27446
253.38 72273. undefined 682.81 1437.8 2.0419 660.00 0.0015152 682.81 1437.8 2.0419 2.7320 3.0772 2130.7 -0.0048133 350.80 0.27478 660.00 0.0015152 682.81 1437.8 2.0419 2.7320 3.0772 2130.7 -0.0048133 350.80 0.27478
254.38 72428. undefined 685.54 1442.2 2.0471 660.00 0.0015152 685.54 1442.2 2.0471 2.7357 3.0805 2131.6 -0.0048081 350.72 0.27511 660.00 0.0015152 685.54 1442.2 2.0471 2.7357 3.0805 2131.6 -0.0048081 350.72 0.27511
255.38 72584. undefined 688.28 1446.5 2.0523 660.00 0.0015152 688.28 1446.5 2.0523 2.7393 3.0838 2132.5 -0.0048029 350.65 0.27544 660.00 0.0015152 688.28 1446.5 2.0523 2.7393 3.0838 2132.5 -0.0048029 350.65 0.27544
256.38 72739. undefined 691.02 1450.9 2.0575 660.00 0.0015152 691.02 1450.9 2.0575 2.7429 3.0871 2133.3 -0.0047978 350.58 0.27576 660.00 0.0015152 691.02 1450.9 2.0575 2.7429 3.0871 2133.3 -0.0047978 350.58 0.27576
257.38 72894. undefined 693.77 1455.3 2.0626 660.00 0.0015152 693.77 1455.3 2.0626 2.7465 3.0904 2134.2 -0.0047927 350.50 0.27609 660.00 0.0015152 693.77 1455.3 2.0626 2.7465 3.0904 2134.2 -0.0047927 350.50 0.27609
258.38 73049. undefined 696.51 1459.6 2.0678 660.00 0.0015152 696.51 1459.6 2.0678 2.7500 3.0937 2135.1 -0.0047875 350.43 0.27642 660.00 0.0015152 696.51 1459.6 2.0678 2.7500 3.0937 2135.1 -0.0047875 350.43 0.27642
259.38 73204. undefined 699.27 1464.0 2.0730 660.00 0.0015152 699.27 1464.0 2.0730 2.7536 3.0970 2135.9 -0.0047824 350.36 0.27675 660.00 0.0015152 699.27 1464.0 2.0730 2.7536 3.0970 2135.9 -0.0047824 350.36 0.27675
260.38 73359. undefined 702.02 1468.4 2.0782 660.00 0.0015152 702.02 1468.4 2.0782 2.7572 3.1003 2136.8 -0.0047774 350.29 0.27708 660.00 0.0015152 702.02 1468.4 2.0782 2.7572 3.1003 2136.8 -0.0047774 350.29 0.27708
261.38 73513. undefined 704.78 1472.7 2.0833 660.00 0.0015152 704.78 1472.7 2.0833 2.7608 3.1036 2137.7 -0.0047723 350.22 0.27741 660.00 0.0015152 704.78 1472.7 2.0833 2.7608 3.1036 2137.7 -0.0047723 350.22 0.27741
262.38 73668. undefined 707.54 1477.1 2.0885 660.00 0.0015152 707.54 1477.1 2.0885 2.7643 3.1069 2138.6 -0.0047673 350.15 0.27774 660.00 0.0015152 707.54 1477.1 2.0885 2.7643 3.1069 2138.6 -0.0047673 350.15 0.27774
263.38 73822. undefined 710.31 1481.5 2.0937 660.00 0.0015152 710.31 1481.5 2.0937 2.7679 3.1102 2139.4 -0.0047622 350.08 0.27807 660.00 0.0015152 710.31 1481.5 2.0937 2.7679 3.1102 2139.4 -0.0047622 350.08 0.27807
264.38 73976. undefined 713.08 1485.9 2.0988 660.00 0.0015152 713.08 1485.9 2.0988 2.7715 3.1134 2140.3 -0.0047572 350.01 0.27840 660.00 0.0015152 713.08 1485.9 2.0988 2.7715 3.1134 2140.3 -0.0047572 350.01 0.27840
265.38 74131. undefined 715.85 1490.3 2.1040 660.00 0.0015152 715.85 1490.3 2.1040 2.7750 3.1167 2141.2 -0.0047522 349.94 0.27873 660.00 0.0015152 715.85 1490.3 2.1040 2.7750 3.1167 2141.2 -0.0047522 349.94 0.27873
266.38 74285. undefined 718.63 1494.6 2.1091 660.00 0.0015152 718.63 1494.6 2.1091 2.7786 3.1200 2142.0 -0.0047472 349.87 0.27906 660.00 0.0015152 718.63 1494.6 2.1091 2.7786 3.1200 2142.0 -0.0047472 349.87 0.27906
267.38 74438. undefined 721.41 1499.0 2.1143 660.00 0.0015152 721.41 1499.0 2.1143 2.7821 3.1233 2142.9 -0.0047423 349.81 0.27939 660.00 0.0015152 721.41 1499.0 2.1143 2.7821 3.1233 2142.9 -0.0047423 349.81 0.27939
268.38 74592. undefined 724.19 1503.4 2.1194 660.00 0.0015152 724.19 1503.4 2.1194 2.7856 3.1265 2143.7 -0.0047373 349.74 0.27972 660.00 0.0015152 724.19 1503.4 2.1194 2.7856 3.1265 2143.7 -0.0047373 349.74 0.27972
269.38 74746. undefined 726.98 1507.8 2.1246 660.00 0.0015152 726.98 1507.8 2.1246 2.7892 3.1298 2144.6 -0.0047324 349.67 0.28005 660.00 0.0015152 726.98 1507.8 2.1246 2.7892 3.1298 2144.6 -0.0047324 349.67 0.28005
270.38 74899. undefined 729.77 1512.2 2.1297 660.00 0.0015152 729.77 1512.2 2.1297 2.7927 3.1330 2145.5 -0.0047275 349.60 0.28038 660.00 0.0015152 729.77 1512.2 2.1297 2.7927 3.1330 2145.5 -0.0047275 349.60 0.28038
271.38 75053. undefined 732.57 1516.6 2.1348 660.00 0.0015152 732.57 1516.6 2.1348 2.7962 3.1363 2146.3 -0.0047226 349.54 0.28072 660.00 0.0015152 732.57 1516.6 2.1348 2.7962 3.1363 2146.3 -0.0047226 349.54 0.28072
272.38 75206. undefined 735.36 1521.0 2.1400 660.00 0.0015152 735.36 1521.0 2.1400 2.7997 3.1395 2147.2 -0.0047177 349.47 0.28105 660.00 0.0015152 735.36 1521.0 2.1400 2.7997 3.1395 2147.2 -0.0047177 349.47 0.28105
273.38 75359. undefined 738.17 1525.4 2.1451 660.00 0.0015152 738.17 1525.4 2.1451 2.8032 3.1427 2148.0 -0.0047128 349.41 0.28138 660.00 0.0015152 738.17 1525.4 2.1451 2.8032 3.1427 2148.0 -0.0047128 349.41 0.28138
274.38 75512. undefined 740.97 1529.8 2.1502 660.00 0.0015152 740.97 1529.8 2.1502 2.8067 3.1460 2148.9 -0.0047080 349.34 0.28171 660.00 0.0015152 740.97 1529.8 2.1502 2.8067 3.1460 2148.9 -0.0047080 349.34 0.28171
275.38 75665. undefined 743.78 1534.2 2.1553 660.00 0.0015152 743.78 1534.2 2.1553 2.8102 3.1492 2149.8 -0.0047032 349.28 0.28205 660.00 0.0015152 743.78 1534.2 2.1553 2.8102 3.1492 2149.8 -0.0047032 349.28 0.28205
276.38 75818. undefined 746.59 1538.6 2.1605 660.00 0.0015152 746.59 1538.6 2.1605 2.8137 3.1524 2150.6 -0.0046983 349.22 0.28238 660.00 0.0015152 746.59 1538.6 2.1605 2.8137 3.1524 2150.6 -0.0046983 349.22 0.28238
277.38 75970. undefined 749.41 1543.0 2.1656 660.00 0.0015152 749.41 1543.0 2.1656 2.8172 3.1557 2151.5 -0.0046935 349.15 0.28271 660.00 0.0015152 749.41 1543.0 2.1656 2.8172 3.1557 2151.5 -0.0046935 349.15 0.28271
278.38 76123. undefined 752.23 1547.4 2.1707 660.00 0.0015152 752.23 1547.4 2.1707 2.8207 3.1589 2152.3 -0.0046887 349.09 0.28305 660.00 0.0015152 752.23 1547.4 2.1707 2.8207 3.1589 2152.3 -0.0046887 349.09 0.28305
279.38 76275. undefined 755.05 1551.9 2.1758 660.00 0.0015152 755.05 1551.9 2.1758 2.8242 3.1621 2153.2 -0.0046840 349.03 0.28338 660.00 0.0015152 755.05 1551.9 2.1758 2.8242 3.1621 2153.2 -0.0046840 349.03 0.28338
280.38 76427. undefined 757.87 1556.3 2.1809 660.00 0.0015152 757.87 1556.3 2.1809 2.8277 3.1653 2154.0 -0.0046792 348.97 0.28372 660.00 0.0015152 757.87 1556.3 2.1809 2.8277 3.1653 2154.0 -0.0046792 348.97 0.28372
281.38 76580. undefined 760.70 1560.7 2.1860 660.00 0.0015152 760.70 1560.7 2.1860 2.8311 3.1685 2154.9 -0.0046745 348.90 0.28405 660.00 0.0015152 760.70 1560.7 2.1860 2.8311 3.1685 2154.9 -0.0046745 348.90 0.28405
282.38 76732. undefined 763.54 1565.1 2.1911 660.00 0.0015152 763.54 1565.1 2.1911 2.8346 3.1717 2155.7 -0.0046697 348.84 0.28426 660.00 0.0015152 763.54 1565.1 2.1911 2.8346 3.1717 2155.7 -0.0046697 348.84 0.28426
283.38 76883. undefined 766.37 1569.5 2.1962 660.00 0.0015152 766.37 1569.5 2.1962 2.8381 3.1749 2156.6 -0.0046650 348.78 0.28460 660.00 0.0015152 766.37 1569.5 2.1962 2.8381 3.1749 2156.6 -0.0046650 348.78 0.28460
284.38 77035. undefined 769.21 1574.0 2.2013 660.00 0.0015152 769.21 1574.0 2.2013 2.8415 3.1781 2157.4 -0.0046603 348.72 0.28493 660.00 0.0015152 769.21 1574.0 2.2013 2.8415 3.1781 2157.4 -0.0046603 348.72 0.28493
285.38 77187. undefined 772.06 1578.4 2.2064 660.00 0.0015152 772.06 1578.4 2.2064 2.8450 3.1813 2158.3 -0.0046556 348.66 0.28527 660.00 0.0015152 772.06 1578.4 2.2064 2.8450 3.1813 2158.3 -0.0046556 348.66 0.28527
286.38 77338. undefined 774.90 1582.8 2.2115 660.00 0.0015152 774.90 1582.8 2.2115 2.8484 3.1845 2159.1 -0.0046510 348.60 0.28560 660.00 0.0015152 774.90 1582.8 2.2115 2.8484 3.1845 2159.1 -0.0046510 348.60 0.28560
287.38 77490. undefined 777.75 1587.3 2.2166 660.00 0.0015152 777.75 1587.3 2.2166 2.8519 3.1877 2160.0 -0.0046463 348.54 0.28594 660.00 0.0015152 777.75 1587.3 2.2166 2.8519 3.1877 2160.0 -0.0046463 348.54 0.28594
288.38 77641. undefined 780.61 1591.7 2.2217 660.00 0.0015152 780.61 1591.7 2.2217 2.8553 3.1908 2160.8 -0.0046417 348.48 0.28628 660.00 0.0015152 780.61 1591.7 2.2217 2.8553 3.1908 2160.8 -0.0046417 348.48 0.28628
289.38 77792. undefined 783.46 1596.1 2.2268 660.00 0.0015152 783.46 1596.1 2.2268 2.8587 3.1940 2161.7 -0.0046371 348.43 0.28661 660.00 0.0015152 783.46 1596.1 2.2268 2.8587 3.1940 2161.7 -0.0046371 348.43 0.28661
290.38 77943. undefined 786.32 1600.6 2.2319 660.00 0.0015152 786.32 1600.6 2.2319 2.8622 3.1972 2162.5 -0.0046325 348.37 0.28695 660.00 0.0015152 786.32 1600.6 2.2319 2.8622 3.1972 2162.5 -0.0046325 348.37 0.28695
291.38 78094. undefined 789.19 1605.0 2.2369 660.00 0.0015152 789.19 1605.0 2.2369 2.8656 3.2003 2163.4 -0.0046279 348.31 0.28729 660.00 0.0015152 789.19 1605.0 2.2369 2.8656 3.2003 2163.4 -0.0046279 348.31 0.28729
292.38 78245. undefined 792.05 1609.5 2.2420 660.00 0.0015152 792.05 1609.5 2.2420 2.8690 3.2035 2164.2 -0.0046233 348.25 0.28763 660.00 0.0015152 792.05 1609.5 2.2420 2.8690 3.2035 2164.2 -0.0046233 348.25 0.28763
293.38 78396. undefined 794.92 1613.9 2.2471 660.00 0.0015152 794.92 1613.9 2.2471 2.8724 3.2066 2165.0 -0.0046187 348.20 0.28797 660.00 0.0015152 794.92 1613.9 2.2471 2.8724 3.2066 2165.0 -0.0046187 348.20 0.28797
294.38 78547. undefined 797.80 1618.3 2.2522 660.00 0.0015152 797.80 1618.3 2.2522 2.8758 3.2098 2165.9 -0.0046142 348.14 0.28830 660.00 0.0015152 797.80 1618.3 2.2522 2.8758 3.2098 2165.9 -0.0046142 348.14 0.28830
295.38 78697. undefined 800.68 1622.8 2.2572 660.00 0.0015152 800.68 1622.8 2.2572 2.8792 3.2129 2166.7 -0.0046096 348.08 0.28864 660.00 0.0015152 800.68 1622.8 2.2572 2.8792 3.2129 2166.7 -0.0046096 348.08 0.28864
296.38 78847. undefined 803.56 1627.2 2.2623 660.00 0.0015152 803.56 1627.2 2.2623 2.8826 3.2161 2167.6 -0.0046051 348.03 0.28898 660.00 0.0015152 803.56 1627.2 2.2623 2.8826 3.2161 2167.6 -0.0046051 348.03 0.28898
297.38 78998. undefined 806.44 1631.7 2.2673 660.00 0.0015152 806.44 1631.7 2.2673 2.8860 3.2192 2168.4 -0.0046006 347.97 0.28932 660.00 0.0015152 806.44 1631.7 2.2673 2.8860 3.2192 2168.4 -0.0046006 347.97 0.28932
298.38 79148. undefined 809.33 1636.2 2.2724 660.00 0.0015152 809.33 1636.2 2.2724 2.8894 3.2224 2169.2 -0.0045961 347.92 0.28966 660.00 0.0015152 809.33 1636.2 2.2724 2.8894 3.2224 2169.2 -0.0045961 347.92 0.28966
299.38 79298. undefined 812.22 1640.6 2.2775 660.00 0.0015152 812.22 1640.6 2.2775 2.8928 3.2255 2170.1 -0.0045916 347.86 0.29000 660.00 0.0015152 812.22 1640.6 2.2775 2.8928 3.2255 2170.1 -0.0045916 347.86 0.29000
300.38 79448. undefined 815.11 1645.1 2.2825 660.00 0.0015152 815.11 1645.1 2.2825 2.8961 3.2286 2170.9 -0.0045872 347.81 0.29034 660.00 0.0015152 815.11 1645.1 2.2825 2.8961 3.2286 2170.9 -0.0045872 347.81 0.29034