Temperature (C) Pressure (psia) Quality (l+v) Internal Energy (l+v, kJ/kg) Enthalpy (l+v, kJ/kg) Entropy (l+v, J/g*K) Density (l, kg/m3) Volume (l, m3/kg) Internal Energy (l, kJ/kg) Enthalpy (l, kJ/kg) Entropy (l, J/g*K) Cv (l, J/g*K) Cp (l, J/g*K) Sound Spd. (l, m/s) Joule-Thomson (l, F/psia) Viscosity (l, uPa*s) Therm. Cond. (l, W/m*K) Density (v, kg/m3) Volume (v, m3/kg) Internal Energy (v, kJ/kg) Enthalpy (v, kJ/kg) Entropy (v, J/g*K) Cv (v, J/g*K) Cp (v, J/g*K) Sound Spd. (v, m/s) Joule-Thomson (v, F/psia) Viscosity (v, uPa*s) Therm. Cond. (v, W/m*K)
-187.62 2.4953e-08 1.3711e-12 -196.64 -196.64 -1.3959 733.13 0.0013640 -196.64 -196.64 -1.3959 1.3553 1.9158 2136.4 -0.0077592 10960. 0.20792 1.0669e-08 9.3732e+07 350.13 366.26 5.1858 0.69067 0.87923 143.28 6.1051 2.3259 0.0017061
-186.62 3.7339e-08 1.9973e-12 -194.73 -194.73 -1.3736 732.08 0.0013660 -194.73 -194.73 -1.3736 1.3539 1.9166 2129.6 -0.0077546 10073. 0.20765 1.5780e-08 6.3371e+07 350.82 367.14 5.1200 0.69462 0.88317 144.03 5.9178 2.3534 0.0017533
-185.62 5.5322e-08 2.8803e-12 -192.81 -192.81 -1.3516 731.04 0.0013679 -192.81 -192.81 -1.3516 1.3525 1.9174 2122.9 -0.0077498 9276.1 0.20737 2.3112e-08 4.3267e+07 351.52 368.02 5.0561 0.69857 0.88713 144.77 5.7383 2.3808 0.0018007
-184.62 8.1182e-08 4.1136e-12 -190.89 -190.89 -1.3298 730.00 0.0013699 -190.89 -190.89 -1.3298 1.3513 1.9182 2116.1 -0.0077448 8557.8 0.20708 3.3533e-08 2.9821e+07 352.22 368.91 4.9939 0.70253 0.89108 145.51 5.5662 2.4083 0.0018485
-183.62 1.1803e-07 5.8199e-12 -188.97 -188.97 -1.3083 728.96 0.0013718 -188.97 -188.97 -1.3083 1.3501 1.9191 2109.3 -0.0077395 7909.8 0.20678 4.8211e-08 2.0742e+07 352.92 369.81 4.9333 0.70648 0.89504 146.24 5.4011 2.4357 0.0018965
-182.62 1.7009e-07 8.1594e-12 -187.05 -187.05 -1.2869 727.92 0.0013738 -187.05 -187.05 -1.2869 1.3490 1.9201 2102.5 -0.0077340 7324.3 0.20647 6.8704e-08 1.4555e+07 353.63 370.70 4.8744 0.71043 0.89899 146.97 5.2426 2.4632 0.0019448
-181.62 2.4299e-07 1.1339e-11 -185.13 -185.13 -1.2658 726.88 0.0013757 -185.13 -185.13 -1.2658 1.3480 1.9210 2095.7 -0.0077283 6794.5 0.20616 9.7079e-08 1.0301e+07 354.35 371.60 4.8170 0.71438 0.90294 147.69 5.0904 2.4906 0.0019934
-180.62 3.4425e-07 1.5624e-11 -183.21 -183.21 -1.2450 725.85 0.0013777 -183.21 -183.21 -1.2450 1.3470 1.9220 2088.9 -0.0077225 6314.4 0.20584 1.3605e-07 7.3504e+06 355.06 372.51 4.7612 0.71833 0.90688 148.41 4.9442 2.5181 0.0020423
-179.62 4.8378e-07 2.1350e-11 -181.29 -181.29 -1.2243 724.81 0.0013797 -181.29 -181.29 -1.2243 1.3461 1.9231 2082.0 -0.0077164 5878.8 0.20551 1.8915e-07 5.2868e+06 355.78 373.42 4.7068 0.72227 0.91082 149.13 4.8038 2.5456 0.0020915
-178.62 6.7459e-07 2.8942e-11 -179.37 -179.37 -1.2038 723.78 0.0013816 -179.37 -179.37 -1.2038 1.3453 1.9241 2075.2 -0.0077102 5482.9 0.20517 2.6096e-07 3.8320e+06 356.51 374.33 4.6538 0.72620 0.91475 149.84 4.6688 2.5731 0.0021410
-177.62 9.3358e-07 3.8929e-11 -177.44 -177.44 -1.1836 722.75 0.0013836 -177.44 -177.44 -1.1836 1.3445 1.9252 2068.4 -0.0077039 5122.6 0.20483 3.5737e-07 2.7982e+06 357.23 375.25 4.6022 0.73012 0.91867 150.54 4.5390 2.6005 0.0021907
-176.62 1.2826e-06 5.1969e-11 -175.52 -175.52 -1.1635 721.72 0.0013856 -175.52 -175.52 -1.1635 1.3437 1.9263 2061.5 -0.0076973 4794.1 0.20447 4.8588e-07 2.0581e+06 357.97 376.17 4.5519 0.73403 0.92258 151.25 4.4142 2.6280 0.0022408
-175.62 1.7496e-06 6.8868e-11 -173.59 -173.59 -1.1437 720.69 0.0013876 -173.59 -173.59 -1.1437 1.3430 1.9274 2054.7 -0.0076907 4494.3 0.20411 6.5601e-07 1.5244e+06 358.70 377.09 4.5029 0.73792 0.92648 151.95 4.2941 2.6555 0.0022912
-174.62 2.3705e-06 9.0613e-11 -171.66 -171.66 -1.1240 719.66 0.0013895 -171.66 -171.66 -1.1240 1.3423 1.9286 2047.9 -0.0076838 4220.2 0.20375 8.7976e-07 1.1367e+06 359.44 378.02 4.4551 0.74181 0.93036 152.64 4.1784 2.6830 0.0023418
-173.62 3.1903e-06 1.1840e-10 -169.73 -169.73 -1.1045 718.64 0.0013915 -169.73 -169.73 -1.1045 1.3417 1.9298 2041.0 -0.0076769 3969.3 0.20338 1.1721e-06 8.5314e+05 360.19 378.95 4.4085 0.74568 0.93423 153.33 4.0671 2.7105 0.0023928
-172.62 4.2661e-06 1.5366e-10 -167.80 -167.80 -1.0852 717.61 0.0013935 -167.80 -167.80 -1.0852 1.3411 1.9310 2034.2 -0.0076698 3739.3 0.20300 1.5518e-06 6.4441e+05 360.93 379.89 4.3631 0.74953 0.93809 154.02 3.9599 2.7379 0.0024440
-171.62 5.6692e-06 1.9812e-10 -165.87 -165.87 -1.0661 716.58 0.0013955 -165.87 -165.87 -1.0661 1.3405 1.9322 2027.3 -0.0076625 3528.0 0.20261 2.0419e-06 4.8974e+05 361.69 380.83 4.3188 0.75337 0.94193 154.71 3.8566 2.7654 0.0024955
-170.62 7.4884e-06 2.5381e-10 -163.94 -163.94 -1.0472 715.56 0.0013975 -163.94 -163.94 -1.0472 1.3400 1.9334 2020.5 -0.0076552 3333.8 0.20222 2.6708e-06 3.7442e+05 362.44 381.77 4.2755 0.75720 0.94575 155.39 3.7570 2.7929 0.0025473
-169.62 9.8334e-06 3.2312e-10 -162.00 -162.00 -1.0284 714.54 0.0013995 -162.00 -162.00 -1.0284 1.3395 1.9347 2013.6 -0.0076477 3154.9 0.20182 3.4733e-06 2.8791e+05 363.20 382.72 4.2334 0.76100 0.94956 156.07 3.6609 2.8204 0.0025994
-168.62 1.2839e-05 4.0886e-10 -160.07 -160.07 -1.0098 713.52 0.0014015 -160.07 -160.07 -1.0098 1.3390 1.9359 2006.8 -0.0076401 2989.9 0.20141 4.4917e-06 2.2263e+05 363.96 383.67 4.1922 0.76479 0.95335 156.74 3.5683 2.8479 0.0026518
-167.62 1.6672e-05 5.1427e-10 -158.13 -158.13 -0.99134 712.49 0.0014035 -158.13 -158.13 -0.99134 1.3386 1.9372 2000.0 -0.0076323 2837.5 0.20100 5.7771e-06 1.7310e+05 364.73 384.63 4.1521 0.76856 0.95712 157.41 3.4790 2.8754 0.0027045
-166.62 2.1533e-05 6.4309e-10 -156.19 -156.19 -0.97306 711.47 0.0014055 -156.19 -156.19 -0.97306 1.3382 1.9385 1993.1 -0.0076245 2696.5 0.20058 7.3914e-06 1.3529e+05 365.50 385.59 4.1129 0.77232 0.96087 158.08 3.3927 2.9029 0.0027575
-165.62 2.7666e-05 7.9960e-10 -154.25 -154.25 -0.95494 710.45 0.0014075 -154.25 -154.25 -0.95494 1.3378 1.9398 1986.3 -0.0076165 2566.0 0.20016 9.4084e-06 1.0629e+05 366.27 386.55 4.0746 0.77605 0.96460 158.75 3.3095 2.9304 0.0028108
-164.62 3.5367e-05 9.8867e-10 -152.31 -152.31 -0.93698 709.44 0.0014096 -152.31 -152.31 -0.93698 1.3375 1.9411 1979.4 -0.0076084 2444.9 0.19973 1.1916e-05 83918. 367.05 387.52 4.0372 0.77976 0.96832 159.41 3.2291 2.9579 0.0028643
-163.62 4.4989e-05 1.2158e-09 -150.37 -150.37 -0.91917 708.42 0.0014116 -150.37 -150.37 -0.91917 1.3371 1.9424 1972.6 -0.0076002 2332.3 0.19930 1.5020e-05 66577. 367.83 388.49 4.0008 0.78346 0.97201 160.07 3.1514 2.9854 0.0029182
-162.62 5.6956e-05 1.4870e-09 -148.43 -148.43 -0.90151 707.40 0.0014136 -148.43 -148.43 -0.90151 1.3368 1.9437 1965.8 -0.0075919 2227.7 0.19886 1.8844e-05 53068. 368.62 389.46 3.9651 0.78713 0.97569 160.72 3.0764 3.0129 0.0029723
-161.62 7.1773e-05 1.8091e-09 -146.48 -146.48 -0.88400 706.38 0.0014157 -146.48 -146.48 -0.88400 1.3365 1.9451 1959.0 -0.0075834 2130.2 0.19841 2.3533e-05 42494. 369.41 390.44 3.9304 0.79079 0.97935 161.38 3.0038 3.0404 0.0030268
-160.62 9.0036e-05 2.1897e-09 -144.54 -144.54 -0.86663 705.37 0.0014177 -144.54 -144.54 -0.86663 1.3363 1.9465 1952.1 -0.0075748 2039.2 0.19796 2.9258e-05 34178. 370.20 391.42 3.8964 0.79443 0.98298 162.03 2.9337 3.0679 0.0030815
-159.62 0.00011245 2.6367e-09 -142.59 -142.59 -0.84940 704.35 0.0014197 -142.59 -142.59 -0.84940 1.3360 1.9478 1945.3 -0.0075661 1954.2 0.19751 3.6221e-05 27609. 371.00 392.40 3.8632 0.79805 0.98660 162.68 2.8658 3.0955 0.0031365
-158.62 0.00013985 3.1590e-09 -140.64 -140.64 -0.83231 703.34 0.0014218 -140.64 -140.64 -0.83231 1.3358 1.9492 1938.5 -0.0075573 1874.8 0.19705 4.4652e-05 22395. 371.80 393.39 3.8307 0.80164 0.99020 163.32 2.8002 3.1230 0.0031918
-157.62 0.00017320 3.7659e-09 -138.69 -138.69 -0.81536 702.32 0.0014238 -138.69 -138.69 -0.81536 1.3356 1.9506 1931.7 -0.0075484 1800.3 0.19658 5.4822e-05 18241. 372.60 394.38 3.7990 0.80522 0.99378 163.96 2.7367 3.1505 0.0032474
-156.62 0.00021364 4.4673e-09 -136.74 -136.74 -0.79854 701.31 0.0014259 -136.74 -136.74 -0.79854 1.3354 1.9520 1924.9 -0.0075393 1730.5 0.19611 6.7040e-05 14916. 373.41 395.38 3.7680 0.80878 0.99734 164.60 2.6752 3.1780 0.0033033
-155.62 0.00026248 5.2735e-09 -134.79 -134.79 -0.78185 700.30 0.0014280 -134.79 -134.79 -0.78185 1.3352 1.9534 1918.1 -0.0075302 1664.9 0.19564 8.1666e-05 12245. 374.22 396.38 3.7377 0.81232 1.0009 165.24 2.6157 3.2055 0.0033595
-154.62 0.00032125 6.1949e-09 -132.83 -132.83 -0.76530 699.29 0.0014300 -132.83 -132.83 -0.76530 1.3350 1.9548 1911.3 -0.0075209 1603.3 0.19516 9.9109e-05 10090. 375.03 397.38 3.7081 0.81585 1.0044 165.87 2.5580 3.2330 0.0034160
-153.62 0.00039171 7.2422e-09 -130.88 -130.88 -0.74887 698.27 0.0014321 -130.88 -130.88 -0.74887 1.3349 1.9563 1904.5 -0.0075114 1545.3 0.19468 0.00011984 8344.6 375.85 398.39 3.6792 0.81935 1.0079 166.50 2.5022 3.2606 0.0034727
-152.62 0.00047590 8.4256e-09 -128.92 -128.92 -0.73256 697.26 0.0014342 -128.92 -128.92 -0.73256 1.3348 1.9577 1897.8 -0.0075019 1490.6 0.19419 0.00014439 6925.9 376.67 399.40 3.6509 0.82284 1.0114 167.13 2.4481 3.2881 0.0035298
-151.62 0.00057613 9.7551e-09 -126.96 -126.96 -0.71638 696.25 0.0014363 -126.96 -126.96 -0.71638 1.3346 1.9592 1891.0 -0.0074922 1438.9 0.19370 0.00017336 5768.4 377.49 400.41 3.6232 0.82631 1.0149 167.76 2.3957 3.3156 0.0035872
-150.62 0.00069507 1.1240e-08 -125.00 -125.00 -0.70032 695.24 0.0014384 -125.00 -125.00 -0.70032 1.3345 1.9606 1884.2 -0.0074824 1390.2 0.19320 0.00020744 4820.7 378.32 401.42 3.5962 0.82976 1.0183 168.38 2.3448 3.3431 0.0036448
-149.62 0.00083574 1.2887e-08 -123.04 -123.04 -0.68438 694.23 0.0014404 -123.04 -123.04 -0.68438 1.3345 1.9621 1877.4 -0.0074724 1344.0 0.19270 0.00024740 4042.0 379.15 402.44 3.5697 0.83319 1.0218 169.00 2.2956 3.3706 0.0037027
-148.62 0.0010016 1.4702e-08 -121.08 -121.08 -0.66855 693.22 0.0014425 -121.08 -121.08 -0.66855 1.3344 1.9636 1870.7 -0.0074623 1300.3 0.19220 0.00029412 3400.0 379.99 403.47 3.5438 0.83661 1.0252 169.62 2.2478 3.3982 0.0037610
-147.62 0.0011965 1.6690e-08 -119.11 -119.11 -0.65284 692.21 0.0014447 -119.11 -119.11 -0.65284 1.3343 1.9651 1863.9 -0.0074521 1258.9 0.19169 0.00034856 2869.0 380.83 404.49 3.5185 0.84001 1.0286 170.24 2.2014 3.4257 0.0038195
-146.62 0.0014249 1.8849e-08 -117.15 -117.15 -0.63724 691.20 0.0014468 -117.15 -117.15 -0.63724 1.3343 1.9666 1857.2 -0.0074417 1219.6 0.19117 0.00041181 2428.3 381.67 405.52 3.4938 0.84340 1.0320 170.85 2.1565 3.4532 0.0038783
-145.62 0.0016917 2.1176e-08 -115.18 -115.18 -0.62175 690.19 0.0014489 -115.18 -115.18 -0.62175 1.3343 1.9682 1850.4 -0.0074312 1182.3 0.19066 0.00048510 2061.4 382.51 406.56 3.4695 0.84677 1.0353 171.46 2.1128 3.4807 0.0039374
-144.62 0.0020026 2.3663e-08 -113.21 -113.21 -0.60637 689.18 0.0014510 -113.21 -113.21 -0.60637 1.3343 1.9697 1843.7 -0.0074206 1146.8 0.19014 0.00056976 1755.1 383.36 407.59 3.4458 0.85012 1.0387 172.07 2.0705 3.5082 0.0039967
-143.62 0.0023637 2.6293e-08 -111.24 -111.24 -0.59110 688.17 0.0014531 -111.24 -111.24 -0.59110 1.3343 1.9713 1836.9 -0.0074098 1113.0 0.18962 0.00066731 1498.6 384.21 408.63 3.4226 0.85346 1.0420 172.68 2.0294 3.5358 0.0040564
-142.62 0.0027820 2.9045e-08 -109.27 -109.27 -0.57593 687.16 0.0014553 -109.27 -109.27 -0.57593 1.3343 1.9728 1830.2 -0.0073988 1080.8 0.18909 0.00077939 1283.1 385.07 409.68 3.3999 0.85679 1.0454 173.28 1.9896 3.5633 0.0041164
-141.62 0.0032653 3.1887e-08 -107.30 -107.30 -0.56087 686.15 0.0014574 -107.30 -107.30 -0.56087 1.3343 1.9744 1823.5 -0.0073878 1050.1 0.18856 0.00090784 1101.5 385.93 410.72 3.3777 0.86011 1.0487 173.88 1.9508 3.5908 0.0041766
-140.62 0.0038222 3.4780e-08 -105.32 -105.32 -0.54591 685.14 0.0014596 -105.32 -105.32 -0.54591 1.3344 1.9760 1816.7 -0.0073765 1020.7 0.18803 0.0010547 948.16 386.79 411.77 3.3560 0.86341 1.0520 174.48 1.9133 3.6183 0.0042372
-139.62 0.0044623 3.7668e-08 -103.34 -103.34 -0.53105 684.13 0.0014617 -103.34 -103.34 -0.53105 1.3344 1.9776 1810.0 -0.0073651 992.74 0.18749 0.0012221 818.26 387.65 412.83 3.3347 0.86670 1.0553 175.08 1.8768 3.6459 0.0042980
-138.62 0.0051963 4.0485e-08 -101.37 -101.37 -0.51629 683.12 0.0014639 -101.37 -101.37 -0.51629 1.3345 1.9792 1803.3 -0.0073536 965.97 0.18695 0.0014125 707.94 388.52 413.88 3.3139 0.86998 1.0586 175.67 1.8413 3.6734 0.0043592
-137.62 0.0060358 4.3149e-08 -99.386 -99.386 -0.50162 682.11 0.0014660 -99.386 -99.386 -0.50162 1.3346 1.9808 1796.6 -0.0073419 940.35 0.18641 0.0016287 614.00 389.39 414.94 3.2935 0.87325 1.0619 176.26 1.8069 3.7009 0.0044206
-136.62 0.0069938 4.5559e-08 -97.404 -97.404 -0.48705 681.10 0.0014682 -97.404 -97.404 -0.48705 1.3347 1.9825 1789.9 -0.0073301 915.81 0.18586 0.0018733 533.80 390.26 416.00 3.2735 0.87650 1.0651 176.85 1.7734 3.7284 0.0044823
-135.62 0.0080843 4.7592e-08 -95.421 -95.421 -0.47258 680.09 0.0014704 -95.421 -95.421 -0.47258 1.3348 1.9841 1783.2 -0.0073180 892.30 0.18531 0.0021497 465.17 391.14 417.07 3.2540 0.87975 1.0684 177.44 1.7409 3.7559 0.0045443
-134.62 0.0093230 4.9103e-08 -93.436 -93.436 -0.45820 679.08 0.0014726 -93.436 -93.436 -0.45820 1.3350 1.9858 1776.5 -0.0073059 869.75 0.18476 0.0024613 406.30 392.02 418.14 3.2348 0.88299 1.0716 178.02 1.7093 3.7834 0.0046066
-133.62 0.010727 4.9922e-08 -91.450 -91.449 -0.44391 678.07 0.0014748 -91.450 -91.449 -0.44391 1.3351 1.9875 1769.8 -0.0072935 848.11 0.18421 0.0028116 355.67 392.91 419.21 3.2161 0.88622 1.0749 178.61 1.6786 3.8109 0.0046691
-132.62 0.012315 4.9846e-08 -89.461 -89.461 -0.42971 677.06 0.0014770 -89.461 -89.461 -0.42971 1.3353 1.9892 1763.1 -0.0072810 827.32 0.18365 0.0032049 312.03 393.79 420.29 3.1977 0.88944 1.0781 179.19 1.6488 3.8385 0.0047320
-131.62 0.014106 4.8642e-08 -87.471 -87.471 -0.41560 676.04 0.0014792 -87.471 -87.471 -0.41560 1.3354 1.9909 1756.4 -0.0072684 807.34 0.18309 0.0036453 274.33 394.68 421.36 3.1798 0.89266 1.0813 179.76 1.6197 3.8660 0.0047951
-130.62 0.016124 4.6039e-08 -85.479 -85.479 -0.40157 675.03 0.0014814 -85.479 -85.479 -0.40157 1.3356 1.9926 1749.7 -0.0072555 788.12 0.18253 0.0041375 241.69 395.58 422.44 3.1622 0.89586 1.0846 180.34 1.5915 3.8935 0.0048586
-129.62 0.018392 4.1726e-08 -83.486 -83.486 -0.38763 674.02 0.0014836 -83.486 -83.486 -0.38763 1.3358 1.9944 1743.0 -0.0072425 769.63 0.18196 0.0046867 213.37 396.47 423.53 3.1450 0.89906 1.0878 180.91 1.5641 3.9210 0.0049223
-128.62 0.020935 3.5346e-08 -81.491 -81.490 -0.37378 673.01 0.0014859 -81.491 -81.490 -0.37378 1.3360 1.9961 1736.3 -0.0072294 751.83 0.18140 0.0052981 188.75 397.37 424.62 3.1281 0.90226 1.0910 181.48 1.5374 3.9485 0.0049863
-127.62 0.023783 2.6493e-08 -79.494 -79.493 -0.36001 672.00 0.0014881 -79.494 -79.493 -0.36001 1.3363 1.9979 1729.6 -0.0072160 734.67 0.18083 0.0059776 167.29 398.27 425.71 3.1116 0.90545 1.0942 182.05 1.5114 3.9760 0.0050506
-126.62 0.026966 1.4708e-08 -77.495 -77.495 -0.34632 670.98 0.0014904 -77.495 -77.495 -0.34632 1.3365 1.9997 1722.9 -0.0072025 718.14 0.18025 0.0067313 148.56 399.18 426.80 3.0954 0.90863 1.0974 182.62 1.4861 4.0035 0.0051152
-125.62 8.9967 undefined -75.515 -75.422 -0.33286 670.00 0.0014925 -75.515 -75.422 -0.33286 1.3369 2.0014 1716.5 -0.0071894 702.53 0.17970 670.00 0.0014925 -75.515 -75.422 -0.33286 1.3369 2.0014 1716.5 -0.0071894 702.53 0.17970
-124.62 297.90 undefined -74.177 -71.111 -0.32382 670.00 0.0014925 -74.177 -71.111 -0.32382 1.3391 2.0009 1719.1 -0.0071937 698.11 0.17994 670.00 0.0014925 -74.177 -71.111 -0.32382 1.3391 2.0009 1719.1 -0.0071937 698.11 0.17994
-123.62 585.95 undefined -72.837 -66.807 -0.31482 670.00 0.0014925 -72.837 -66.807 -0.31482 1.3414 2.0004 1721.6 -0.0071979 693.77 0.18019 670.00 0.0014925 -72.837 -66.807 -0.31482 1.3414 2.0004 1721.6 -0.0071979 693.77 0.18019
-122.62 873.14 undefined -71.494 -62.509 -0.30587 670.00 0.0014925 -71.494 -62.509 -0.30587 1.3437 2.0000 1724.2 -0.0072019 689.51 0.18043 670.00 0.0014925 -71.494 -62.509 -0.30587 1.3437 2.0000 1724.2 -0.0072019 689.51 0.18043
-121.62 1159.5 undefined -70.149 -58.217 -0.29697 670.00 0.0014925 -70.149 -58.217 -0.29697 1.3460 1.9996 1726.7 -0.0072057 685.32 0.18067 670.00 0.0014925 -70.149 -58.217 -0.29697 1.3460 1.9996 1726.7 -0.0072057 685.32 0.18067
-120.62 1445.0 undefined -68.802 -53.932 -0.28811 670.00 0.0014925 -68.802 -53.932 -0.28811 1.3482 1.9992 1729.3 -0.0072094 681.20 0.18091 670.00 0.0014925 -68.802 -53.932 -0.28811 1.3482 1.9992 1729.3 -0.0072094 681.20 0.18091
-119.62 1729.7 undefined -67.453 -49.653 -0.27929 670.00 0.0014925 -67.453 -49.653 -0.27929 1.3505 1.9989 1731.8 -0.0072129 677.16 0.18115 670.00 0.0014925 -67.453 -49.653 -0.27929 1.3505 1.9989 1731.8 -0.0072129 677.16 0.18115
-118.62 2013.5 undefined -66.101 -45.381 -0.27051 670.00 0.0014925 -66.101 -45.381 -0.27051 1.3528 1.9986 1734.3 -0.0072163 673.19 0.18139 670.00 0.0014925 -66.101 -45.381 -0.27051 1.3528 1.9986 1734.3 -0.0072163 673.19 0.18139
-117.62 2296.6 undefined -64.747 -41.114 -0.26178 670.00 0.0014925 -64.747 -41.114 -0.26178 1.3551 1.9983 1736.8 -0.0072195 669.29 0.18163 670.00 0.0014925 -64.747 -41.114 -0.26178 1.3551 1.9983 1736.8 -0.0072195 669.29 0.18163
-116.62 2578.8 undefined -63.391 -36.853 -0.25309 670.00 0.0014925 -63.391 -36.853 -0.25309 1.3574 1.9981 1739.3 -0.0072226 665.46 0.18188 670.00 0.0014925 -63.391 -36.853 -0.25309 1.3574 1.9981 1739.3 -0.0072226 665.46 0.18188
-115.62 2860.3 undefined -62.032 -32.598 -0.24444 670.00 0.0014925 -62.032 -32.598 -0.24444 1.3597 1.9979 1741.8 -0.0072255 661.69 0.18212 670.00 0.0014925 -62.032 -32.598 -0.24444 1.3597 1.9979 1741.8 -0.0072255 661.69 0.18212
-114.62 3140.9 undefined -60.672 -28.349 -0.23583 670.00 0.0014925 -60.672 -28.349 -0.23583 1.3620 1.9977 1744.2 -0.0072283 657.98 0.18236 670.00 0.0014925 -60.672 -28.349 -0.23583 1.3620 1.9977 1744.2 -0.0072283 657.98 0.18236
-113.62 3420.8 undefined -59.309 -24.106 -0.22725 670.00 0.0014925 -59.309 -24.106 -0.22725 1.3643 1.9976 1746.6 -0.0072309 654.35 0.18261 670.00 0.0014925 -59.309 -24.106 -0.22725 1.3643 1.9976 1746.6 -0.0072309 654.35 0.18261
-112.62 3699.9 undefined -57.943 -19.869 -0.21872 670.00 0.0014925 -57.943 -19.869 -0.21872 1.3666 1.9975 1749.1 -0.0072333 650.77 0.18285 670.00 0.0014925 -57.943 -19.869 -0.21872 1.3666 1.9975 1749.1 -0.0072333 650.77 0.18285
-111.62 3978.2 undefined -56.575 -15.637 -0.21023 670.00 0.0014925 -56.575 -15.637 -0.21023 1.3689 1.9975 1751.5 -0.0072356 647.25 0.18309 670.00 0.0014925 -56.575 -15.637 -0.21023 1.3689 1.9975 1751.5 -0.0072356 647.25 0.18309
-110.62 4255.8 undefined -55.205 -11.410 -0.20177 670.00 0.0014925 -55.205 -11.410 -0.20177 1.3712 1.9974 1753.9 -0.0072377 643.79 0.18334 670.00 0.0014925 -55.205 -11.410 -0.20177 1.3712 1.9974 1753.9 -0.0072377 643.79 0.18334
-109.62 4532.6 undefined -53.833 -7.1893 -0.19335 670.00 0.0014925 -53.833 -7.1893 -0.19335 1.3736 1.9974 1756.3 -0.0072397 640.39 0.18358 670.00 0.0014925 -53.833 -7.1893 -0.19335 1.3736 1.9974 1756.3 -0.0072397 640.39 0.18358
-108.62 4808.7 undefined -52.458 -2.9737 -0.18497 670.00 0.0014925 -52.458 -2.9737 -0.18497 1.3759 1.9975 1758.6 -0.0072416 637.05 0.18383 670.00 0.0014925 -52.458 -2.9737 -0.18497 1.3759 1.9975 1758.6 -0.0072416 637.05 0.18383
-107.62 5084.0 undefined -51.081 1.2366 -0.17663 670.00 0.0014925 -51.081 1.2366 -0.17663 1.3783 1.9976 1761.0 -0.0072432 633.77 0.18407 670.00 0.0014925 -51.081 1.2366 -0.17663 1.3783 1.9976 1761.0 -0.0072432 633.77 0.18407
-106.62 5358.5 undefined -49.701 5.4416 -0.16832 670.00 0.0014925 -49.701 5.4416 -0.16832 1.3807 1.9977 1763.3 -0.0072448 630.53 0.18432 670.00 0.0014925 -49.701 5.4416 -0.16832 1.3807 1.9977 1763.3 -0.0072448 630.53 0.18432
-105.62 5632.4 undefined -48.320 9.6416 -0.16004 670.00 0.0014925 -48.320 9.6416 -0.16004 1.3830 1.9978 1765.7 -0.0072462 627.35 0.18456 670.00 0.0014925 -48.320 9.6416 -0.16004 1.3830 1.9978 1765.7 -0.0072462 627.35 0.18456
-104.62 5905.5 undefined -46.935 13.836 -0.15181 670.00 0.0014925 -46.935 13.836 -0.15181 1.3854 1.9980 1768.0 -0.0072474 624.23 0.18481 670.00 0.0014925 -46.935 13.836 -0.15181 1.3854 1.9980 1768.0 -0.0072474 624.23 0.18481
-103.62 6177.9 undefined -45.549 18.026 -0.14360 670.00 0.0014925 -45.549 18.026 -0.14360 1.3878 1.9982 1770.3 -0.0072485 621.15 0.18506 670.00 0.0014925 -45.549 18.026 -0.14360 1.3878 1.9982 1770.3 -0.0072485 621.15 0.18506
-102.62 6449.6 undefined -44.160 22.211 -0.13543 670.00 0.0014925 -44.160 22.211 -0.13543 1.3902 1.9985 1772.6 -0.0072494 618.13 0.18530 670.00 0.0014925 -44.160 22.211 -0.13543 1.3902 1.9985 1772.6 -0.0072494 618.13 0.18530
-101.62 6720.6 undefined -42.768 26.391 -0.12730 670.00 0.0014925 -42.768 26.391 -0.12730 1.3926 1.9988 1774.8 -0.0072502 615.15 0.18555 670.00 0.0014925 -42.768 26.391 -0.12730 1.3926 1.9988 1774.8 -0.0072502 615.15 0.18555
-100.62 6990.9 undefined -41.375 30.566 -0.11919 670.00 0.0014925 -41.375 30.566 -0.11919 1.3951 1.9991 1777.1 -0.0072509 612.23 0.18580 670.00 0.0014925 -41.375 30.566 -0.11919 1.3951 1.9991 1777.1 -0.0072509 612.23 0.18580
-99.625 7260.5 undefined -39.978 34.737 -0.11113 670.00 0.0014925 -39.978 34.737 -0.11113 1.3975 1.9995 1779.3 -0.0072514 609.35 0.18604 670.00 0.0014925 -39.978 34.737 -0.11113 1.3975 1.9995 1779.3 -0.0072514 609.35 0.18604
-98.625 7529.4 undefined -38.580 38.903 -0.10309 670.00 0.0014925 -38.580 38.903 -0.10309 1.4000 1.9998 1781.6 -0.0072517 606.51 0.18629 670.00 0.0014925 -38.580 38.903 -0.10309 1.4000 1.9998 1781.6 -0.0072517 606.51 0.18629
-97.625 7797.6 undefined -37.178 43.064 -0.095082 670.00 0.0014925 -37.178 43.064 -0.095082 1.4024 2.0003 1783.8 -0.0072520 603.72 0.18654 670.00 0.0014925 -37.178 43.064 -0.095082 1.4024 2.0003 1783.8 -0.0072520 603.72 0.18654
-96.625 8065.1 undefined -35.775 47.221 -0.087108 670.00 0.0014925 -35.775 47.221 -0.087108 1.4049 2.0007 1786.0 -0.0072520 600.98 0.18679 670.00 0.0014925 -35.775 47.221 -0.087108 1.4049 2.0007 1786.0 -0.0072520 600.98 0.18679
-95.625 8331.9 undefined -34.369 51.373 -0.079165 670.00 0.0014925 -34.369 51.373 -0.079165 1.4074 2.0012 1788.2 -0.0072520 598.28 0.18704 670.00 0.0014925 -34.369 51.373 -0.079165 1.4074 2.0012 1788.2 -0.0072520 598.28 0.18704
-94.625 8598.1 undefined -32.960 55.521 -0.071252 670.00 0.0014925 -32.960 55.521 -0.071252 1.4099 2.0017 1790.3 -0.0072518 595.62 0.18729 670.00 0.0014925 -32.960 55.521 -0.071252 1.4099 2.0017 1790.3 -0.0072518 595.62 0.18729
-93.625 8863.6 undefined -31.549 59.664 -0.063370 670.00 0.0014925 -31.549 59.664 -0.063370 1.4124 2.0023 1792.5 -0.0072514 593.00 0.18754 670.00 0.0014925 -31.549 59.664 -0.063370 1.4124 2.0023 1792.5 -0.0072514 593.00 0.18754
-92.625 9128.5 undefined -30.135 63.803 -0.055517 670.00 0.0014925 -30.135 63.803 -0.055517 1.4149 2.0029 1794.6 -0.0072509 590.42 0.18778 670.00 0.0014925 -30.135 63.803 -0.055517 1.4149 2.0029 1794.6 -0.0072509 590.42 0.18778
-91.625 9392.7 undefined -28.719 67.938 -0.047694 670.00 0.0014925 -28.719 67.938 -0.047694 1.4175 2.0035 1796.8 -0.0072503 587.89 0.18803 670.00 0.0014925 -28.719 67.938 -0.047694 1.4175 2.0035 1796.8 -0.0072503 587.89 0.18803
-90.625 9656.3 undefined -27.300 72.069 -0.039899 670.00 0.0014925 -27.300 72.069 -0.039899 1.4200 2.0041 1798.9 -0.0072495 585.39 0.18828 670.00 0.0014925 -27.300 72.069 -0.039899 1.4200 2.0041 1798.9 -0.0072495 585.39 0.18828
-89.625 9919.2 undefined -25.879 76.196 -0.032134 670.00 0.0014925 -25.879 76.196 -0.032134 1.4226 2.0048 1801.0 -0.0072486 582.93 0.18853 670.00 0.0014925 -25.879 76.196 -0.032134 1.4226 2.0048 1801.0 -0.0072486 582.93 0.18853
-88.625 10181. undefined -24.455 80.319 -0.024396 670.00 0.0014925 -24.455 80.319 -0.024396 1.4252 2.0055 1803.1 -0.0072476 580.51 0.18879 670.00 0.0014925 -24.455 80.319 -0.024396 1.4252 2.0055 1803.1 -0.0072476 580.51 0.18879
-87.625 10443. undefined -23.029 84.438 -0.016687 670.00 0.0014925 -23.029 84.438 -0.016687 1.4278 2.0063 1805.2 -0.0072464 578.12 0.18904 670.00 0.0014925 -23.029 84.438 -0.016687 1.4278 2.0063 1805.2 -0.0072464 578.12 0.18904
-86.625 10704. undefined -21.599 88.552 -0.0090044 670.00 0.0014925 -21.599 88.552 -0.0090044 1.4304 2.0071 1807.2 -0.0072451 575.78 0.18929 670.00 0.0014925 -21.599 88.552 -0.0090044 1.4304 2.0071 1807.2 -0.0072451 575.78 0.18929
-85.625 10964. undefined -20.168 92.664 -0.0013493 670.00 0.0014925 -20.168 92.664 -0.0013493 1.4330 2.0079 1809.3 -0.0072436 573.46 0.18954 670.00 0.0014925 -20.168 92.664 -0.0013493 1.4330 2.0079 1809.3 -0.0072436 573.46 0.18954
-84.625 11224. undefined -18.733 96.771 0.0062792 670.00 0.0014925 -18.733 96.771 0.0062792 1.4357 2.0087 1811.3 -0.0072421 571.19 0.18979 670.00 0.0014925 -18.733 96.771 0.0062792 1.4357 2.0087 1811.3 -0.0072421 571.19 0.18979
-83.625 11483. undefined -17.296 100.87 0.013881 670.00 0.0014925 -17.296 100.87 0.013881 1.4383 2.0096 1813.3 -0.0072403 568.94 0.19004 670.00 0.0014925 -17.296 100.87 0.013881 1.4383 2.0096 1813.3 -0.0072403 568.94 0.19004
-82.625 11742. undefined -15.857 104.97 0.021457 670.00 0.0014925 -15.857 104.97 0.021457 1.4410 2.0105 1815.3 -0.0072385 566.73 0.19030 670.00 0.0014925 -15.857 104.97 0.021457 1.4410 2.0105 1815.3 -0.0072385 566.73 0.19030
-81.625 12000. undefined -14.414 109.07 0.029008 670.00 0.0014925 -14.414 109.07 0.029008 1.4437 2.0114 1817.3 -0.0072365 564.55 0.19055 670.00 0.0014925 -14.414 109.07 0.029008 1.4437 2.0114 1817.3 -0.0072365 564.55 0.19055
-80.625 12257. undefined -12.969 113.16 0.036533 670.00 0.0014925 -12.969 113.16 0.036533 1.4464 2.0124 1819.3 -0.0072344 562.41 0.19080 670.00 0.0014925 -12.969 113.16 0.036533 1.4464 2.0124 1819.3 -0.0072344 562.41 0.19080
-79.625 12514. undefined -11.522 117.25 0.044033 670.00 0.0014925 -11.522 117.25 0.044033 1.4491 2.0134 1821.3 -0.0072322 560.30 0.19106 670.00 0.0014925 -11.522 117.25 0.044033 1.4491 2.0134 1821.3 -0.0072322 560.30 0.19106
-78.625 12770. undefined -10.071 121.34 0.051509 670.00 0.0014925 -10.071 121.34 0.051509 1.4518 2.0144 1823.2 -0.0072299 558.21 0.19131 670.00 0.0014925 -10.071 121.34 0.051509 1.4518 2.0144 1823.2 -0.0072299 558.21 0.19131
-77.625 13025. undefined -8.6180 125.42 0.058960 670.00 0.0014925 -8.6180 125.42 0.058960 1.4546 2.0155 1825.2 -0.0072274 556.16 0.19156 670.00 0.0014925 -8.6180 125.42 0.058960 1.4546 2.0155 1825.2 -0.0072274 556.16 0.19156
-76.625 13280. undefined -7.1621 129.50 0.066388 670.00 0.0014925 -7.1621 129.50 0.066388 1.4573 2.0166 1827.1 -0.0072248 554.14 0.19182 670.00 0.0014925 -7.1621 129.50 0.066388 1.4573 2.0166 1827.1 -0.0072248 554.14 0.19182
-75.625 13535. undefined -5.7034 133.58 0.073791 670.00 0.0014925 -5.7034 133.58 0.073791 1.4601 2.0177 1829.0 -0.0072220 552.15 0.19207 670.00 0.0014925 -5.7034 133.58 0.073791 1.4601 2.0177 1829.0 -0.0072220 552.15 0.19207
-74.625 13788. undefined -4.2418 137.65 0.081172 670.00 0.0014925 -4.2418 137.65 0.081172 1.4629 2.0189 1830.9 -0.0072192 550.18 0.19233 670.00 0.0014925 -4.2418 137.65 0.081172 1.4629 2.0189 1830.9 -0.0072192 550.18 0.19233
-73.625 14041. undefined -2.7775 141.72 0.088529 670.00 0.0014925 -2.7775 141.72 0.088529 1.4657 2.0201 1832.8 -0.0072162 548.24 0.19258 670.00 0.0014925 -2.7775 141.72 0.088529 1.4657 2.0201 1832.8 -0.0072162 548.24 0.19258
-72.625 14294. undefined -1.3104 145.78 0.095864 670.00 0.0014925 -1.3104 145.78 0.095864 1.4686 2.0213 1834.7 -0.0072131 546.34 0.19284 670.00 0.0014925 -1.3104 145.78 0.095864 1.4686 2.0213 1834.7 -0.0072131 546.34 0.19284
-71.625 14546. undefined 0.15959 149.85 0.10318 670.00 0.0014925 0.15959 149.85 0.10318 1.4714 2.0225 1836.6 -0.0072099 544.45 0.19309 670.00 0.0014925 0.15959 149.85 0.10318 1.4714 2.0225 1836.6 -0.0072099 544.45 0.19309
-70.625 14797. undefined 1.6324 153.91 0.11047 670.00 0.0014925 1.6324 153.91 0.11047 1.4743 2.0238 1838.4 -0.0072066 542.60 0.19335 670.00 0.0014925 1.6324 153.91 0.11047 1.4743 2.0238 1838.4 -0.0072066 542.60 0.19335
-69.625 15048. undefined 3.1081 157.97 0.11774 670.00 0.0014925 3.1081 157.97 0.11774 1.4771 2.0251 1840.3 -0.0072031 540.77 0.19360 670.00 0.0014925 3.1081 157.97 0.11774 1.4771 2.0251 1840.3 -0.0072031 540.77 0.19360
-68.625 15299. undefined 4.5867 162.02 0.12498 670.00 0.0014925 4.5867 162.02 0.12498 1.4800 2.0265 1842.1 -0.0071996 538.97 0.19386 670.00 0.0014925 4.5867 162.02 0.12498 1.4800 2.0265 1842.1 -0.0071996 538.97 0.19386
-67.625 15548. undefined 6.0682 166.07 0.13221 670.00 0.0014925 6.0682 166.07 0.13221 1.4829 2.0278 1843.9 -0.0071959 537.19 0.19412 670.00 0.0014925 6.0682 166.07 0.13221 1.4829 2.0278 1843.9 -0.0071959 537.19 0.19412
-66.625 15798. undefined 7.5526 170.12 0.13941 670.00 0.0014925 7.5526 170.12 0.13941 1.4859 2.0292 1845.7 -0.0071921 535.44 0.19437 670.00 0.0014925 7.5526 170.12 0.13941 1.4859 2.0292 1845.7 -0.0071921 535.44 0.19437
-65.625 16046. undefined 9.0400 174.17 0.14660 670.00 0.0014925 9.0400 174.17 0.14660 1.4888 2.0307 1847.5 -0.0071882 533.71 0.19463 670.00 0.0014925 9.0400 174.17 0.14660 1.4888 2.0307 1847.5 -0.0071882 533.71 0.19463
-64.625 16295. undefined 10.530 178.21 0.15376 670.00 0.0014925 10.530 178.21 0.15376 1.4918 2.0321 1849.3 -0.0071842 532.00 0.19489 670.00 0.0014925 10.530 178.21 0.15376 1.4918 2.0321 1849.3 -0.0071842 532.00 0.19489
-63.625 16542. undefined 12.024 182.25 0.16091 670.00 0.0014925 12.024 182.25 0.16091 1.4948 2.0336 1851.1 -0.0071801 530.32 0.19515 670.00 0.0014925 12.024 182.25 0.16091 1.4948 2.0336 1851.1 -0.0071801 530.32 0.19515
-62.625 16789. undefined 13.520 186.29 0.16803 670.00 0.0014925 13.520 186.29 0.16803 1.4978 2.0351 1852.8 -0.0071758 528.66 0.19541 670.00 0.0014925 13.520 186.29 0.16803 1.4978 2.0351 1852.8 -0.0071758 528.66 0.19541
-61.625 17036. undefined 15.019 190.33 0.17513 670.00 0.0014925 15.019 190.33 0.17513 1.5008 2.0367 1854.6 -0.0071715 527.03 0.19566 670.00 0.0014925 15.019 190.33 0.17513 1.5008 2.0367 1854.6 -0.0071715 527.03 0.19566
-60.625 17282. undefined 16.521 194.36 0.18222 670.00 0.0014925 16.521 194.36 0.18222 1.5038 2.0382 1856.3 -0.0071670 525.42 0.19592 670.00 0.0014925 16.521 194.36 0.18222 1.5038 2.0382 1856.3 -0.0071670 525.42 0.19592
-59.625 17527. undefined 18.027 198.39 0.18929 670.00 0.0014925 18.027 198.39 0.18929 1.5069 2.0398 1858.1 -0.0071624 523.82 0.19618 670.00 0.0014925 18.027 198.39 0.18929 1.5069 2.0398 1858.1 -0.0071624 523.82 0.19618
-58.625 17772. undefined 19.535 202.42 0.19633 670.00 0.0014925 19.535 202.42 0.19633 1.5099 2.0415 1859.8 -0.0071578 522.25 0.19644 670.00 0.0014925 19.535 202.42 0.19633 1.5099 2.0415 1859.8 -0.0071578 522.25 0.19644
-57.625 18016. undefined 21.047 206.45 0.20336 670.00 0.0014925 21.047 206.45 0.20336 1.5130 2.0431 1861.5 -0.0071530 520.71 0.19670 670.00 0.0014925 21.047 206.45 0.20336 1.5130 2.0431 1861.5 -0.0071530 520.71 0.19670
-56.625 18260. undefined 22.561 210.47 0.21037 670.00 0.0014925 22.561 210.47 0.21037 1.5161 2.0448 1863.2 -0.0071481 519.18 0.19696 670.00 0.0014925 22.561 210.47 0.21037 1.5161 2.0448 1863.2 -0.0071481 519.18 0.19696
-55.625 18504. undefined 24.079 214.49 0.21737 670.00 0.0014925 24.079 214.49 0.21737 1.5192 2.0465 1864.9 -0.0071431 517.67 0.19722 670.00 0.0014925 24.079 214.49 0.21737 1.5192 2.0465 1864.9 -0.0071431 517.67 0.19722
-54.625 18746. undefined 25.599 218.51 0.22434 670.00 0.0014925 25.599 218.51 0.22434 1.5223 2.0483 1866.5 -0.0071381 516.18 0.19748 670.00 0.0014925 25.599 218.51 0.22434 1.5223 2.0483 1866.5 -0.0071381 516.18 0.19748
-53.625 18989. undefined 27.123 222.53 0.23130 670.00 0.0014925 27.123 222.53 0.23130 1.5255 2.0501 1868.2 -0.0071329 514.71 0.19774 670.00 0.0014925 27.123 222.53 0.23130 1.5255 2.0501 1868.2 -0.0071329 514.71 0.19774
-52.625 19231. undefined 28.650 226.55 0.23824 670.00 0.0014925 28.650 226.55 0.23824 1.5287 2.0519 1869.9 -0.0071276 513.26 0.19801 670.00 0.0014925 28.650 226.55 0.23824 1.5287 2.0519 1869.9 -0.0071276 513.26 0.19801
-51.625 19472. undefined 30.181 230.56 0.24516 670.00 0.0014925 30.181 230.56 0.24516 1.5318 2.0537 1871.5 -0.0071222 511.83 0.19827 670.00 0.0014925 30.181 230.56 0.24516 1.5318 2.0537 1871.5 -0.0071222 511.83 0.19827
-50.625 19713. undefined 31.714 234.57 0.25207 670.00 0.0014925 31.714 234.57 0.25207 1.5350 2.0555 1873.1 -0.0071168 510.42 0.19853 670.00 0.0014925 31.714 234.57 0.25207 1.5350 2.0555 1873.1 -0.0071168 510.42 0.19853
-49.625 19953. undefined 33.251 238.58 0.25896 670.00 0.0014925 33.251 238.58 0.25896 1.5383 2.0574 1874.8 -0.0071112 509.03 0.19879 670.00 0.0014925 33.251 238.58 0.25896 1.5383 2.0574 1874.8 -0.0071112 509.03 0.19879
-48.625 20193. undefined 34.791 242.59 0.26583 670.00 0.0014925 34.791 242.59 0.26583 1.5415 2.0593 1876.4 -0.0071055 507.65 0.19905 670.00 0.0014925 34.791 242.59 0.26583 1.5415 2.0593 1876.4 -0.0071055 507.65 0.19905
-47.625 20432. undefined 36.334 246.60 0.27269 670.00 0.0014925 36.334 246.60 0.27269 1.5447 2.0613 1878.0 -0.0070998 506.30 0.19932 670.00 0.0014925 36.334 246.60 0.27269 1.5447 2.0613 1878.0 -0.0070998 506.30 0.19932
-46.625 20671. undefined 37.880 250.60 0.27953 670.00 0.0014925 37.880 250.60 0.27953 1.5480 2.0632 1879.6 -0.0070939 504.96 0.19958 670.00 0.0014925 37.880 250.60 0.27953 1.5480 2.0632 1879.6 -0.0070939 504.96 0.19958
-45.625 20909. undefined 39.430 254.60 0.28636 670.00 0.0014925 39.430 254.60 0.28636 1.5513 2.0652 1881.2 -0.0070880 503.63 0.19984 670.00 0.0014925 39.430 254.60 0.28636 1.5513 2.0652 1881.2 -0.0070880 503.63 0.19984
-44.625 21147. undefined 40.983 258.60 0.29317 670.00 0.0014925 40.983 258.60 0.29317 1.5546 2.0672 1882.7 -0.0070820 502.33 0.20011 670.00 0.0014925 40.983 258.60 0.29317 1.5546 2.0672 1882.7 -0.0070820 502.33 0.20011
-43.625 21385. undefined 42.539 262.60 0.29997 670.00 0.0014925 42.539 262.60 0.29997 1.5579 2.0693 1884.3 -0.0070759 501.04 0.20037 670.00 0.0014925 42.539 262.60 0.29997 1.5579 2.0693 1884.3 -0.0070759 501.04 0.20037
-42.625 21622. undefined 44.099 266.60 0.30675 670.00 0.0014925 44.099 266.60 0.30675 1.5612 2.0713 1885.9 -0.0070697 499.77 0.20063 670.00 0.0014925 44.099 266.60 0.30675 1.5612 2.0713 1885.9 -0.0070697 499.77 0.20063
-41.625 21858. undefined 45.661 270.60 0.31351 670.00 0.0014925 45.661 270.60 0.31351 1.5646 2.0734 1887.4 -0.0070634 498.51 0.20090 670.00 0.0014925 45.661 270.60 0.31351 1.5646 2.0734 1887.4 -0.0070634 498.51 0.20090
-40.625 22094. undefined 47.228 274.59 0.32026 670.00 0.0014925 47.228 274.59 0.32026 1.5680 2.0755 1889.0 -0.0070570 497.27 0.20116 670.00 0.0014925 47.228 274.59 0.32026 1.5680 2.0755 1889.0 -0.0070570 497.27 0.20116
-39.625 22329. undefined 48.797 278.58 0.32700 670.00 0.0014925 48.797 278.58 0.32700 1.5713 2.0777 1890.5 -0.0070506 496.04 0.20143 670.00 0.0014925 48.797 278.58 0.32700 1.5713 2.0777 1890.5 -0.0070506 496.04 0.20143
-38.625 22564. undefined 50.370 282.57 0.33372 670.00 0.0014925 50.370 282.57 0.33372 1.5747 2.0799 1892.0 -0.0070441 494.83 0.20169 670.00 0.0014925 50.370 282.57 0.33372 1.5747 2.0799 1892.0 -0.0070441 494.83 0.20169
-37.625 22799. undefined 51.947 286.56 0.34043 670.00 0.0014925 51.947 286.56 0.34043 1.5781 2.0821 1893.5 -0.0070374 493.64 0.20196 670.00 0.0014925 51.947 286.56 0.34043 1.5781 2.0821 1893.5 -0.0070374 493.64 0.20196
-36.625 23033. undefined 53.527 290.55 0.34712 670.00 0.0014925 53.527 290.55 0.34712 1.5816 2.0843 1895.1 -0.0070308 492.46 0.20222 670.00 0.0014925 53.527 290.55 0.34712 1.5816 2.0843 1895.1 -0.0070308 492.46 0.20222
-35.625 23267. undefined 55.110 294.54 0.35380 670.00 0.0014925 55.110 294.54 0.35380 1.5850 2.0865 1896.6 -0.0070240 491.29 0.20249 670.00 0.0014925 55.110 294.54 0.35380 1.5850 2.0865 1896.6 -0.0070240 491.29 0.20249
-34.625 23500. undefined 56.697 298.53 0.36047 670.00 0.0014925 56.697 298.53 0.36047 1.5885 2.0888 1898.1 -0.0070171 490.14 0.20276 670.00 0.0014925 56.697 298.53 0.36047 1.5885 2.0888 1898.1 -0.0070171 490.14 0.20276
-33.625 23733. undefined 58.287 302.51 0.36712 670.00 0.0014925 58.287 302.51 0.36712 1.5919 2.0911 1899.5 -0.0070102 489.00 0.20302 670.00 0.0014925 58.287 302.51 0.36712 1.5919 2.0911 1899.5 -0.0070102 489.00 0.20302
-32.625 23965. undefined 59.881 306.50 0.37376 670.00 0.0014925 59.881 306.50 0.37376 1.5954 2.0934 1901.0 -0.0070032 487.88 0.20329 670.00 0.0014925 59.881 306.50 0.37376 1.5954 2.0934 1901.0 -0.0070032 487.88 0.20329
-31.625 24197. undefined 61.478 310.48 0.38038 670.00 0.0014925 61.478 310.48 0.38038 1.5989 2.0957 1902.5 -0.0069962 486.77 0.20356 670.00 0.0014925 61.478 310.48 0.38038 1.5989 2.0957 1902.5 -0.0069962 486.77 0.20356
-30.625 24428. undefined 63.079 314.46 0.38700 670.00 0.0014925 63.079 314.46 0.38700 1.6025 2.0981 1904.0 -0.0069890 485.67 0.20383 670.00 0.0014925 63.079 314.46 0.38700 1.6025 2.0981 1904.0 -0.0069890 485.67 0.20383
-29.625 24659. undefined 64.683 318.44 0.39360 670.00 0.0014925 64.683 318.44 0.39360 1.6060 2.1005 1905.4 -0.0069818 484.59 0.20409 670.00 0.0014925 64.683 318.44 0.39360 1.6060 2.1005 1905.4 -0.0069818 484.59 0.20409
-28.625 24890. undefined 66.290 322.42 0.40019 670.00 0.0014925 66.290 322.42 0.40019 1.6095 2.1029 1906.9 -0.0069746 483.52 0.20436 670.00 0.0014925 66.290 322.42 0.40019 1.6095 2.1029 1906.9 -0.0069746 483.52 0.20436
-27.625 25120. undefined 67.902 326.40 0.40676 670.00 0.0014925 67.902 326.40 0.40676 1.6131 2.1053 1908.3 -0.0069672 482.46 0.20463 670.00 0.0014925 67.902 326.40 0.40676 1.6131 2.1053 1908.3 -0.0069672 482.46 0.20463
-26.625 25349. undefined 69.517 330.38 0.41333 670.00 0.0014925 69.517 330.38 0.41333 1.6167 2.1078 1909.7 -0.0069598 481.42 0.20490 670.00 0.0014925 69.517 330.38 0.41333 1.6167 2.1078 1909.7 -0.0069598 481.42 0.20490
-25.625 25578. undefined 71.135 334.35 0.41988 670.00 0.0014925 71.135 334.35 0.41988 1.6203 2.1103 1911.2 -0.0069524 480.38 0.20517 670.00 0.0014925 71.135 334.35 0.41988 1.6203 2.1103 1911.2 -0.0069524 480.38 0.20517
-24.625 25807. undefined 72.757 338.33 0.42642 670.00 0.0014925 72.757 338.33 0.42642 1.6239 2.1127 1912.6 -0.0069448 479.36 0.20544 670.00 0.0014925 72.757 338.33 0.42642 1.6239 2.1127 1912.6 -0.0069448 479.36 0.20544
-23.625 26035. undefined 74.383 342.31 0.43295 670.00 0.0014925 74.383 342.31 0.43295 1.6275 2.1153 1914.0 -0.0069372 478.35 0.20571 670.00 0.0014925 74.383 342.31 0.43295 1.6275 2.1153 1914.0 -0.0069372 478.35 0.20571
-22.625 26263. undefined 76.012 346.28 0.43946 670.00 0.0014925 76.012 346.28 0.43946 1.6311 2.1178 1915.4 -0.0069296 477.36 0.20598 670.00 0.0014925 76.012 346.28 0.43946 1.6311 2.1178 1915.4 -0.0069296 477.36 0.20598
-21.625 26491. undefined 77.645 350.25 0.44597 670.00 0.0014925 77.645 350.25 0.44597 1.6348 2.1204 1916.8 -0.0069219 476.37 0.20625 670.00 0.0014925 77.645 350.25 0.44597 1.6348 2.1204 1916.8 -0.0069219 476.37 0.20625
-20.625 26718. undefined 79.282 354.23 0.45246 670.00 0.0014925 79.282 354.23 0.45246 1.6384 2.1230 1918.2 -0.0069141 475.40 0.20652 670.00 0.0014925 79.282 354.23 0.45246 1.6384 2.1230 1918.2 -0.0069141 475.40 0.20652
-19.625 26944. undefined 80.922 358.20 0.45895 670.00 0.0014925 80.922 358.20 0.45895 1.6421 2.1256 1919.6 -0.0069063 474.44 0.20679 670.00 0.0014925 80.922 358.20 0.45895 1.6421 2.1256 1919.6 -0.0069063 474.44 0.20679
-18.625 27171. undefined 82.566 362.17 0.46542 670.00 0.0014925 82.566 362.17 0.46542 1.6458 2.1282 1921.0 -0.0068984 473.49 0.20706 670.00 0.0014925 82.566 362.17 0.46542 1.6458 2.1282 1921.0 -0.0068984 473.49 0.20706
-17.625 27396. undefined 84.214 366.14 0.47188 670.00 0.0014925 84.214 366.14 0.47188 1.6495 2.1308 1922.4 -0.0068904 472.55 0.20733 670.00 0.0014925 84.214 366.14 0.47188 1.6495 2.1308 1922.4 -0.0068904 472.55 0.20733
-16.625 27622. undefined 85.865 370.11 0.47833 670.00 0.0014925 85.865 370.11 0.47833 1.6532 2.1335 1923.7 -0.0068824 471.62 0.20760 670.00 0.0014925 85.865 370.11 0.47833 1.6532 2.1335 1923.7 -0.0068824 471.62 0.20760
-15.625 27847. undefined 87.520 374.08 0.48477 670.00 0.0014925 87.520 374.08 0.48477 1.6569 2.1362 1925.1 -0.0068744 470.70 0.20788 670.00 0.0014925 87.520 374.08 0.48477 1.6569 2.1362 1925.1 -0.0068744 470.70 0.20788
-14.625 28071. undefined 89.179 378.05 0.49120 670.00 0.0014925 89.179 378.05 0.49120 1.6607 2.1389 1926.5 -0.0068663 469.79 0.20815 670.00 0.0014925 89.179 378.05 0.49120 1.6607 2.1389 1926.5 -0.0068663 469.79 0.20815
-13.625 28296. undefined 90.842 382.02 0.49762 670.00 0.0014925 90.842 382.02 0.49762 1.6644 2.1416 1927.8 -0.0068581 468.89 0.20842 670.00 0.0014925 90.842 382.02 0.49762 1.6644 2.1416 1927.8 -0.0068581 468.89 0.20842
-12.625 28519. undefined 92.508 385.99 0.50402 670.00 0.0014925 92.508 385.99 0.50402 1.6682 2.1444 1929.2 -0.0068499 468.01 0.20869 670.00 0.0014925 92.508 385.99 0.50402 1.6682 2.1444 1929.2 -0.0068499 468.01 0.20869
-11.625 28743. undefined 94.178 389.96 0.51042 670.00 0.0014925 94.178 389.96 0.51042 1.6720 2.1472 1930.5 -0.0068417 467.13 0.20897 670.00 0.0014925 94.178 389.96 0.51042 1.6720 2.1472 1930.5 -0.0068417 467.13 0.20897
-10.625 28966. undefined 95.852 393.93 0.51681 670.00 0.0014925 95.852 393.93 0.51681 1.6758 2.1499 1931.9 -0.0068334 466.26 0.20924 670.00 0.0014925 95.852 393.93 0.51681 1.6758 2.1499 1931.9 -0.0068334 466.26 0.20924
-9.6250 29188. undefined 97.529 397.89 0.52319 670.00 0.0014925 97.529 397.89 0.52319 1.6796 2.1527 1933.2 -0.0068251 465.41 0.20951 670.00 0.0014925 97.529 397.89 0.52319 1.6796 2.1527 1933.2 -0.0068251 465.41 0.20951
-8.6250 29410. undefined 99.211 401.86 0.52956 670.00 0.0014925 99.211 401.86 0.52956 1.6834 2.1556 1934.5 -0.0068167 464.56 0.20979 670.00 0.0014925 99.211 401.86 0.52956 1.6834 2.1556 1934.5 -0.0068167 464.56 0.20979
-7.6250 29632. undefined 100.90 405.83 0.53592 670.00 0.0014925 100.90 405.83 0.53592 1.6872 2.1584 1935.8 -0.0068083 463.72 0.21006 670.00 0.0014925 100.90 405.83 0.53592 1.6872 2.1584 1935.8 -0.0068083 463.72 0.21006
-6.6250 29853. undefined 102.59 409.80 0.54227 670.00 0.0014925 102.59 409.80 0.54227 1.6910 2.1613 1937.2 -0.0067998 462.89 0.21034 670.00 0.0014925 102.59 409.80 0.54227 1.6910 2.1613 1937.2 -0.0067998 462.89 0.21034
-5.6250 30074. undefined 104.28 413.76 0.54861 670.00 0.0014925 104.28 413.76 0.54861 1.6949 2.1641 1938.5 -0.0067913 462.07 0.21061 670.00 0.0014925 104.28 413.76 0.54861 1.6949 2.1641 1938.5 -0.0067913 462.07 0.21061
-4.6250 30295. undefined 105.97 417.73 0.55494 670.00 0.0014925 105.97 417.73 0.55494 1.6987 2.1670 1939.8 -0.0067827 461.26 0.21089 670.00 0.0014925 105.97 417.73 0.55494 1.6987 2.1670 1939.8 -0.0067827 461.26 0.21089
-3.6250 30515. undefined 107.68 421.70 0.56126 670.00 0.0014925 107.68 421.70 0.56126 1.7026 2.1700 1941.1 -0.0067742 460.46 0.21116 670.00 0.0014925 107.68 421.70 0.56126 1.7026 2.1700 1941.1 -0.0067742 460.46 0.21116
-2.6250 30735. undefined 109.38 425.66 0.56757 670.00 0.0014925 109.38 425.66 0.56757 1.7065 2.1729 1942.4 -0.0067655 459.66 0.21144 670.00 0.0014925 109.38 425.66 0.56757 1.7065 2.1729 1942.4 -0.0067655 459.66 0.21144
-1.6250 30954. undefined 111.09 429.63 0.57387 670.00 0.0014925 111.09 429.63 0.57387 1.7103 2.1758 1943.7 -0.0067569 458.88 0.21171 670.00 0.0014925 111.09 429.63 0.57387 1.7103 2.1758 1943.7 -0.0067569 458.88 0.21171
-0.62500 31174. undefined 112.80 433.60 0.58017 670.00 0.0014925 112.80 433.60 0.58017 1.7142 2.1788 1945.0 -0.0067482 458.10 0.21199 670.00 0.0014925 112.80 433.60 0.58017 1.7142 2.1788 1945.0 -0.0067482 458.10 0.21199
0.37500 31392. undefined 114.52 437.56 0.58645 670.00 0.0014925 114.52 437.56 0.58645 1.7181 2.1818 1946.2 -0.0067395 457.34 0.21227 670.00 0.0014925 114.52 437.56 0.58645 1.7181 2.1818 1946.2 -0.0067395 457.34 0.21227
1.3750 31611. undefined 116.24 441.53 0.59273 670.00 0.0014925 116.24 441.53 0.59273 1.7221 2.1848 1947.5 -0.0067307 456.58 0.21254 670.00 0.0014925 116.24 441.53 0.59273 1.7221 2.1848 1947.5 -0.0067307 456.58 0.21254
2.3750 31828. undefined 117.96 445.50 0.59900 670.00 0.0014925 117.96 445.50 0.59900 1.7260 2.1878 1948.8 -0.0067219 455.83 0.21282 670.00 0.0014925 117.96 445.50 0.59900 1.7260 2.1878 1948.8 -0.0067219 455.83 0.21282
3.3750 32046. undefined 119.69 449.46 0.60526 670.00 0.0014925 119.69 449.46 0.60526 1.7299 2.1908 1950.1 -0.0067131 455.08 0.21310 670.00 0.0014925 119.69 449.46 0.60526 1.7299 2.1908 1950.1 -0.0067131 455.08 0.21310
4.3750 32263. undefined 121.42 453.43 0.61151 670.00 0.0014925 121.42 453.43 0.61151 1.7339 2.1939 1951.3 -0.0067043 454.35 0.21338 670.00 0.0014925 121.42 453.43 0.61151 1.7339 2.1939 1951.3 -0.0067043 454.35 0.21338
5.3750 32480. undefined 123.16 457.40 0.61776 670.00 0.0014925 123.16 457.40 0.61776 1.7378 2.1969 1952.6 -0.0066954 453.62 0.21366 670.00 0.0014925 123.16 457.40 0.61776 1.7378 2.1969 1952.6 -0.0066954 453.62 0.21366
6.3750 32697. undefined 124.90 461.37 0.62399 670.00 0.0014925 124.90 461.37 0.62399 1.7418 2.2000 1953.9 -0.0066865 452.90 0.21393 670.00 0.0014925 124.90 461.37 0.62399 1.7418 2.2000 1953.9 -0.0066865 452.90 0.21393
7.3750 32913. undefined 126.64 465.33 0.63022 670.00 0.0014925 126.64 465.33 0.63022 1.7458 2.2031 1955.1 -0.0066775 452.19 0.21421 670.00 0.0014925 126.64 465.33 0.63022 1.7458 2.2031 1955.1 -0.0066775 452.19 0.21421
8.3750 33128. undefined 128.39 469.30 0.63644 670.00 0.0014925 128.39 469.30 0.63644 1.7497 2.2062 1956.4 -0.0066686 451.49 0.21449 670.00 0.0014925 128.39 469.30 0.63644 1.7497 2.2062 1956.4 -0.0066686 451.49 0.21449
9.3750 33344. undefined 130.14 473.27 0.64265 670.00 0.0014925 130.14 473.27 0.64265 1.7537 2.2093 1957.6 -0.0066596 450.79 0.21477 670.00 0.0014925 130.14 473.27 0.64265 1.7537 2.2093 1957.6 -0.0066596 450.79 0.21477
10.375 33559. undefined 131.90 477.24 0.64885 670.00 0.0014925 131.90 477.24 0.64885 1.7577 2.2124 1958.9 -0.0066506 450.10 0.21505 670.00 0.0014925 131.90 477.24 0.64885 1.7577 2.2124 1958.9 -0.0066506 450.10 0.21505
11.375 33774. undefined 133.66 481.21 0.65505 670.00 0.0014925 133.66 481.21 0.65505 1.7617 2.2156 1960.1 -0.0066416 449.42 0.21533 670.00 0.0014925 133.66 481.21 0.65505 1.7617 2.2156 1960.1 -0.0066416 449.42 0.21533
12.375 33988. undefined 135.42 485.18 0.66124 670.00 0.0014925 135.42 485.18 0.66124 1.7658 2.2187 1961.3 -0.0066325 448.74 0.21561 670.00 0.0014925 135.42 485.18 0.66124 1.7658 2.2187 1961.3 -0.0066325 448.74 0.21561
13.375 34202. undefined 137.19 489.15 0.66742 670.00 0.0014925 137.19 489.15 0.66742 1.7698 2.2219 1962.6 -0.0066234 448.08 0.21589 670.00 0.0014925 137.19 489.15 0.66742 1.7698 2.2219 1962.6 -0.0066234 448.08 0.21589
14.375 34416. undefined 138.96 493.12 0.67359 670.00 0.0014925 138.96 493.12 0.67359 1.7738 2.2251 1963.8 -0.0066144 447.42 0.21617 670.00 0.0014925 138.96 493.12 0.67359 1.7738 2.2251 1963.8 -0.0066144 447.42 0.21617
15.375 34629. undefined 140.73 497.09 0.67975 670.00 0.0014925 140.73 497.09 0.67975 1.7779 2.2283 1965.0 -0.0066052 446.76 0.21645 670.00 0.0014925 140.73 497.09 0.67975 1.7779 2.2283 1965.0 -0.0066052 446.76 0.21645
16.375 34842. undefined 142.51 501.06 0.68591 670.00 0.0014925 142.51 501.06 0.68591 1.7819 2.2315 1966.2 -0.0065961 446.11 0.21673 670.00 0.0014925 142.51 501.06 0.68591 1.7819 2.2315 1966.2 -0.0065961 446.11 0.21673
17.375 35054. undefined 144.30 505.03 0.69206 670.00 0.0014925 144.30 505.03 0.69206 1.7860 2.2348 1967.4 -0.0065870 445.47 0.21702 670.00 0.0014925 144.30 505.03 0.69206 1.7860 2.2348 1967.4 -0.0065870 445.47 0.21702
18.375 35267. undefined 146.09 509.00 0.69821 670.00 0.0014925 146.09 509.00 0.69821 1.7900 2.2380 1968.7 -0.0065778 444.84 0.21730 670.00 0.0014925 146.09 509.00 0.69821 1.7900 2.2380 1968.7 -0.0065778 444.84 0.21730
19.375 35479. undefined 147.88 512.98 0.70434 670.00 0.0014925 147.88 512.98 0.70434 1.7941 2.2413 1969.9 -0.0065686 444.21 0.21758 670.00 0.0014925 147.88 512.98 0.70434 1.7941 2.2413 1969.9 -0.0065686 444.21 0.21758
20.375 35690. undefined 149.67 516.95 0.71047 670.00 0.0014925 149.67 516.95 0.71047 1.7982 2.2445 1971.1 -0.0065594 443.59 0.21786 670.00 0.0014925 149.67 516.95 0.71047 1.7982 2.2445 1971.1 -0.0065594 443.59 0.21786
21.375 35901. undefined 151.47 520.92 0.71660 670.00 0.0014925 151.47 520.92 0.71660 1.8022 2.2478 1972.3 -0.0065502 442.98 0.21815 670.00 0.0014925 151.47 520.92 0.71660 1.8022 2.2478 1972.3 -0.0065502 442.98 0.21815
22.375 36112. undefined 153.28 524.90 0.72271 670.00 0.0014925 153.28 524.90 0.72271 1.8063 2.2511 1973.5 -0.0065410 442.37 0.21843 670.00 0.0014925 153.28 524.90 0.72271 1.8063 2.2511 1973.5 -0.0065410 442.37 0.21843
23.375 36323. undefined 155.09 528.87 0.72882 670.00 0.0014925 155.09 528.87 0.72882 1.8104 2.2544 1974.7 -0.0065318 441.77 0.21871 670.00 0.0014925 155.09 528.87 0.72882 1.8104 2.2544 1974.7 -0.0065318 441.77 0.21871
24.375 36533. undefined 156.90 532.85 0.73492 670.00 0.0014925 156.90 532.85 0.73492 1.8145 2.2577 1975.9 -0.0065225 441.17 0.21900 670.00 0.0014925 156.90 532.85 0.73492 1.8145 2.2577 1975.9 -0.0065225 441.17 0.21900
25.375 36743. undefined 158.72 536.83 0.74102 670.00 0.0014925 158.72 536.83 0.74102 1.8186 2.2610 1977.1 -0.0065133 440.58 0.21928 670.00 0.0014925 158.72 536.83 0.74102 1.8186 2.2610 1977.1 -0.0065133 440.58 0.21928
26.375 36953. undefined 160.54 540.80 0.74711 670.00 0.0014925 160.54 540.80 0.74711 1.8228 2.2644 1978.2 -0.0065040 440.00 0.21956 670.00 0.0014925 160.54 540.80 0.74711 1.8228 2.2644 1978.2 -0.0065040 440.00 0.21956
27.375 37162. undefined 162.36 544.78 0.75319 670.00 0.0014925 162.36 544.78 0.75319 1.8269 2.2677 1979.4 -0.0064947 439.42 0.21985 670.00 0.0014925 162.36 544.78 0.75319 1.8269 2.2677 1979.4 -0.0064947 439.42 0.21985
28.375 37371. undefined 164.19 548.76 0.75927 670.00 0.0014925 164.19 548.76 0.75927 1.8310 2.2711 1980.6 -0.0064855 438.84 0.22013 670.00 0.0014925 164.19 548.76 0.75927 1.8310 2.2711 1980.6 -0.0064855 438.84 0.22013
29.375 37579. undefined 166.02 552.74 0.76533 670.00 0.0014925 166.02 552.74 0.76533 1.8351 2.2745 1981.8 -0.0064762 438.28 0.22042 670.00 0.0014925 166.02 552.74 0.76533 1.8351 2.2745 1981.8 -0.0064762 438.28 0.22042
30.375 37788. undefined 167.86 556.72 0.77140 670.00 0.0014925 167.86 556.72 0.77140 1.8393 2.2778 1983.0 -0.0064669 437.72 0.22070 670.00 0.0014925 167.86 556.72 0.77140 1.8393 2.2778 1983.0 -0.0064669 437.72 0.22070
31.375 37996. undefined 169.70 560.70 0.77745 670.00 0.0014925 169.70 560.70 0.77745 1.8434 2.2812 1984.1 -0.0064576 437.16 0.22099 670.00 0.0014925 169.70 560.70 0.77745 1.8434 2.2812 1984.1 -0.0064576 437.16 0.22099
32.375 38203. undefined 171.55 564.69 0.78350 670.00 0.0014925 171.55 564.69 0.78350 1.8476 2.2846 1985.3 -0.0064483 436.61 0.22128 670.00 0.0014925 171.55 564.69 0.78350 1.8476 2.2846 1985.3 -0.0064483 436.61 0.22128
33.375 38411. undefined 173.40 568.67 0.78955 670.00 0.0014925 173.40 568.67 0.78955 1.8517 2.2880 1986.5 -0.0064390 436.07 0.22156 670.00 0.0014925 173.40 568.67 0.78955 1.8517 2.2880 1986.5 -0.0064390 436.07 0.22156
34.375 38618. undefined 175.25 572.65 0.79559 670.00 0.0014925 175.25 572.65 0.79559 1.8559 2.2915 1987.6 -0.0064296 435.53 0.22185 670.00 0.0014925 175.25 572.65 0.79559 1.8559 2.2915 1987.6 -0.0064296 435.53 0.22185
35.375 38824. undefined 177.11 576.64 0.80162 670.00 0.0014925 177.11 576.64 0.80162 1.8600 2.2949 1988.8 -0.0064203 434.99 0.22214 670.00 0.0014925 177.11 576.64 0.80162 1.8600 2.2949 1988.8 -0.0064203 434.99 0.22214
36.375 39031. undefined 178.97 580.63 0.80764 670.00 0.0014925 178.97 580.63 0.80764 1.8642 2.2983 1989.9 -0.0064110 434.46 0.22242 670.00 0.0014925 178.97 580.63 0.80764 1.8642 2.2983 1989.9 -0.0064110 434.46 0.22242
37.375 39237. undefined 180.84 584.61 0.81366 670.00 0.0014925 180.84 584.61 0.81366 1.8684 2.3018 1991.1 -0.0064017 433.94 0.22271 670.00 0.0014925 180.84 584.61 0.81366 1.8684 2.3018 1991.1 -0.0064017 433.94 0.22271
38.375 39443. undefined 182.71 588.60 0.81968 670.00 0.0014925 182.71 588.60 0.81968 1.8726 2.3052 1992.2 -0.0063924 433.42 0.22300 670.00 0.0014925 182.71 588.60 0.81968 1.8726 2.3052 1992.2 -0.0063924 433.42 0.22300
39.375 39648. undefined 184.58 592.59 0.82569 670.00 0.0014925 184.58 592.59 0.82569 1.8767 2.3087 1993.4 -0.0063830 432.91 0.22329 670.00 0.0014925 184.58 592.59 0.82569 1.8767 2.3087 1993.4 -0.0063830 432.91 0.22329
40.375 39853. undefined 186.46 596.58 0.83169 670.00 0.0014925 186.46 596.58 0.83169 1.8809 2.3122 1994.5 -0.0063737 432.40 0.22357 670.00 0.0014925 186.46 596.58 0.83169 1.8809 2.3122 1994.5 -0.0063737 432.40 0.22357
41.375 40058. undefined 188.34 600.57 0.83768 670.00 0.0014925 188.34 600.57 0.83768 1.8851 2.3157 1995.7 -0.0063644 431.89 0.22386 670.00 0.0014925 188.34 600.57 0.83768 1.8851 2.3157 1995.7 -0.0063644 431.89 0.22386
42.375 40263. undefined 190.23 604.56 0.84367 670.00 0.0014925 190.23 604.56 0.84367 1.8893 2.3192 1996.8 -0.0063550 431.40 0.22415 670.00 0.0014925 190.23 604.56 0.84367 1.8893 2.3192 1996.8 -0.0063550 431.40 0.22415
43.375 40467. undefined 192.12 608.56 0.84966 670.00 0.0014925 192.12 608.56 0.84966 1.8935 2.3227 1998.0 -0.0063457 430.90 0.22444 670.00 0.0014925 192.12 608.56 0.84966 1.8935 2.3227 1998.0 -0.0063457 430.90 0.22444
44.375 40671. undefined 194.02 612.55 0.85564 670.00 0.0014925 194.02 612.55 0.85564 1.8977 2.3262 1999.1 -0.0063364 430.41 0.22473 670.00 0.0014925 194.02 612.55 0.85564 1.8977 2.3262 1999.1 -0.0063364 430.41 0.22473
45.375 40875. undefined 195.92 616.55 0.86161 670.00 0.0014925 195.92 616.55 0.86161 1.9019 2.3297 2000.2 -0.0063271 429.93 0.22502 670.00 0.0014925 195.92 616.55 0.86161 1.9019 2.3297 2000.2 -0.0063271 429.93 0.22502
46.375 41078. undefined 197.82 620.54 0.86758 670.00 0.0014925 197.82 620.54 0.86758 1.9061 2.3332 2001.4 -0.0063178 429.45 0.22531 670.00 0.0014925 197.82 620.54 0.86758 1.9061 2.3332 2001.4 -0.0063178 429.45 0.22531
47.375 41281. undefined 199.73 624.54 0.87354 670.00 0.0014925 199.73 624.54 0.87354 1.9104 2.3367 2002.5 -0.0063085 428.97 0.22560 670.00 0.0014925 199.73 624.54 0.87354 1.9104 2.3367 2002.5 -0.0063085 428.97 0.22560
48.375 41484. undefined 201.64 628.54 0.87950 670.00 0.0014925 201.64 628.54 0.87950 1.9146 2.3403 2003.6 -0.0062992 428.50 0.22589 670.00 0.0014925 201.64 628.54 0.87950 1.9146 2.3403 2003.6 -0.0062992 428.50 0.22589
49.375 41686. undefined 203.56 632.54 0.88545 670.00 0.0014925 203.56 632.54 0.88545 1.9188 2.3438 2004.7 -0.0062899 428.03 0.22618 670.00 0.0014925 203.56 632.54 0.88545 1.9188 2.3438 2004.7 -0.0062899 428.03 0.22618
50.375 41889. undefined 205.48 636.54 0.89140 670.00 0.0014925 205.48 636.54 0.89140 1.9230 2.3474 2005.9 -0.0062806 427.57 0.22647 670.00 0.0014925 205.48 636.54 0.89140 1.9230 2.3474 2005.9 -0.0062806 427.57 0.22647
51.375 42091. undefined 207.41 640.55 0.89734 670.00 0.0014925 207.41 640.55 0.89734 1.9272 2.3509 2007.0 -0.0062713 427.11 0.22677 670.00 0.0014925 207.41 640.55 0.89734 1.9272 2.3509 2007.0 -0.0062713 427.11 0.22677
52.375 42292. undefined 209.34 644.55 0.90328 670.00 0.0014925 209.34 644.55 0.90328 1.9315 2.3545 2008.1 -0.0062620 426.66 0.22706 670.00 0.0014925 209.34 644.55 0.90328 1.9315 2.3545 2008.1 -0.0062620 426.66 0.22706
53.375 42494. undefined 211.27 648.56 0.90921 670.00 0.0014925 211.27 648.56 0.90921 1.9357 2.3581 2009.2 -0.0062527 426.21 0.22735 670.00 0.0014925 211.27 648.56 0.90921 1.9357 2.3581 2009.2 -0.0062527 426.21 0.22735
54.375 42695. undefined 213.21 652.56 0.91513 670.00 0.0014925 213.21 652.56 0.91513 1.9399 2.3617 2010.3 -0.0062434 425.77 0.22764 670.00 0.0014925 213.21 652.56 0.91513 1.9399 2.3617 2010.3 -0.0062434 425.77 0.22764
55.375 42895. undefined 215.15 656.57 0.92105 670.00 0.0014925 215.15 656.57 0.92105 1.9442 2.3653 2011.4 -0.0062342 425.32 0.22794 670.00 0.0014925 215.15 656.57 0.92105 1.9442 2.3653 2011.4 -0.0062342 425.32 0.22794
56.375 43096. undefined 217.10 660.58 0.92697 670.00 0.0014925 217.10 660.58 0.92697 1.9484 2.3688 2012.5 -0.0062249 424.89 0.22823 670.00 0.0014925 217.10 660.58 0.92697 1.9484 2.3688 2012.5 -0.0062249 424.89 0.22823
57.375 43296. undefined 219.05 664.59 0.93288 670.00 0.0014925 219.05 664.59 0.93288 1.9527 2.3724 2013.6 -0.0062157 424.45 0.22852 670.00 0.0014925 219.05 664.59 0.93288 1.9527 2.3724 2013.6 -0.0062157 424.45 0.22852
58.375 43496. undefined 221.00 668.60 0.93879 670.00 0.0014925 221.00 668.60 0.93879 1.9569 2.3761 2014.7 -0.0062064 424.03 0.22882 670.00 0.0014925 221.00 668.60 0.93879 1.9569 2.3761 2014.7 -0.0062064 424.03 0.22882
59.375 43696. undefined 222.96 672.62 0.94469 670.00 0.0014925 222.96 672.62 0.94469 1.9612 2.3797 2015.8 -0.0061972 423.60 0.22911 670.00 0.0014925 222.96 672.62 0.94469 1.9612 2.3797 2015.8 -0.0061972 423.60 0.22911
60.375 43895. undefined 224.92 676.63 0.95058 670.00 0.0014925 224.92 676.63 0.95058 1.9654 2.3833 2016.9 -0.0061880 423.18 0.22940 670.00 0.0014925 224.92 676.63 0.95058 1.9654 2.3833 2016.9 -0.0061880 423.18 0.22940
61.375 44094. undefined 226.89 680.65 0.95647 670.00 0.0014925 226.89 680.65 0.95647 1.9697 2.3869 2018.0 -0.0061788 422.76 0.22970 670.00 0.0014925 226.89 680.65 0.95647 1.9697 2.3869 2018.0 -0.0061788 422.76 0.22970
62.375 44293. undefined 228.86 684.67 0.96236 670.00 0.0014925 228.86 684.67 0.96236 1.9739 2.3905 2019.1 -0.0061696 422.35 0.22999 670.00 0.0014925 228.86 684.67 0.96236 1.9739 2.3905 2019.1 -0.0061696 422.35 0.22999
63.375 44491. undefined 230.84 688.69 0.96824 670.00 0.0014925 230.84 688.69 0.96824 1.9782 2.3942 2020.2 -0.0061604 421.94 0.23029 670.00 0.0014925 230.84 688.69 0.96824 1.9782 2.3942 2020.2 -0.0061604 421.94 0.23029
64.375 44690. undefined 232.82 692.71 0.97411 670.00 0.0014925 232.82 692.71 0.97411 1.9824 2.3978 2021.3 -0.0061513 421.53 0.23058 670.00 0.0014925 232.82 692.71 0.97411 1.9824 2.3978 2021.3 -0.0061513 421.53 0.23058
65.375 44888. undefined 234.80 696.73 0.97998 670.00 0.0014925 234.80 696.73 0.97998 1.9867 2.4014 2022.4 -0.0061421 421.13 0.23088 670.00 0.0014925 234.80 696.73 0.97998 1.9867 2.4014 2022.4 -0.0061421 421.13 0.23088
66.375 45085. undefined 236.79 700.75 0.98585 670.00 0.0014925 236.79 700.75 0.98585 1.9909 2.4051 2023.5 -0.0061330 420.73 0.23118 670.00 0.0014925 236.79 700.75 0.98585 1.9909 2.4051 2023.5 -0.0061330 420.73 0.23118
67.375 45283. undefined 238.79 704.78 0.99171 670.00 0.0014925 238.79 704.78 0.99171 1.9952 2.4087 2024.6 -0.0061238 420.34 0.23147 670.00 0.0014925 238.79 704.78 0.99171 1.9952 2.4087 2024.6 -0.0061238 420.34 0.23147
68.375 45480. undefined 240.78 708.80 0.99757 670.00 0.0014925 240.78 708.80 0.99757 1.9995 2.4124 2025.7 -0.0061147 419.95 0.23177 670.00 0.0014925 240.78 708.80 0.99757 1.9995 2.4124 2025.7 -0.0061147 419.95 0.23177
69.375 45677. undefined 242.78 712.83 1.0034 670.00 0.0014925 242.78 712.83 1.0034 2.0037 2.4161 2026.7 -0.0061056 419.56 0.23207 670.00 0.0014925 242.78 712.83 1.0034 2.0037 2.4161 2026.7 -0.0061056 419.56 0.23207
70.375 45874. undefined 244.79 716.86 1.0093 670.00 0.0014925 244.79 716.86 1.0093 2.0080 2.4197 2027.8 -0.0060965 419.17 0.23236 670.00 0.0014925 244.79 716.86 1.0093 2.0080 2.4197 2027.8 -0.0060965 419.17 0.23236
71.375 46070. undefined 246.80 720.89 1.0151 670.00 0.0014925 246.80 720.89 1.0151 2.0122 2.4234 2028.9 -0.0060874 418.79 0.23266 670.00 0.0014925 246.80 720.89 1.0151 2.0122 2.4234 2028.9 -0.0060874 418.79 0.23266
72.375 46266. undefined 248.81 724.92 1.0209 670.00 0.0014925 248.81 724.92 1.0209 2.0165 2.4271 2030.0 -0.0060784 418.41 0.23296 670.00 0.0014925 248.81 724.92 1.0209 2.0165 2.4271 2030.0 -0.0060784 418.41 0.23296
73.375 46462. undefined 250.83 728.96 1.0268 670.00 0.0014925 250.83 728.96 1.0268 2.0208 2.4308 2031.0 -0.0060693 418.04 0.23326 670.00 0.0014925 250.83 728.96 1.0268 2.0208 2.4308 2031.0 -0.0060693 418.04 0.23326
74.375 46658. undefined 252.86 732.99 1.0326 670.00 0.0014925 252.86 732.99 1.0326 2.0250 2.4344 2032.1 -0.0060603 417.67 0.23355 670.00 0.0014925 252.86 732.99 1.0326 2.0250 2.4344 2032.1 -0.0060603 417.67 0.23355
75.375 46853. undefined 254.88 737.03 1.0384 670.00 0.0014925 254.88 737.03 1.0384 2.0293 2.4381 2033.2 -0.0060513 417.30 0.23385 670.00 0.0014925 254.88 737.03 1.0384 2.0293 2.4381 2033.2 -0.0060513 417.30 0.23385
76.375 47048. undefined 256.91 741.07 1.0443 670.00 0.0014925 256.91 741.07 1.0443 2.0336 2.4418 2034.2 -0.0060423 416.94 0.23415 670.00 0.0014925 256.91 741.07 1.0443 2.0336 2.4418 2034.2 -0.0060423 416.94 0.23415
77.375 47243. undefined 258.95 745.11 1.0501 670.00 0.0014925 258.95 745.11 1.0501 2.0378 2.4455 2035.3 -0.0060333 416.58 0.23445 670.00 0.0014925 258.95 745.11 1.0501 2.0378 2.4455 2035.3 -0.0060333 416.58 0.23445
78.375 47437. undefined 260.99 749.15 1.0559 670.00 0.0014925 260.99 749.15 1.0559 2.0421 2.4492 2036.4 -0.0060243 416.22 0.23475 670.00 0.0014925 260.99 749.15 1.0559 2.0421 2.4492 2036.4 -0.0060243 416.22 0.23475
79.375 47632. undefined 263.03 753.20 1.0617 670.00 0.0014925 263.03 753.20 1.0617 2.0464 2.4529 2037.4 -0.0060154 415.86 0.23505 670.00 0.0014925 263.03 753.20 1.0617 2.0464 2.4529 2037.4 -0.0060154 415.86 0.23505
80.375 47826. undefined 265.08 757.24 1.0675 670.00 0.0014925 265.08 757.24 1.0675 2.0506 2.4566 2038.5 -0.0060064 415.51 0.23535 670.00 0.0014925 265.08 757.24 1.0675 2.0506 2.4566 2038.5 -0.0060064 415.51 0.23535
81.375 48020. undefined 267.14 761.29 1.0733 670.00 0.0014925 267.14 761.29 1.0733 2.0549 2.4603 2039.6 -0.0059975 415.16 0.23565 670.00 0.0014925 267.14 761.29 1.0733 2.0549 2.4603 2039.6 -0.0059975 415.16 0.23565
82.375 48213. undefined 269.19 765.34 1.0791 670.00 0.0014925 269.19 765.34 1.0791 2.0592 2.4640 2040.6 -0.0059886 414.82 0.23595 670.00 0.0014925 269.19 765.34 1.0791 2.0592 2.4640 2040.6 -0.0059886 414.82 0.23595
83.375 48407. undefined 271.25 769.39 1.0849 670.00 0.0014925 271.25 769.39 1.0849 2.0634 2.4677 2041.7 -0.0059797 414.47 0.23625 670.00 0.0014925 271.25 769.39 1.0849 2.0634 2.4677 2041.7 -0.0059797 414.47 0.23625
84.375 48600. undefined 273.32 773.44 1.0907 670.00 0.0014925 273.32 773.44 1.0907 2.0677 2.4715 2042.7 -0.0059708 414.13 0.23655 670.00 0.0014925 273.32 773.44 1.0907 2.0677 2.4715 2042.7 -0.0059708 414.13 0.23655
85.375 48792. undefined 275.39 777.50 1.0964 670.00 0.0014925 275.39 777.50 1.0964 2.0720 2.4752 2043.8 -0.0059620 413.80 0.23685 670.00 0.0014925 275.39 777.50 1.0964 2.0720 2.4752 2043.8 -0.0059620 413.80 0.23685
86.375 48985. undefined 277.46 781.55 1.1022 670.00 0.0014925 277.46 781.55 1.1022 2.0762 2.4789 2044.8 -0.0059532 413.46 0.23716 670.00 0.0014925 277.46 781.55 1.1022 2.0762 2.4789 2044.8 -0.0059532 413.46 0.23716
87.375 49177. undefined 279.54 785.61 1.1080 670.00 0.0014925 279.54 785.61 1.1080 2.0805 2.4826 2045.9 -0.0059444 413.13 0.23746 670.00 0.0014925 279.54 785.61 1.1080 2.0805 2.4826 2045.9 -0.0059444 413.13 0.23746
88.375 49369. undefined 281.62 789.67 1.1138 670.00 0.0014925 281.62 789.67 1.1138 2.0848 2.4863 2046.9 -0.0059356 412.80 0.23776 670.00 0.0014925 281.62 789.67 1.1138 2.0848 2.4863 2046.9 -0.0059356 412.80 0.23776
89.375 49561. undefined 283.71 793.73 1.1195 670.00 0.0014925 283.71 793.73 1.1195 2.0890 2.4901 2048.0 -0.0059268 412.48 0.23806 670.00 0.0014925 283.71 793.73 1.1195 2.0890 2.4901 2048.0 -0.0059268 412.48 0.23806
90.375 49753. undefined 285.80 797.79 1.1253 670.00 0.0014925 285.80 797.79 1.1253 2.0933 2.4938 2049.0 -0.0059180 412.16 0.23837 670.00 0.0014925 285.80 797.79 1.1253 2.0933 2.4938 2049.0 -0.0059180 412.16 0.23837
91.375 49944. undefined 287.90 801.86 1.1310 670.00 0.0014925 287.90 801.86 1.1310 2.0976 2.4975 2050.0 -0.0059093 411.84 0.23867 670.00 0.0014925 287.90 801.86 1.1310 2.0976 2.4975 2050.0 -0.0059093 411.84 0.23867
92.375 50135. undefined 290.00 805.93 1.1368 670.00 0.0014925 290.00 805.93 1.1368 2.1018 2.5013 2051.1 -0.0059006 411.52 0.23897 670.00 0.0014925 290.00 805.93 1.1368 2.1018 2.5013 2051.1 -0.0059006 411.52 0.23897
93.375 50326. undefined 292.10 809.99 1.1425 670.00 0.0014925 292.10 809.99 1.1425 2.1061 2.5050 2052.1 -0.0058919 411.20 0.23928 670.00 0.0014925 292.10 809.99 1.1425 2.1061 2.5050 2052.1 -0.0058919 411.20 0.23928
94.375 50517. undefined 294.21 814.06 1.1483 670.00 0.0014925 294.21 814.06 1.1483 2.1104 2.5087 2053.1 -0.0058832 410.89 0.23958 670.00 0.0014925 294.21 814.06 1.1483 2.1104 2.5087 2053.1 -0.0058832 410.89 0.23958
95.375 50707. undefined 296.32 818.13 1.1540 670.00 0.0014925 296.32 818.13 1.1540 2.1146 2.5125 2054.2 -0.0058746 410.58 0.23989 670.00 0.0014925 296.32 818.13 1.1540 2.1146 2.5125 2054.2 -0.0058746 410.58 0.23989
96.375 50897. undefined 298.44 822.21 1.1598 670.00 0.0014925 298.44 822.21 1.1598 2.1189 2.5162 2055.2 -0.0058659 410.28 0.24019 670.00 0.0014925 298.44 822.21 1.1598 2.1189 2.5162 2055.2 -0.0058659 410.28 0.24019
97.375 51087. undefined 300.56 826.28 1.1655 670.00 0.0014925 300.56 826.28 1.1655 2.1231 2.5199 2056.2 -0.0058573 409.97 0.24050 670.00 0.0014925 300.56 826.28 1.1655 2.1231 2.5199 2056.2 -0.0058573 409.97 0.24050
98.375 51277. undefined 302.69 830.36 1.1712 670.00 0.0014925 302.69 830.36 1.1712 2.1274 2.5237 2057.3 -0.0058487 409.67 0.24080 670.00 0.0014925 302.69 830.36 1.1712 2.1274 2.5237 2057.3 -0.0058487 409.67 0.24080
99.375 51466. undefined 304.82 834.44 1.1769 670.00 0.0014925 304.82 834.44 1.1769 2.1316 2.5274 2058.3 -0.0058402 409.37 0.24111 670.00 0.0014925 304.82 834.44 1.1769 2.1316 2.5274 2058.3 -0.0058402 409.37 0.24111
100.38 51656. undefined 306.95 838.52 1.1827 670.00 0.0014925 306.95 838.52 1.1827 2.1359 2.5312 2059.3 -0.0058316 409.08 0.24141 670.00 0.0014925 306.95 838.52 1.1827 2.1359 2.5312 2059.3 -0.0058316 409.08 0.24141
101.38 51845. undefined 309.09 842.60 1.1884 670.00 0.0014925 309.09 842.60 1.1884 2.1401 2.5349 2060.4 -0.0058231 408.78 0.24172 670.00 0.0014925 309.09 842.60 1.1884 2.1401 2.5349 2060.4 -0.0058231 408.78 0.24172
102.38 52033. undefined 311.23 846.69 1.1941 670.00 0.0014925 311.23 846.69 1.1941 2.1444 2.5387 2061.4 -0.0058146 408.49 0.24203 670.00 0.0014925 311.23 846.69 1.1941 2.1444 2.5387 2061.4 -0.0058146 408.49 0.24203
103.38 52222. undefined 313.38 850.78 1.1998 670.00 0.0014925 313.38 850.78 1.1998 2.1486 2.5424 2062.4 -0.0058061 408.20 0.24233 670.00 0.0014925 313.38 850.78 1.1998 2.1486 2.5424 2062.4 -0.0058061 408.20 0.24233
104.38 52410. undefined 315.53 854.86 1.2055 670.00 0.0014925 315.53 854.86 1.2055 2.1529 2.5461 2063.4 -0.0057976 407.91 0.24264 670.00 0.0014925 315.53 854.86 1.2055 2.1529 2.5461 2063.4 -0.0057976 407.91 0.24264
105.38 52598. undefined 317.68 858.95 1.2112 670.00 0.0014925 317.68 858.95 1.2112 2.1571 2.5499 2064.4 -0.0057892 407.63 0.24295 670.00 0.0014925 317.68 858.95 1.2112 2.1571 2.5499 2064.4 -0.0057892 407.63 0.24295
106.38 52786. undefined 319.84 863.05 1.2169 670.00 0.0014925 319.84 863.05 1.2169 2.1614 2.5536 2065.5 -0.0057808 407.35 0.24325 670.00 0.0014925 319.84 863.05 1.2169 2.1614 2.5536 2065.5 -0.0057808 407.35 0.24325
107.38 52974. undefined 322.00 867.14 1.2226 670.00 0.0014925 322.00 867.14 1.2226 2.1656 2.5574 2066.5 -0.0057724 407.07 0.24356 670.00 0.0014925 322.00 867.14 1.2226 2.1656 2.5574 2066.5 -0.0057724 407.07 0.24356
108.38 53161. undefined 324.17 871.24 1.2283 670.00 0.0014925 324.17 871.24 1.2283 2.1698 2.5611 2067.5 -0.0057640 406.79 0.24387 670.00 0.0014925 324.17 871.24 1.2283 2.1698 2.5611 2067.5 -0.0057640 406.79 0.24387
109.38 53348. undefined 326.34 875.33 1.2340 670.00 0.0014925 326.34 875.33 1.2340 2.1741 2.5649 2068.5 -0.0057556 406.52 0.24418 670.00 0.0014925 326.34 875.33 1.2340 2.1741 2.5649 2068.5 -0.0057556 406.52 0.24418
110.38 53535. undefined 328.52 879.43 1.2397 670.00 0.0014925 328.52 879.43 1.2397 2.1783 2.5686 2069.5 -0.0057473 406.24 0.24449 670.00 0.0014925 328.52 879.43 1.2397 2.1783 2.5686 2069.5 -0.0057473 406.24 0.24449
111.38 53722. undefined 330.70 883.54 1.2453 670.00 0.0014925 330.70 883.54 1.2453 2.1826 2.5724 2070.5 -0.0057390 405.97 0.24480 670.00 0.0014925 330.70 883.54 1.2453 2.1826 2.5724 2070.5 -0.0057390 405.97 0.24480
112.38 53909. undefined 332.89 887.64 1.2510 670.00 0.0014925 332.89 887.64 1.2510 2.1868 2.5761 2071.5 -0.0057307 405.70 0.24511 670.00 0.0014925 332.89 887.64 1.2510 2.1868 2.5761 2071.5 -0.0057307 405.70 0.24511
113.38 54095. undefined 335.07 891.75 1.2567 670.00 0.0014925 335.07 891.75 1.2567 2.1910 2.5799 2072.5 -0.0057224 405.44 0.24542 670.00 0.0014925 335.07 891.75 1.2567 2.1910 2.5799 2072.5 -0.0057224 405.44 0.24542
114.38 54281. undefined 337.27 895.85 1.2623 670.00 0.0014925 337.27 895.85 1.2623 2.1952 2.5836 2073.5 -0.0057142 405.17 0.24573 670.00 0.0014925 337.27 895.85 1.2623 2.1952 2.5836 2073.5 -0.0057142 405.17 0.24573
115.38 54467. undefined 339.46 899.96 1.2680 670.00 0.0014925 339.46 899.96 1.2680 2.1995 2.5874 2074.5 -0.0057060 404.91 0.24604 670.00 0.0014925 339.46 899.96 1.2680 2.1995 2.5874 2074.5 -0.0057060 404.91 0.24604
116.38 54652. undefined 341.67 904.08 1.2737 670.00 0.0014925 341.67 904.08 1.2737 2.2037 2.5911 2075.5 -0.0056978 404.65 0.24635 670.00 0.0014925 341.67 904.08 1.2737 2.2037 2.5911 2075.5 -0.0056978 404.65 0.24635
117.38 54838. undefined 343.87 908.19 1.2793 670.00 0.0014925 343.87 908.19 1.2793 2.2079 2.5949 2076.5 -0.0056896 404.40 0.24666 670.00 0.0014925 343.87 908.19 1.2793 2.2079 2.5949 2076.5 -0.0056896 404.40 0.24666
118.38 55023. undefined 346.08 912.30 1.2850 670.00 0.0014925 346.08 912.30 1.2850 2.2121 2.5986 2077.5 -0.0056814 404.14 0.24697 670.00 0.0014925 346.08 912.30 1.2850 2.2121 2.5986 2077.5 -0.0056814 404.14 0.24697
119.38 55208. undefined 348.30 916.42 1.2906 670.00 0.0014925 348.30 916.42 1.2906 2.2163 2.6024 2078.5 -0.0056733 403.89 0.24728 670.00 0.0014925 348.30 916.42 1.2906 2.2163 2.6024 2078.5 -0.0056733 403.89 0.24728
120.38 55393. undefined 350.51 920.54 1.2963 670.00 0.0014925 350.51 920.54 1.2963 2.2205 2.6061 2079.5 -0.0056652 403.64 0.24759 670.00 0.0014925 350.51 920.54 1.2963 2.2205 2.6061 2079.5 -0.0056652 403.64 0.24759
121.38 55577. undefined 352.74 924.66 1.3019 670.00 0.0014925 352.74 924.66 1.3019 2.2247 2.6099 2080.5 -0.0056571 403.39 0.24790 670.00 0.0014925 352.74 924.66 1.3019 2.2247 2.6099 2080.5 -0.0056571 403.39 0.24790
122.38 55761. undefined 354.96 928.79 1.3075 670.00 0.0014925 354.96 928.79 1.3075 2.2289 2.6136 2081.5 -0.0056490 403.14 0.24822 670.00 0.0014925 354.96 928.79 1.3075 2.2289 2.6136 2081.5 -0.0056490 403.14 0.24822
123.38 55946. undefined 357.20 932.91 1.3132 670.00 0.0014925 357.20 932.91 1.3132 2.2331 2.6174 2082.5 -0.0056410 402.89 0.24853 670.00 0.0014925 357.20 932.91 1.3132 2.2331 2.6174 2082.5 -0.0056410 402.89 0.24853
124.38 56129. undefined 359.43 937.04 1.3188 670.00 0.0014925 359.43 937.04 1.3188 2.2373 2.6211 2083.5 -0.0056330 402.65 0.24884 670.00 0.0014925 359.43 937.04 1.3188 2.2373 2.6211 2083.5 -0.0056330 402.65 0.24884
125.38 56313. undefined 361.67 941.17 1.3244 670.00 0.0014925 361.67 941.17 1.3244 2.2415 2.6249 2084.5 -0.0056250 402.41 0.24916 670.00 0.0014925 361.67 941.17 1.3244 2.2415 2.6249 2084.5 -0.0056250 402.41 0.24916
126.38 56497. undefined 363.91 945.30 1.3301 670.00 0.0014925 363.91 945.30 1.3301 2.2457 2.6286 2085.5 -0.0056170 402.17 0.24947 670.00 0.0014925 363.91 945.30 1.3301 2.2457 2.6286 2085.5 -0.0056170 402.17 0.24947
127.38 56680. undefined 366.16 949.44 1.3357 670.00 0.0014925 366.16 949.44 1.3357 2.2499 2.6323 2086.5 -0.0056091 401.93 0.24978 670.00 0.0014925 366.16 949.44 1.3357 2.2499 2.6323 2086.5 -0.0056091 401.93 0.24978
128.38 56863. undefined 368.41 953.57 1.3413 670.00 0.0014925 368.41 953.57 1.3413 2.2541 2.6361 2087.5 -0.0056012 401.69 0.25010 670.00 0.0014925 368.41 953.57 1.3413 2.2541 2.6361 2087.5 -0.0056012 401.69 0.25010
129.38 57046. undefined 370.67 957.71 1.3469 670.00 0.0014925 370.67 957.71 1.3469 2.2583 2.6398 2088.4 -0.0055933 401.46 0.25041 670.00 0.0014925 370.67 957.71 1.3469 2.2583 2.6398 2088.4 -0.0055933 401.46 0.25041
130.38 57228. undefined 372.93 961.85 1.3525 670.00 0.0014925 372.93 961.85 1.3525 2.2625 2.6436 2089.4 -0.0055854 401.23 0.25073 670.00 0.0014925 372.93 961.85 1.3525 2.2625 2.6436 2089.4 -0.0055854 401.23 0.25073
131.38 57411. undefined 375.19 965.99 1.3581 670.00 0.0014925 375.19 965.99 1.3581 2.2666 2.6473 2090.4 -0.0055776 401.00 0.25104 670.00 0.0014925 375.19 965.99 1.3581 2.2666 2.6473 2090.4 -0.0055776 401.00 0.25104
132.38 57593. undefined 377.46 970.14 1.3637 670.00 0.0014925 377.46 970.14 1.3637 2.2708 2.6510 2091.4 -0.0055697 400.77 0.25136 670.00 0.0014925 377.46 970.14 1.3637 2.2708 2.6510 2091.4 -0.0055697 400.77 0.25136
133.38 57775. undefined 379.74 974.28 1.3693 670.00 0.0014925 379.74 974.28 1.3693 2.2750 2.6548 2092.4 -0.0055619 400.54 0.25167 670.00 0.0014925 379.74 974.28 1.3693 2.2750 2.6548 2092.4 -0.0055619 400.54 0.25167
134.38 57957. undefined 382.01 978.43 1.3749 670.00 0.0014925 382.01 978.43 1.3749 2.2792 2.6585 2093.4 -0.0055542 400.32 0.25199 670.00 0.0014925 382.01 978.43 1.3749 2.2792 2.6585 2093.4 -0.0055542 400.32 0.25199
135.38 58139. undefined 384.29 982.58 1.3805 670.00 0.0014925 384.29 982.58 1.3805 2.2833 2.6622 2094.3 -0.0055464 400.09 0.25230 670.00 0.0014925 384.29 982.58 1.3805 2.2833 2.6622 2094.3 -0.0055464 400.09 0.25230
136.38 58320. undefined 386.58 986.73 1.3861 670.00 0.0014925 386.58 986.73 1.3861 2.2875 2.6660 2095.3 -0.0055387 399.87 0.25262 670.00 0.0014925 386.58 986.73 1.3861 2.2875 2.6660 2095.3 -0.0055387 399.87 0.25262
137.38 58501. undefined 388.87 990.89 1.3917 670.00 0.0014925 388.87 990.89 1.3917 2.2916 2.6697 2096.3 -0.0055310 399.65 0.25294 670.00 0.0014925 388.87 990.89 1.3917 2.2916 2.6697 2096.3 -0.0055310 399.65 0.25294
138.38 58682. undefined 391.16 995.04 1.3973 670.00 0.0014925 391.16 995.04 1.3973 2.2958 2.6734 2097.3 -0.0055233 399.44 0.25325 670.00 0.0014925 391.16 995.04 1.3973 2.2958 2.6734 2097.3 -0.0055233 399.44 0.25325
139.38 58863. undefined 393.46 999.20 1.4028 670.00 0.0014925 393.46 999.20 1.4028 2.2999 2.6771 2098.2 -0.0055156 399.22 0.25357 670.00 0.0014925 393.46 999.20 1.4028 2.2999 2.6771 2098.2 -0.0055156 399.22 0.25357
140.38 59044. undefined 395.76 1003.4 1.4084 670.00 0.0014925 395.76 1003.4 1.4084 2.3041 2.6809 2099.2 -0.0055080 399.00 0.25389 670.00 0.0014925 395.76 1003.4 1.4084 2.3041 2.6809 2099.2 -0.0055080 399.00 0.25389
141.38 59224. undefined 398.07 1007.5 1.4140 670.00 0.0014925 398.07 1007.5 1.4140 2.3082 2.6846 2100.2 -0.0055004 398.79 0.25421 670.00 0.0014925 398.07 1007.5 1.4140 2.3082 2.6846 2100.2 -0.0055004 398.79 0.25421
142.38 59404. undefined 400.38 1011.7 1.4195 670.00 0.0014925 400.38 1011.7 1.4195 2.3124 2.6883 2101.1 -0.0054928 398.58 0.25452 670.00 0.0014925 400.38 1011.7 1.4195 2.3124 2.6883 2101.1 -0.0054928 398.58 0.25452
143.38 59584. undefined 402.69 1015.9 1.4251 670.00 0.0014925 402.69 1015.9 1.4251 2.3165 2.6920 2102.1 -0.0054852 398.37 0.25484 670.00 0.0014925 402.69 1015.9 1.4251 2.3165 2.6920 2102.1 -0.0054852 398.37 0.25484
144.38 59764. undefined 405.01 1020.0 1.4307 670.00 0.0014925 405.01 1020.0 1.4307 2.3206 2.6957 2103.1 -0.0054777 398.16 0.25516 670.00 0.0014925 405.01 1020.0 1.4307 2.3206 2.6957 2103.1 -0.0054777 398.16 0.25516
145.38 59944. undefined 407.33 1024.2 1.4362 670.00 0.0014925 407.33 1024.2 1.4362 2.3247 2.6994 2104.0 -0.0054702 397.96 0.25548 670.00 0.0014925 407.33 1024.2 1.4362 2.3247 2.6994 2104.0 -0.0054702 397.96 0.25548
146.38 60123. undefined 409.66 1028.4 1.4418 670.00 0.0014925 409.66 1028.4 1.4418 2.3289 2.7032 2105.0 -0.0054627 397.75 0.25580 670.00 0.0014925 409.66 1028.4 1.4418 2.3289 2.7032 2105.0 -0.0054627 397.75 0.25580
147.38 60302. undefined 411.99 1032.5 1.4473 670.00 0.0014925 411.99 1032.5 1.4473 2.3330 2.7069 2106.0 -0.0054552 397.55 0.25612 670.00 0.0014925 411.99 1032.5 1.4473 2.3330 2.7069 2106.0 -0.0054552 397.55 0.25612
148.38 60482. undefined 414.33 1036.7 1.4529 670.00 0.0014925 414.33 1036.7 1.4529 2.3371 2.7106 2106.9 -0.0054478 397.35 0.25644 670.00 0.0014925 414.33 1036.7 1.4529 2.3371 2.7106 2106.9 -0.0054478 397.35 0.25644
149.38 60660. undefined 416.67 1040.9 1.4584 670.00 0.0014925 416.67 1040.9 1.4584 2.3412 2.7143 2107.9 -0.0054403 397.15 0.25676 670.00 0.0014925 416.67 1040.9 1.4584 2.3412 2.7143 2107.9 -0.0054403 397.15 0.25676
150.38 60839. undefined 419.01 1045.1 1.4640 670.00 0.0014925 419.01 1045.1 1.4640 2.3453 2.7180 2108.8 -0.0054329 396.95 0.25708 670.00 0.0014925 419.01 1045.1 1.4640 2.3453 2.7180 2108.8 -0.0054329 396.95 0.25708
151.38 61017. undefined 421.36 1049.3 1.4695 670.00 0.0014925 421.36 1049.3 1.4695 2.3494 2.7217 2109.8 -0.0054256 396.75 0.25740 670.00 0.0014925 421.36 1049.3 1.4695 2.3494 2.7217 2109.8 -0.0054256 396.75 0.25740
152.38 61196. undefined 423.71 1053.5 1.4750 670.00 0.0014925 423.71 1053.5 1.4750 2.3535 2.7254 2110.8 -0.0054182 396.55 0.25772 670.00 0.0014925 423.71 1053.5 1.4750 2.3535 2.7254 2110.8 -0.0054182 396.55 0.25772
153.38 61374. undefined 426.06 1057.6 1.4806 670.00 0.0014925 426.06 1057.6 1.4806 2.3576 2.7291 2111.7 -0.0054109 396.36 0.25804 670.00 0.0014925 426.06 1057.6 1.4806 2.3576 2.7291 2111.7 -0.0054109 396.36 0.25804
154.38 61552. undefined 428.42 1061.8 1.4861 670.00 0.0014925 428.42 1061.8 1.4861 2.3617 2.7328 2112.7 -0.0054036 396.17 0.25837 670.00 0.0014925 428.42 1061.8 1.4861 2.3617 2.7328 2112.7 -0.0054036 396.17 0.25837
155.38 61729. undefined 430.79 1066.0 1.4916 670.00 0.0014925 430.79 1066.0 1.4916 2.3658 2.7365 2113.6 -0.0053963 395.97 0.25869 670.00 0.0014925 430.79 1066.0 1.4916 2.3658 2.7365 2113.6 -0.0053963 395.97 0.25869
156.38 61907. undefined 433.16 1070.2 1.4971 670.00 0.0014925 433.16 1070.2 1.4971 2.3699 2.7401 2114.6 -0.0053890 395.78 0.25901 670.00 0.0014925 433.16 1070.2 1.4971 2.3699 2.7401 2114.6 -0.0053890 395.78 0.25901
157.38 62084. undefined 435.53 1074.4 1.5026 670.00 0.0014925 435.53 1074.4 1.5026 2.3740 2.7438 2115.5 -0.0053818 395.60 0.25933 670.00 0.0014925 435.53 1074.4 1.5026 2.3740 2.7438 2115.5 -0.0053818 395.60 0.25933
158.38 62261. undefined 437.90 1078.6 1.5081 670.00 0.0014925 437.90 1078.6 1.5081 2.3780 2.7475 2116.5 -0.0053746 395.41 0.25966 670.00 0.0014925 437.90 1078.6 1.5081 2.3780 2.7475 2116.5 -0.0053746 395.41 0.25966
159.38 62438. undefined 440.28 1082.8 1.5137 670.00 0.0014925 440.28 1082.8 1.5137 2.3821 2.7512 2117.4 -0.0053674 395.22 0.25998 670.00 0.0014925 440.28 1082.8 1.5137 2.3821 2.7512 2117.4 -0.0053674 395.22 0.25998
160.38 62615. undefined 442.67 1087.0 1.5192 670.00 0.0014925 442.67 1087.0 1.5192 2.3862 2.7549 2118.4 -0.0053603 395.04 0.26030 670.00 0.0014925 442.67 1087.0 1.5192 2.3862 2.7549 2118.4 -0.0053603 395.04 0.26030
161.38 62792. undefined 445.06 1091.2 1.5247 670.00 0.0014925 445.06 1091.2 1.5247 2.3902 2.7586 2119.3 -0.0053531 394.86 0.26063 670.00 0.0014925 445.06 1091.2 1.5247 2.3902 2.7586 2119.3 -0.0053531 394.86 0.26063
162.38 62968. undefined 447.45 1095.4 1.5302 670.00 0.0014925 447.45 1095.4 1.5302 2.3943 2.7622 2120.3 -0.0053460 394.67 0.26095 670.00 0.0014925 447.45 1095.4 1.5302 2.3943 2.7622 2120.3 -0.0053460 394.67 0.26095
163.38 63144. undefined 449.84 1099.6 1.5357 670.00 0.0014925 449.84 1099.6 1.5357 2.3983 2.7659 2121.2 -0.0053389 394.49 0.26127 670.00 0.0014925 449.84 1099.6 1.5357 2.3983 2.7659 2121.2 -0.0053389 394.49 0.26127
164.38 63320. undefined 452.24 1103.9 1.5412 670.00 0.0014925 452.24 1103.9 1.5412 2.4024 2.7696 2122.1 -0.0053318 394.32 0.26160 670.00 0.0014925 452.24 1103.9 1.5412 2.4024 2.7696 2122.1 -0.0053318 394.32 0.26160
165.38 63496. undefined 454.65 1108.1 1.5466 670.00 0.0014925 454.65 1108.1 1.5466 2.4064 2.7732 2123.1 -0.0053248 394.14 0.26192 670.00 0.0014925 454.65 1108.1 1.5466 2.4064 2.7732 2123.1 -0.0053248 394.14 0.26192
166.38 63672. undefined 457.06 1112.3 1.5521 670.00 0.0014925 457.06 1112.3 1.5521 2.4105 2.7769 2124.0 -0.0053178 393.96 0.26225 670.00 0.0014925 457.06 1112.3 1.5521 2.4105 2.7769 2124.0 -0.0053178 393.96 0.26225
167.38 63847. undefined 459.47 1116.5 1.5576 670.00 0.0014925 459.47 1116.5 1.5576 2.4145 2.7805 2125.0 -0.0053108 393.79 0.26257 670.00 0.0014925 459.47 1116.5 1.5576 2.4145 2.7805 2125.0 -0.0053108 393.79 0.26257
168.38 64023. undefined 461.89 1120.7 1.5631 670.00 0.0014925 461.89 1120.7 1.5631 2.4185 2.7842 2125.9 -0.0053038 393.61 0.26290 670.00 0.0014925 461.89 1120.7 1.5631 2.4185 2.7842 2125.9 -0.0053038 393.61 0.26290
169.38 64198. undefined 464.31 1124.9 1.5686 670.00 0.0014925 464.31 1124.9 1.5686 2.4225 2.7878 2126.8 -0.0052968 393.44 0.26323 670.00 0.0014925 464.31 1124.9 1.5686 2.4225 2.7878 2126.8 -0.0052968 393.44 0.26323
170.38 64373. undefined 466.73 1129.2 1.5740 670.00 0.0014925 466.73 1129.2 1.5740 2.4266 2.7915 2127.8 -0.0052899 393.27 0.26355 670.00 0.0014925 466.73 1129.2 1.5740 2.4266 2.7915 2127.8 -0.0052899 393.27 0.26355
171.38 64548. undefined 469.16 1133.4 1.5795 670.00 0.0014925 469.16 1133.4 1.5795 2.4306 2.7951 2128.7 -0.0052830 393.10 0.26388 670.00 0.0014925 469.16 1133.4 1.5795 2.4306 2.7951 2128.7 -0.0052830 393.10 0.26388
172.38 64722. undefined 471.59 1137.6 1.5850 670.00 0.0014925 471.59 1137.6 1.5850 2.4346 2.7988 2129.6 -0.0052761 392.93 0.26421 670.00 0.0014925 471.59 1137.6 1.5850 2.4346 2.7988 2129.6 -0.0052761 392.93 0.26421
173.38 64897. undefined 474.03 1141.9 1.5904 670.00 0.0014925 474.03 1141.9 1.5904 2.4386 2.8024 2130.6 -0.0052693 392.76 0.26453 670.00 0.0014925 474.03 1141.9 1.5904 2.4386 2.8024 2130.6 -0.0052693 392.76 0.26453
174.38 65071. undefined 476.47 1146.1 1.5959 670.00 0.0014925 476.47 1146.1 1.5959 2.4426 2.8061 2131.5 -0.0052624 392.60 0.26486 670.00 0.0014925 476.47 1146.1 1.5959 2.4426 2.8061 2131.5 -0.0052624 392.60 0.26486
175.38 65245. undefined 478.91 1150.3 1.6014 670.00 0.0014925 478.91 1150.3 1.6014 2.4466 2.8097 2132.4 -0.0052556 392.43 0.26519 670.00 0.0014925 478.91 1150.3 1.6014 2.4466 2.8097 2132.4 -0.0052556 392.43 0.26519
176.38 65419. undefined 481.36 1154.6 1.6068 670.00 0.0014925 481.36 1154.6 1.6068 2.4506 2.8133 2133.4 -0.0052488 392.27 0.26552 670.00 0.0014925 481.36 1154.6 1.6068 2.4506 2.8133 2133.4 -0.0052488 392.27 0.26552
177.38 65593. undefined 483.82 1158.8 1.6123 670.00 0.0014925 483.82 1158.8 1.6123 2.4546 2.8169 2134.3 -0.0052421 392.11 0.26585 670.00 0.0014925 483.82 1158.8 1.6123 2.4546 2.8169 2134.3 -0.0052421 392.11 0.26585
178.38 65766. undefined 486.27 1163.1 1.6177 670.00 0.0014925 486.27 1163.1 1.6177 2.4586 2.8206 2135.2 -0.0052353 391.95 0.26617 670.00 0.0014925 486.27 1163.1 1.6177 2.4586 2.8206 2135.2 -0.0052353 391.95 0.26617
179.38 65940. undefined 488.73 1167.3 1.6231 670.00 0.0014925 488.73 1167.3 1.6231 2.4625 2.8242 2136.2 -0.0052286 391.79 0.26650 670.00 0.0014925 488.73 1167.3 1.6231 2.4625 2.8242 2136.2 -0.0052286 391.79 0.26650
180.38 66113. undefined 491.20 1171.5 1.6286 670.00 0.0014925 491.20 1171.5 1.6286 2.4665 2.8278 2137.1 -0.0052219 391.63 0.26683 670.00 0.0014925 491.20 1171.5 1.6286 2.4665 2.8278 2137.1 -0.0052219 391.63 0.26683
181.38 66286. undefined 493.67 1175.8 1.6340 670.00 0.0014925 493.67 1175.8 1.6340 2.4705 2.8314 2138.0 -0.0052152 391.47 0.26716 670.00 0.0014925 493.67 1175.8 1.6340 2.4705 2.8314 2138.0 -0.0052152 391.47 0.26716
182.38 66459. undefined 496.14 1180.0 1.6395 670.00 0.0014925 496.14 1180.0 1.6395 2.4744 2.8350 2138.9 -0.0052086 391.31 0.26749 670.00 0.0014925 496.14 1180.0 1.6395 2.4744 2.8350 2138.9 -0.0052086 391.31 0.26749
183.38 66631. undefined 498.62 1184.3 1.6449 670.00 0.0014925 498.62 1184.3 1.6449 2.4784 2.8386 2139.8 -0.0052019 391.16 0.26782 670.00 0.0014925 498.62 1184.3 1.6449 2.4784 2.8386 2139.8 -0.0052019 391.16 0.26782
184.38 66804. undefined 501.10 1188.6 1.6503 670.00 0.0014925 501.10 1188.6 1.6503 2.4824 2.8422 2140.8 -0.0051953 391.00 0.26815 670.00 0.0014925 501.10 1188.6 1.6503 2.4824 2.8422 2140.8 -0.0051953 391.00 0.26815
185.38 66976. undefined 503.58 1192.8 1.6557 670.00 0.0014925 503.58 1192.8 1.6557 2.4863 2.8458 2141.7 -0.0051887 390.85 0.26848 670.00 0.0014925 503.58 1192.8 1.6557 2.4863 2.8458 2141.7 -0.0051887 390.85 0.26848
186.38 67148. undefined 506.07 1197.1 1.6612 670.00 0.0014925 506.07 1197.1 1.6612 2.4903 2.8494 2142.6 -0.0051822 390.70 0.26881 670.00 0.0014925 506.07 1197.1 1.6612 2.4903 2.8494 2142.6 -0.0051822 390.70 0.26881
187.38 67320. undefined 508.56 1201.3 1.6666 670.00 0.0014925 508.56 1201.3 1.6666 2.4942 2.8530 2143.5 -0.0051756 390.55 0.26915 670.00 0.0014925 508.56 1201.3 1.6666 2.4942 2.8530 2143.5 -0.0051756 390.55 0.26915
188.38 67492. undefined 511.06 1205.6 1.6720 670.00 0.0014925 511.06 1205.6 1.6720 2.4981 2.8566 2144.4 -0.0051691 390.40 0.26948 670.00 0.0014925 511.06 1205.6 1.6720 2.4981 2.8566 2144.4 -0.0051691 390.40 0.26948
189.38 67664. undefined 513.56 1209.9 1.6774 670.00 0.0014925 513.56 1209.9 1.6774 2.5021 2.8602 2145.4 -0.0051626 390.25 0.26981 670.00 0.0014925 513.56 1209.9 1.6774 2.5021 2.8602 2145.4 -0.0051626 390.25 0.26981
190.38 67835. undefined 516.06 1214.1 1.6828 670.00 0.0014925 516.06 1214.1 1.6828 2.5060 2.8638 2146.3 -0.0051561 390.10 0.27014 670.00 0.0014925 516.06 1214.1 1.6828 2.5060 2.8638 2146.3 -0.0051561 390.10 0.27014
191.38 68007. undefined 518.57 1218.4 1.6882 670.00 0.0014925 518.57 1218.4 1.6882 2.5099 2.8674 2147.2 -0.0051497 389.95 0.27047 670.00 0.0014925 518.57 1218.4 1.6882 2.5099 2.8674 2147.2 -0.0051497 389.95 0.27047
192.38 68178. undefined 521.08 1222.7 1.6936 670.00 0.0014925 521.08 1222.7 1.6936 2.5138 2.8709 2148.1 -0.0051432 389.81 0.27081 670.00 0.0014925 521.08 1222.7 1.6936 2.5138 2.8709 2148.1 -0.0051432 389.81 0.27081
193.38 68349. undefined 523.60 1227.0 1.6990 670.00 0.0014925 523.60 1227.0 1.6990 2.5177 2.8745 2149.0 -0.0051368 389.66 0.27114 670.00 0.0014925 523.60 1227.0 1.6990 2.5177 2.8745 2149.0 -0.0051368 389.66 0.27114
194.38 68520. undefined 526.12 1231.2 1.7044 670.00 0.0014925 526.12 1231.2 1.7044 2.5216 2.8781 2149.9 -0.0051304 389.52 0.27147 670.00 0.0014925 526.12 1231.2 1.7044 2.5216 2.8781 2149.9 -0.0051304 389.52 0.27147
195.38 68690. undefined 528.64 1235.5 1.7098 670.00 0.0014925 528.64 1235.5 1.7098 2.5255 2.8816 2150.8 -0.0051241 389.37 0.27181 670.00 0.0014925 528.64 1235.5 1.7098 2.5255 2.8816 2150.8 -0.0051241 389.37 0.27181
196.38 68861. undefined 531.17 1239.8 1.7152 670.00 0.0014925 531.17 1239.8 1.7152 2.5294 2.8852 2151.7 -0.0051177 389.23 0.27214 670.00 0.0014925 531.17 1239.8 1.7152 2.5294 2.8852 2151.7 -0.0051177 389.23 0.27214
197.38 69031. undefined 533.70 1244.1 1.7206 670.00 0.0014925 533.70 1244.1 1.7206 2.5333 2.8888 2152.6 -0.0051114 389.09 0.27247 670.00 0.0014925 533.70 1244.1 1.7206 2.5333 2.8888 2152.6 -0.0051114 389.09 0.27247
198.38 69201. undefined 536.23 1248.4 1.7260 670.00 0.0014925 536.23 1248.4 1.7260 2.5372 2.8923 2153.6 -0.0051051 388.95 0.27281 670.00 0.0014925 536.23 1248.4 1.7260 2.5372 2.8923 2153.6 -0.0051051 388.95 0.27281
199.38 69371. undefined 538.77 1252.7 1.7313 670.00 0.0014925 538.77 1252.7 1.7313 2.5411 2.8959 2154.5 -0.0050988 388.81 0.27314 670.00 0.0014925 538.77 1252.7 1.7313 2.5411 2.8959 2154.5 -0.0050988 388.81 0.27314
200.38 69541. undefined 541.32 1256.9 1.7367 670.00 0.0014925 541.32 1256.9 1.7367 2.5450 2.8994 2155.4 -0.0050926 388.68 0.27348 670.00 0.0014925 541.32 1256.9 1.7367 2.5450 2.8994 2155.4 -0.0050926 388.68 0.27348
201.38 69711. undefined 543.86 1261.2 1.7421 670.00 0.0014925 543.86 1261.2 1.7421 2.5488 2.9029 2156.3 -0.0050863 388.54 0.27381 670.00 0.0014925 543.86 1261.2 1.7421 2.5488 2.9029 2156.3 -0.0050863 388.54 0.27381
202.38 69880. undefined 546.41 1265.5 1.7475 670.00 0.0014925 546.41 1265.5 1.7475 2.5527 2.9065 2157.2 -0.0050801 388.40 0.27415 670.00 0.0014925 546.41 1265.5 1.7475 2.5527 2.9065 2157.2 -0.0050801 388.40 0.27415
203.38 70050. undefined 548.97 1269.8 1.7528 670.00 0.0014925 548.97 1269.8 1.7528 2.5566 2.9100 2158.1 -0.0050739 388.27 0.27449 670.00 0.0014925 548.97 1269.8 1.7528 2.5566 2.9100 2158.1 -0.0050739 388.27 0.27449
204.38 70219. undefined 551.53 1274.1 1.7582 670.00 0.0014925 551.53 1274.1 1.7582 2.5604 2.9135 2159.0 -0.0050677 388.13 0.27482 670.00 0.0014925 551.53 1274.1 1.7582 2.5604 2.9135 2159.0 -0.0050677 388.13 0.27482
205.38 70388. undefined 554.09 1278.4 1.7635 670.00 0.0014925 554.09 1278.4 1.7635 2.5643 2.9171 2159.9 -0.0050616 388.00 0.27516 670.00 0.0014925 554.09 1278.4 1.7635 2.5643 2.9171 2159.9 -0.0050616 388.00 0.27516
206.38 70557. undefined 556.66 1282.7 1.7689 670.00 0.0014925 556.66 1282.7 1.7689 2.5681 2.9206 2160.8 -0.0050554 387.87 0.27550 670.00 0.0014925 556.66 1282.7 1.7689 2.5681 2.9206 2160.8 -0.0050554 387.87 0.27550
207.38 70726. undefined 559.23 1287.0 1.7743 670.00 0.0014925 559.23 1287.0 1.7743 2.5720 2.9241 2161.7 -0.0050493 387.74 0.27583 670.00 0.0014925 559.23 1287.0 1.7743 2.5720 2.9241 2161.7 -0.0050493 387.74 0.27583
208.38 70894. undefined 561.80 1291.3 1.7796 670.00 0.0014925 561.80 1291.3 1.7796 2.5758 2.9276 2162.6 -0.0050432 387.61 0.27617 670.00 0.0014925 561.80 1291.3 1.7796 2.5758 2.9276 2162.6 -0.0050432 387.61 0.27617
209.38 71063. undefined 564.38 1295.7 1.7850 670.00 0.0014925 564.38 1295.7 1.7850 2.5796 2.9311 2163.5 -0.0050372 387.48 0.27651 670.00 0.0014925 564.38 1295.7 1.7850 2.5796 2.9311 2163.5 -0.0050372 387.48 0.27651
210.38 71231. undefined 566.96 1300.0 1.7903 670.00 0.0014925 566.96 1300.0 1.7903 2.5835 2.9346 2164.4 -0.0050311 387.35 0.27685 670.00 0.0014925 566.96 1300.0 1.7903 2.5835 2.9346 2164.4 -0.0050311 387.35 0.27685
211.38 71399. undefined 569.54 1304.3 1.7956 670.00 0.0014925 569.54 1304.3 1.7956 2.5873 2.9381 2165.3 -0.0050251 387.22 0.27718 670.00 0.0014925 569.54 1304.3 1.7956 2.5873 2.9381 2165.3 -0.0050251 387.22 0.27718
212.38 71567. undefined 572.13 1308.6 1.8010 670.00 0.0014925 572.13 1308.6 1.8010 2.5911 2.9416 2166.1 -0.0050191 387.10 0.27752 670.00 0.0014925 572.13 1308.6 1.8010 2.5911 2.9416 2166.1 -0.0050191 387.10 0.27752
213.38 71735. undefined 574.73 1312.9 1.8063 670.00 0.0014925 574.73 1312.9 1.8063 2.5949 2.9451 2167.0 -0.0050131 386.97 0.27786 670.00 0.0014925 574.73 1312.9 1.8063 2.5949 2.9451 2167.0 -0.0050131 386.97 0.27786
214.38 71902. undefined 577.32 1317.2 1.8116 670.00 0.0014925 577.32 1317.2 1.8116 2.5987 2.9486 2167.9 -0.0050071 386.85 0.27820 670.00 0.0014925 577.32 1317.2 1.8116 2.5987 2.9486 2167.9 -0.0050071 386.85 0.27820
215.38 72070. undefined 579.92 1321.6 1.8170 670.00 0.0014925 579.92 1321.6 1.8170 2.6025 2.9521 2168.8 -0.0050012 386.72 0.27854 670.00 0.0014925 579.92 1321.6 1.8170 2.6025 2.9521 2168.8 -0.0050012 386.72 0.27854
216.38 72237. undefined 582.53 1325.9 1.8223 670.00 0.0014925 582.53 1325.9 1.8223 2.6063 2.9556 2169.7 -0.0049952 386.60 0.27888 670.00 0.0014925 582.53 1325.9 1.8223 2.6063 2.9556 2169.7 -0.0049952 386.60 0.27888
217.38 72404. undefined 585.14 1330.2 1.8276 670.00 0.0014925 585.14 1330.2 1.8276 2.6101 2.9591 2170.6 -0.0049893 386.48 0.27922 670.00 0.0014925 585.14 1330.2 1.8276 2.6101 2.9591 2170.6 -0.0049893 386.48 0.27922
218.38 72571. undefined 587.75 1334.6 1.8329 670.00 0.0014925 587.75 1334.6 1.8329 2.6139 2.9625 2171.5 -0.0049835 386.36 0.27956 670.00 0.0014925 587.75 1334.6 1.8329 2.6139 2.9625 2171.5 -0.0049835 386.36 0.27956
219.38 72738. undefined 590.36 1338.9 1.8383 670.00 0.0014925 590.36 1338.9 1.8383 2.6176 2.9660 2172.4 -0.0049776 386.23 0.27990 670.00 0.0014925 590.36 1338.9 1.8383 2.6176 2.9660 2172.4 -0.0049776 386.23 0.27990
220.38 72905. undefined 592.98 1343.2 1.8436 670.00 0.0014925 592.98 1343.2 1.8436 2.6214 2.9695 2173.3 -0.0049717 386.11 0.28024 670.00 0.0014925 592.98 1343.2 1.8436 2.6214 2.9695 2173.3 -0.0049717 386.11 0.28024
221.38 73071. undefined 595.61 1347.6 1.8489 670.00 0.0014925 595.61 1347.6 1.8489 2.6252 2.9729 2174.1 -0.0049659 386.00 0.28058 670.00 0.0014925 595.61 1347.6 1.8489 2.6252 2.9729 2174.1 -0.0049659 386.00 0.28058
222.38 73238. undefined 598.23 1351.9 1.8542 670.00 0.0014925 598.23 1351.9 1.8542 2.6289 2.9764 2175.0 -0.0049601 385.88 0.28092 670.00 0.0014925 598.23 1351.9 1.8542 2.6289 2.9764 2175.0 -0.0049601 385.88 0.28092
223.38 73404. undefined 600.86 1356.2 1.8595 670.00 0.0014925 600.86 1356.2 1.8595 2.6327 2.9799 2175.9 -0.0049543 385.76 0.28127 670.00 0.0014925 600.86 1356.2 1.8595 2.6327 2.9799 2175.9 -0.0049543 385.76 0.28127
224.38 73570. undefined 603.50 1360.6 1.8648 670.00 0.0014925 603.50 1360.6 1.8648 2.6365 2.9833 2176.8 -0.0049486 385.64 0.28161 670.00 0.0014925 603.50 1360.6 1.8648 2.6365 2.9833 2176.8 -0.0049486 385.64 0.28161
225.38 73736. undefined 606.14 1364.9 1.8701 670.00 0.0014925 606.14 1364.9 1.8701 2.6402 2.9867 2177.7 -0.0049428 385.53 0.28195 670.00 0.0014925 606.14 1364.9 1.8701 2.6402 2.9867 2177.7 -0.0049428 385.53 0.28195
226.38 73902. undefined 608.78 1369.3 1.8754 670.00 0.0014925 608.78 1369.3 1.8754 2.6440 2.9902 2178.5 -0.0049371 385.41 0.28229 670.00 0.0014925 608.78 1369.3 1.8754 2.6440 2.9902 2178.5 -0.0049371 385.41 0.28229
227.38 74068. undefined 611.43 1373.6 1.8807 670.00 0.0014925 611.43 1373.6 1.8807 2.6477 2.9936 2179.4 -0.0049314 385.30 0.28264 670.00 0.0014925 611.43 1373.6 1.8807 2.6477 2.9936 2179.4 -0.0049314 385.30 0.28264
228.38 74233. undefined 614.07 1378.0 1.8860 670.00 0.0014925 614.07 1378.0 1.8860 2.6514 2.9971 2180.3 -0.0049257 385.19 0.28298 670.00 0.0014925 614.07 1378.0 1.8860 2.6514 2.9971 2180.3 -0.0049257 385.19 0.28298
229.38 74398. undefined 616.73 1382.3 1.8913 670.00 0.0014925 616.73 1382.3 1.8913 2.6551 3.0005 2181.2 -0.0049200 385.07 0.28332 670.00 0.0014925 616.73 1382.3 1.8913 2.6551 3.0005 2181.2 -0.0049200 385.07 0.28332
230.38 74564. undefined 619.38 1386.7 1.8965 670.00 0.0014925 619.38 1386.7 1.8965 2.6589 3.0039 2182.1 -0.0049144 384.96 0.28367 670.00 0.0014925 619.38 1386.7 1.8965 2.6589 3.0039 2182.1 -0.0049144 384.96 0.28367
231.38 74729. undefined 622.05 1391.1 1.9018 670.00 0.0014925 622.05 1391.1 1.9018 2.6626 3.0073 2182.9 -0.0049087 384.85 0.28401 670.00 0.0014925 622.05 1391.1 1.9018 2.6626 3.0073 2182.9 -0.0049087 384.85 0.28401
232.38 74894. undefined 624.71 1395.4 1.9071 670.00 0.0014925 624.71 1395.4 1.9071 2.6663 3.0108 2183.8 -0.0049031 384.74 0.28436 670.00 0.0014925 624.71 1395.4 1.9071 2.6663 3.0108 2183.8 -0.0049031 384.74 0.28436
233.38 75058. undefined 627.38 1399.8 1.9124 670.00 0.0014925 627.38 1399.8 1.9124 2.6700 3.0142 2184.7 -0.0048975 384.63 0.28470 670.00 0.0014925 627.38 1399.8 1.9124 2.6700 3.0142 2184.7 -0.0048975 384.63 0.28470
234.38 75223. undefined 630.05 1404.1 1.9176 670.00 0.0014925 630.05 1404.1 1.9176 2.6737 3.0176 2185.6 -0.0048919 384.52 0.28505 670.00 0.0014925 630.05 1404.1 1.9176 2.6737 3.0176 2185.6 -0.0048919 384.52 0.28505
235.38 75388. undefined 632.73 1408.5 1.9229 670.00 0.0014925 632.73 1408.5 1.9229 2.6774 3.0210 2186.4 -0.0048864 384.41 0.28539 670.00 0.0014925 632.73 1408.5 1.9229 2.6774 3.0210 2186.4 -0.0048864 384.41 0.28539
236.38 75552. undefined 635.40 1412.9 1.9282 670.00 0.0014925 635.40 1412.9 1.9282 2.6811 3.0244 2187.3 -0.0048809 384.31 0.28574 670.00 0.0014925 635.40 1412.9 1.9282 2.6811 3.0244 2187.3 -0.0048809 384.31 0.28574
237.38 75716. undefined 638.09 1417.3 1.9334 670.00 0.0014925 638.09 1417.3 1.9334 2.6848 3.0278 2188.2 -0.0048753 384.20 0.28608 670.00 0.0014925 638.09 1417.3 1.9334 2.6848 3.0278 2188.2 -0.0048753 384.20 0.28608
238.38 75880. undefined 640.77 1421.6 1.9387 670.00 0.0014925 640.77 1421.6 1.9387 2.6885 3.0312 2189.0 -0.0048698 384.09 0.28643 670.00 0.0014925 640.77 1421.6 1.9387 2.6885 3.0312 2189.0 -0.0048698 384.09 0.28643
239.38 76044. undefined 643.46 1426.0 1.9439 670.00 0.0014925 643.46 1426.0 1.9439 2.6921 3.0346 2189.9 -0.0048644 383.99 0.28678 670.00 0.0014925 643.46 1426.0 1.9439 2.6921 3.0346 2189.9 -0.0048644 383.99 0.28678
240.38 76208. undefined 646.16 1430.4 1.9492 670.00 0.0014925 646.16 1430.4 1.9492 2.6958 3.0379 2190.8 -0.0048589 383.88 0.28712 670.00 0.0014925 646.16 1430.4 1.9492 2.6958 3.0379 2190.8 -0.0048589 383.88 0.28712
241.38 76371. undefined 648.86 1434.8 1.9544 670.00 0.0014925 648.86 1434.8 1.9544 2.6995 3.0413 2191.6 -0.0048534 383.78 0.28747 670.00 0.0014925 648.86 1434.8 1.9544 2.6995 3.0413 2191.6 -0.0048534 383.78 0.28747
242.38 76535. undefined 651.56 1439.2 1.9597 670.00 0.0014925 651.56 1439.2 1.9597 2.7031 3.0447 2192.5 -0.0048480 383.68 0.28782 670.00 0.0014925 651.56 1439.2 1.9597 2.7031 3.0447 2192.5 -0.0048480 383.68 0.28782
243.38 76698. undefined 654.26 1443.5 1.9649 670.00 0.0014925 654.26 1443.5 1.9649 2.7068 3.0481 2193.4 -0.0048426 383.57 0.28816 670.00 0.0014925 654.26 1443.5 1.9649 2.7068 3.0481 2193.4 -0.0048426 383.57 0.28816
244.38 76861. undefined 656.97 1447.9 1.9702 670.00 0.0014925 656.97 1447.9 1.9702 2.7104 3.0514 2194.2 -0.0048372 383.47 0.28851 670.00 0.0014925 656.97 1447.9 1.9702 2.7104 3.0514 2194.2 -0.0048372 383.47 0.28851
245.38 77024. undefined 659.68 1452.3 1.9754 670.00 0.0014925 659.68 1452.3 1.9754 2.7141 3.0548 2195.1 -0.0048319 383.37 0.28886 670.00 0.0014925 659.68 1452.3 1.9754 2.7141 3.0548 2195.1 -0.0048319 383.37 0.28886
246.38 77187. undefined 662.40 1456.7 1.9806 670.00 0.0014925 662.40 1456.7 1.9806 2.7177 3.0581 2196.0 -0.0048265 383.27 0.28921 670.00 0.0014925 662.40 1456.7 1.9806 2.7177 3.0581 2196.0 -0.0048265 383.27 0.28921
247.38 77350. undefined 665.12 1461.1 1.9859 670.00 0.0014925 665.12 1461.1 1.9859 2.7213 3.0615 2196.8 -0.0048212 383.17 0.28956 670.00 0.0014925 665.12 1461.1 1.9859 2.7213 3.0615 2196.8 -0.0048212 383.17 0.28956
248.38 77513. undefined 667.84 1465.5 1.9911 670.00 0.0014925 667.84 1465.5 1.9911 2.7250 3.0649 2197.7 -0.0048159 383.07 0.28991 670.00 0.0014925 667.84 1465.5 1.9911 2.7250 3.0649 2197.7 -0.0048159 383.07 0.28991
249.38 77675. undefined 670.57 1469.9 1.9963 670.00 0.0014925 670.57 1469.9 1.9963 2.7286 3.0682 2198.5 -0.0048106 382.97 0.29026 670.00 0.0014925 670.57 1469.9 1.9963 2.7286 3.0682 2198.5 -0.0048106 382.97 0.29026
250.38 77838. undefined 673.30 1474.3 2.0015 670.00 0.0014925 673.30 1474.3 2.0015 2.7322 3.0715 2199.4 -0.0048053 382.87 0.29061 670.00 0.0014925 673.30 1474.3 2.0015 2.7322 3.0715 2199.4 -0.0048053 382.87 0.29061
251.38 78000. undefined 676.03 1478.7 2.0067 670.00 0.0014925 676.03 1478.7 2.0067 2.7358 3.0749 2200.2 -0.0048000 382.78 0.29096 670.00 0.0014925 676.03 1478.7 2.0067 2.7358 3.0749 2200.2 -0.0048000 382.78 0.29096
252.38 78162. undefined 678.77 1483.1 2.0120 670.00 0.0014925 678.77 1483.1 2.0120 2.7394 3.0782 2201.1 -0.0047948 382.68 0.29131 670.00 0.0014925 678.77 1483.1 2.0120 2.7394 3.0782 2201.1 -0.0047948 382.68 0.29131
253.38 78324. undefined 681.51 1487.5 2.0172 670.00 0.0014925 681.51 1487.5 2.0172 2.7430 3.0815 2202.0 -0.0047895 382.59 0.29166 670.00 0.0014925 681.51 1487.5 2.0172 2.7430 3.0815 2202.0 -0.0047895 382.59 0.29166
254.38 78486. undefined 684.26 1491.9 2.0224 670.00 0.0014925 684.26 1491.9 2.0224 2.7466 3.0849 2202.8 -0.0047843 382.49 0.29201 670.00 0.0014925 684.26 1491.9 2.0224 2.7466 3.0849 2202.8 -0.0047843 382.49 0.29201
255.38 78647. undefined 687.01 1496.3 2.0276 670.00 0.0014925 687.01 1496.3 2.0276 2.7502 3.0882 2203.7 -0.0047791 382.40 0.29236 670.00 0.0014925 687.01 1496.3 2.0276 2.7502 3.0882 2203.7 -0.0047791 382.40 0.29236
256.38 78809. undefined 689.76 1500.8 2.0328 670.00 0.0014925 689.76 1500.8 2.0328 2.7538 3.0915 2204.5 -0.0047740 382.30 0.29271 670.00 0.0014925 689.76 1500.8 2.0328 2.7538 3.0915 2204.5 -0.0047740 382.30 0.29271
257.38 78970. undefined 692.51 1505.2 2.0380 670.00 0.0014925 692.51 1505.2 2.0380 2.7574 3.0948 2205.4 -0.0047688 382.21 0.29306 670.00 0.0014925 692.51 1505.2 2.0380 2.7574 3.0948 2205.4 -0.0047688 382.21 0.29306
258.38 79132. undefined 695.27 1509.6 2.0432 670.00 0.0014925 695.27 1509.6 2.0432 2.7610 3.0981 2206.2 -0.0047636 382.12 0.29341 670.00 0.0014925 695.27 1509.6 2.0432 2.7610 3.0981 2206.2 -0.0047636 382.12 0.29341
259.38 79293. undefined 698.04 1514.0 2.0484 670.00 0.0014925 698.04 1514.0 2.0484 2.7645 3.1014 2207.1 -0.0047585 382.02 0.29377 670.00 0.0014925 698.04 1514.0 2.0484 2.7645 3.1014 2207.1 -0.0047585 382.02 0.29377
260.38 79454. undefined 700.80 1518.4 2.0536 670.00 0.0014925 700.80 1518.4 2.0536 2.7681 3.1047 2207.9 -0.0047534 381.93 0.29412 670.00 0.0014925 700.80 1518.4 2.0536 2.7681 3.1047 2207.9 -0.0047534 381.93 0.29412
261.38 79614. undefined 703.57 1522.9 2.0587 670.00 0.0014925 703.57 1522.9 2.0587 2.7717 3.1080 2208.8 -0.0047483 381.84 0.29447 670.00 0.0014925 703.57 1522.9 2.0587 2.7717 3.1080 2208.8 -0.0047483 381.84 0.29447
262.38 79775. undefined 706.34 1527.3 2.0639 670.00 0.0014925 706.34 1527.3 2.0639 2.7752 3.1113 2209.6 -0.0047433 381.75 0.29483 670.00 0.0014925 706.34 1527.3 2.0639 2.7752 3.1113 2209.6 -0.0047433 381.75 0.29483
263.38 79936. undefined 709.12 1531.7 2.0691 670.00 0.0014925 709.12 1531.7 2.0691 2.7788 3.1146 2210.5 -0.0047382 381.66 0.29518 670.00 0.0014925 709.12 1531.7 2.0691 2.7788 3.1146 2210.5 -0.0047382 381.66 0.29518
264.38 80096. undefined 711.90 1536.1 2.0743 670.00 0.0014925 711.90 1536.1 2.0743 2.7823 3.1179 2211.3 -0.0047332 381.57 0.29553 670.00 0.0014925 711.90 1536.1 2.0743 2.7823 3.1179 2211.3 -0.0047332 381.57 0.29553
265.38 80257. undefined 714.69 1540.6 2.0795 670.00 0.0014925 714.69 1540.6 2.0795 2.7859 3.1211 2212.2 -0.0047281 381.48 0.29589 670.00 0.0014925 714.69 1540.6 2.0795 2.7859 3.1211 2212.2 -0.0047281 381.48 0.29589
266.38 80417. undefined 717.47 1545.0 2.0846 670.00 0.0014925 717.47 1545.0 2.0846 2.7894 3.1244 2213.0 -0.0047231 381.40 0.29624 670.00 0.0014925 717.47 1545.0 2.0846 2.7894 3.1244 2213.0 -0.0047231 381.40 0.29624
267.38 80577. undefined 720.27 1549.5 2.0898 670.00 0.0014925 720.27 1549.5 2.0898 2.7929 3.1277 2213.8 -0.0047181 381.31 0.29660 670.00 0.0014925 720.27 1549.5 2.0898 2.7929 3.1277 2213.8 -0.0047181 381.31 0.29660
268.38 80737. undefined 723.06 1553.9 2.0950 670.00 0.0014925 723.06 1553.9 2.0950 2.7965 3.1310 2214.7 -0.0047132 381.22 0.29695 670.00 0.0014925 723.06 1553.9 2.0950 2.7965 3.1310 2214.7 -0.0047132 381.22 0.29695
269.38 80896. undefined 725.86 1558.3 2.1001 670.00 0.0014925 725.86 1558.3 2.1001 2.8000 3.1342 2215.5 -0.0047082 381.13 0.29731 670.00 0.0014925 725.86 1558.3 2.1001 2.8000 3.1342 2215.5 -0.0047082 381.13 0.29731
270.38 81056. undefined 728.66 1562.8 2.1053 670.00 0.0014925 728.66 1562.8 2.1053 2.8035 3.1375 2216.4 -0.0047033 381.05 0.29766 670.00 0.0014925 728.66 1562.8 2.1053 2.8035 3.1375 2216.4 -0.0047033 381.05 0.29766
271.38 81216. undefined 731.47 1567.2 2.1105 670.00 0.0014925 731.47 1567.2 2.1105 2.8070 3.1407 2217.2 -0.0046983 380.96 0.29802 670.00 0.0014925 731.47 1567.2 2.1105 2.8070 3.1407 2217.2 -0.0046983 380.96 0.29802
272.38 81375. undefined 734.27 1571.7 2.1156 670.00 0.0014925 734.27 1571.7 2.1156 2.8105 3.1440 2218.0 -0.0046934 380.88 0.29837 670.00 0.0014925 734.27 1571.7 2.1156 2.8105 3.1440 2218.0 -0.0046934 380.88 0.29837
273.38 81534. undefined 737.09 1576.1 2.1208 670.00 0.0014925 737.09 1576.1 2.1208 2.8140 3.1472 2218.9 -0.0046885 380.80 0.29873 670.00 0.0014925 737.09 1576.1 2.1208 2.8140 3.1472 2218.9 -0.0046885 380.80 0.29873
274.38 81693. undefined 739.90 1580.6 2.1259 670.00 0.0014925 739.90 1580.6 2.1259 2.8175 3.1505 2219.7 -0.0046837 380.71 0.29909 670.00 0.0014925 739.90 1580.6 2.1259 2.8175 3.1505 2219.7 -0.0046837 380.71 0.29909
275.38 81852. undefined 742.72 1585.0 2.1310 670.00 0.0014925 742.72 1585.0 2.1310 2.8210 3.1537 2220.6 -0.0046788 380.63 0.29944 670.00 0.0014925 742.72 1585.0 2.1310 2.8210 3.1537 2220.6 -0.0046788 380.63 0.29944
276.38 82011. undefined 745.54 1589.5 2.1362 670.00 0.0014925 745.54 1589.5 2.1362 2.8245 3.1569 2221.4 -0.0046740 380.55 0.29980 670.00 0.0014925 745.54 1589.5 2.1362 2.8245 3.1569 2221.4 -0.0046740 380.55 0.29980
277.38 82170. undefined 748.37 1594.0 2.1413 670.00 0.0014925 748.37 1594.0 2.1413 2.8280 3.1602 2222.2 -0.0046691 380.46 0.30016 670.00 0.0014925 748.37 1594.0 2.1413 2.8280 3.1602 2222.2 -0.0046691 380.46 0.30016
278.38 82329. undefined 751.20 1598.4 2.1465 670.00 0.0014925 751.20 1598.4 2.1465 2.8314 3.1634 2223.1 -0.0046643 380.38 0.30052 670.00 0.0014925 751.20 1598.4 2.1465 2.8314 3.1634 2223.1 -0.0046643 380.38 0.30052
279.38 82487. undefined 754.03 1602.9 2.1516 670.00 0.0014925 754.03 1602.9 2.1516 2.8349 3.1666 2223.9 -0.0046595 380.30 0.30087 670.00 0.0014925 754.03 1602.9 2.1516 2.8349 3.1666 2223.9 -0.0046595 380.30 0.30087
280.38 82646. undefined 756.87 1607.3 2.1567 670.00 0.0014925 756.87 1607.3 2.1567 2.8384 3.1698 2224.7 -0.0046547 380.22 0.30123 670.00 0.0014925 756.87 1607.3 2.1567 2.8384 3.1698 2224.7 -0.0046547 380.22 0.30123
281.38 82804. undefined 759.71 1611.8 2.1618 670.00 0.0014925 759.71 1611.8 2.1618 2.8418 3.1730 2225.6 -0.0046500 380.14 0.30159 670.00 0.0014925 759.71 1611.8 2.1618 2.8418 3.1730 2225.6 -0.0046500 380.14 0.30159
282.38 82962. undefined 762.55 1616.3 2.1670 670.00 0.0014925 762.55 1616.3 2.1670 2.8453 3.1762 2226.4 -0.0046452 380.06 0.30183 670.00 0.0014925 762.55 1616.3 2.1670 2.8453 3.1762 2226.4 -0.0046452 380.06 0.30183
283.38 83120. undefined 765.40 1620.8 2.1721 670.00 0.0014925 765.40 1620.8 2.1721 2.8487 3.1794 2227.2 -0.0046405 379.98 0.30219 670.00 0.0014925 765.40 1620.8 2.1721 2.8487 3.1794 2227.2 -0.0046405 379.98 0.30219
284.38 83278. undefined 768.25 1625.2 2.1772 670.00 0.0014925 768.25 1625.2 2.1772 2.8522 3.1826 2228.1 -0.0046358 379.91 0.30255 670.00 0.0014925 768.25 1625.2 2.1772 2.8522 3.1826 2228.1 -0.0046358 379.91 0.30255
285.38 83435. undefined 771.10 1629.7 2.1823 670.00 0.0014925 771.10 1629.7 2.1823 2.8556 3.1858 2228.9 -0.0046311 379.83 0.30291 670.00 0.0014925 771.10 1629.7 2.1823 2.8556 3.1858 2228.9 -0.0046311 379.83 0.30291
286.38 83593. undefined 773.96 1634.2 2.1874 670.00 0.0014925 773.96 1634.2 2.1874 2.8591 3.1890 2229.7 -0.0046264 379.75 0.30327 670.00 0.0014925 773.96 1634.2 2.1874 2.8591 3.1890 2229.7 -0.0046264 379.75 0.30327
287.38 83751. undefined 776.82 1638.7 2.1925 670.00 0.0014925 776.82 1638.7 2.1925 2.8625 3.1922 2230.5 -0.0046217 379.67 0.30363 670.00 0.0014925 776.82 1638.7 2.1925 2.8625 3.1922 2230.5 -0.0046217 379.67 0.30363
288.38 83908. undefined 779.69 1643.2 2.1976 670.00 0.0014925 779.69 1643.2 2.1976 2.8659 3.1954 2231.4 -0.0046170 379.60 0.30399 670.00 0.0014925 779.69 1643.2 2.1976 2.8659 3.1954 2231.4 -0.0046170 379.60 0.30399
289.38 84065. undefined 782.55 1647.6 2.2028 670.00 0.0014925 782.55 1647.6 2.2028 2.8693 3.1985 2232.2 -0.0046124 379.52 0.30435 670.00 0.0014925 782.55 1647.6 2.2028 2.8693 3.1985 2232.2 -0.0046124 379.52 0.30435
290.38 84222. undefined 785.43 1652.1 2.2079 670.00 0.0014925 785.43 1652.1 2.2079 2.8728 3.2017 2233.0 -0.0046078 379.45 0.30471 670.00 0.0014925 785.43 1652.1 2.2079 2.8728 3.2017 2233.0 -0.0046078 379.45 0.30471
291.38 84379. undefined 788.30 1656.6 2.2129 670.00 0.0014925 788.30 1656.6 2.2129 2.8762 3.2049 2233.8 -0.0046031 379.37 0.30507 670.00 0.0014925 788.30 1656.6 2.2129 2.8762 3.2049 2233.8 -0.0046031 379.37 0.30507
292.38 84536. undefined 791.18 1661.1 2.2180 670.00 0.0014925 791.18 1661.1 2.2180 2.8796 3.2080 2234.7 -0.0045985 379.30 0.30543 670.00 0.0014925 791.18 1661.1 2.2180 2.8796 3.2080 2234.7 -0.0045985 379.30 0.30543
293.38 84693. undefined 794.06 1665.6 2.2231 670.00 0.0014925 794.06 1665.6 2.2231 2.8830 3.2112 2235.5 -0.0045940 379.22 0.30580 670.00 0.0014925 794.06 1665.6 2.2231 2.8830 3.2112 2235.5 -0.0045940 379.22 0.30580
294.38 84849. undefined 796.94 1670.1 2.2282 670.00 0.0014925 796.94 1670.1 2.2282 2.8864 3.2144 2236.3 -0.0045894 379.15 0.30616 670.00 0.0014925 796.94 1670.1 2.2282 2.8864 3.2144 2236.3 -0.0045894 379.15 0.30616
295.38 85006. undefined 799.83 1674.6 2.2333 670.00 0.0014925 799.83 1674.6 2.2333 2.8898 3.2175 2237.1 -0.0045848 379.08 0.30652 670.00 0.0014925 799.83 1674.6 2.2333 2.8898 3.2175 2237.1 -0.0045848 379.08 0.30652
296.38 85162. undefined 802.72 1679.1 2.2384 670.00 0.0014925 802.72 1679.1 2.2384 2.8931 3.2207 2237.9 -0.0045803 379.01 0.30688 670.00 0.0014925 802.72 1679.1 2.2384 2.8931 3.2207 2237.9 -0.0045803 379.01 0.30688
297.38 85319. undefined 805.62 1683.6 2.2435 670.00 0.0014925 805.62 1683.6 2.2435 2.8965 3.2238 2238.8 -0.0045758 378.93 0.30725 670.00 0.0014925 805.62 1683.6 2.2435 2.8965 3.2238 2238.8 -0.0045758 378.93 0.30725
298.38 85475. undefined 808.52 1688.1 2.2485 670.00 0.0014925 808.52 1688.1 2.2485 2.8999 3.2269 2239.6 -0.0045713 378.86 0.30761 670.00 0.0014925 808.52 1688.1 2.2485 2.8999 3.2269 2239.6 -0.0045713 378.86 0.30761
299.38 85631. undefined 811.42 1692.6 2.2536 670.00 0.0014925 811.42 1692.6 2.2536 2.9033 3.2301 2240.4 -0.0045668 378.79 0.30797 670.00 0.0014925 811.42 1692.6 2.2536 2.9033 3.2301 2240.4 -0.0045668 378.79 0.30797
300.38 85787. undefined 814.32 1697.1 2.2587 670.00 0.0014925 814.32 1697.1 2.2587 2.9066 3.2332 2241.2 -0.0045623 378.72 0.30834 670.00 0.0014925 814.32 1697.1 2.2587 2.9066 3.2332 2241.2 -0.0045623 378.72 0.30834