Temperature (C) Pressure (psia) Quality (l+v) Internal Energy (l+v, kJ/kg) Enthalpy (l+v, kJ/kg) Entropy (l+v, J/g*K) Density (l, kg/m3) Volume (l, m3/kg) Internal Energy (l, kJ/kg) Enthalpy (l, kJ/kg) Entropy (l, J/g*K) Cv (l, J/g*K) Cp (l, J/g*K) Sound Spd. (l, m/s) Joule-Thomson (l, F/psia) Viscosity (l, uPa*s) Therm. Cond. (l, W/m*K) Density (v, kg/m3) Volume (v, m3/kg) Internal Energy (v, kJ/kg) Enthalpy (v, kJ/kg) Entropy (v, J/g*K) Cv (v, J/g*K) Cp (v, J/g*K) Sound Spd. (v, m/s) Joule-Thomson (v, F/psia) Viscosity (v, uPa*s) Therm. Cond. (v, W/m*K)
-187.62 2.4953e-08 1.1369e-12 -196.64 -196.64 -1.3959 733.13 0.0013640 -196.64 -196.64 -1.3959 1.3553 1.9158 2136.4 -0.0077592 10960. 0.20792 1.0669e-08 9.3732e+07 350.13 366.26 5.1858 0.69067 0.87923 143.28 6.1051 2.3259 0.0017061
-186.62 3.7339e-08 1.6509e-12 -194.73 -194.73 -1.3736 732.08 0.0013660 -194.73 -194.73 -1.3736 1.3539 1.9166 2129.6 -0.0077546 10073. 0.20765 1.5780e-08 6.3371e+07 350.82 367.14 5.1200 0.69462 0.88317 144.03 5.9178 2.3534 0.0017533
-185.62 5.5322e-08 2.3730e-12 -192.81 -192.81 -1.3516 731.04 0.0013679 -192.81 -192.81 -1.3516 1.3525 1.9174 2122.9 -0.0077498 9276.1 0.20737 2.3112e-08 4.3267e+07 351.52 368.02 5.0561 0.69857 0.88713 144.77 5.7383 2.3808 0.0018007
-184.62 8.1182e-08 3.3775e-12 -190.89 -190.89 -1.3298 730.00 0.0013699 -190.89 -190.89 -1.3298 1.3513 1.9182 2116.1 -0.0077448 8557.8 0.20708 3.3533e-08 2.9821e+07 352.22 368.91 4.9939 0.70253 0.89108 145.51 5.5662 2.4083 0.0018485
-183.62 1.1803e-07 4.7617e-12 -188.97 -188.97 -1.3083 728.96 0.0013718 -188.97 -188.97 -1.3083 1.3501 1.9191 2109.3 -0.0077395 7909.8 0.20678 4.8211e-08 2.0742e+07 352.92 369.81 4.9333 0.70648 0.89504 146.24 5.4011 2.4357 0.0018965
-182.62 1.7009e-07 6.6514e-12 -187.05 -187.05 -1.2869 727.92 0.0013738 -187.05 -187.05 -1.2869 1.3490 1.9201 2102.5 -0.0077340 7324.3 0.20647 6.8704e-08 1.4555e+07 353.63 370.70 4.8744 0.71043 0.89899 146.97 5.2426 2.4632 0.0019448
-181.62 2.4299e-07 9.2082e-12 -185.13 -185.13 -1.2658 726.88 0.0013757 -185.13 -185.13 -1.2658 1.3480 1.9210 2095.7 -0.0077283 6794.5 0.20616 9.7079e-08 1.0301e+07 354.35 371.60 4.8170 0.71438 0.90294 147.69 5.0904 2.4906 0.0019934
-180.62 3.4425e-07 1.2638e-11 -183.21 -183.21 -1.2450 725.85 0.0013777 -183.21 -183.21 -1.2450 1.3470 1.9220 2088.9 -0.0077225 6314.4 0.20584 1.3605e-07 7.3504e+06 355.06 372.51 4.7612 0.71833 0.90688 148.41 4.9442 2.5181 0.0020423
-179.62 4.8378e-07 1.7198e-11 -181.29 -181.29 -1.2243 724.81 0.0013797 -181.29 -181.29 -1.2243 1.3461 1.9231 2082.0 -0.0077164 5878.8 0.20551 1.8915e-07 5.2868e+06 355.78 373.42 4.7068 0.72227 0.91082 149.13 4.8038 2.5456 0.0020915
-178.62 6.7459e-07 2.3214e-11 -179.37 -179.37 -1.2038 723.78 0.0013816 -179.37 -179.37 -1.2038 1.3453 1.9241 2075.2 -0.0077102 5482.9 0.20517 2.6096e-07 3.8320e+06 356.51 374.33 4.6538 0.72620 0.91475 149.84 4.6688 2.5731 0.0021410
-177.62 9.3358e-07 3.1085e-11 -177.44 -177.44 -1.1836 722.75 0.0013836 -177.44 -177.44 -1.1836 1.3445 1.9252 2068.4 -0.0077039 5122.6 0.20483 3.5737e-07 2.7982e+06 357.23 375.25 4.6022 0.73012 0.91867 150.54 4.5390 2.6005 0.0021907
-176.62 1.2826e-06 4.1304e-11 -175.52 -175.52 -1.1635 721.72 0.0013856 -175.52 -175.52 -1.1635 1.3437 1.9263 2061.5 -0.0076973 4794.1 0.20447 4.8588e-07 2.0581e+06 357.97 376.17 4.5519 0.73403 0.92258 151.25 4.4142 2.6280 0.0022408
-175.62 1.7496e-06 5.4469e-11 -173.59 -173.59 -1.1437 720.69 0.0013876 -173.59 -173.59 -1.1437 1.3430 1.9274 2054.7 -0.0076907 4494.3 0.20411 6.5601e-07 1.5244e+06 358.70 377.09 4.5029 0.73792 0.92648 151.95 4.2941 2.6555 0.0022912
-174.62 2.3705e-06 7.1303e-11 -171.66 -171.66 -1.1240 719.66 0.0013895 -171.66 -171.66 -1.1240 1.3423 1.9286 2047.9 -0.0076838 4220.2 0.20375 8.7976e-07 1.1367e+06 359.44 378.02 4.4551 0.74181 0.93036 152.64 4.1784 2.6830 0.0023418
-173.62 3.1903e-06 9.2671e-11 -169.73 -169.73 -1.1045 718.64 0.0013915 -169.73 -169.73 -1.1045 1.3417 1.9298 2041.0 -0.0076769 3969.3 0.20338 1.1721e-06 8.5314e+05 360.19 378.95 4.4085 0.74568 0.93423 153.33 4.0671 2.7105 0.0023928
-172.62 4.2661e-06 1.1960e-10 -167.80 -167.80 -1.0852 717.61 0.0013935 -167.80 -167.80 -1.0852 1.3411 1.9310 2034.2 -0.0076698 3739.3 0.20300 1.5518e-06 6.4441e+05 360.93 379.89 4.3631 0.74953 0.93809 154.02 3.9599 2.7379 0.0024440
-171.62 5.6692e-06 1.5330e-10 -165.87 -165.87 -1.0661 716.58 0.0013955 -165.87 -165.87 -1.0661 1.3405 1.9322 2027.3 -0.0076625 3528.0 0.20261 2.0419e-06 4.8974e+05 361.69 380.83 4.3188 0.75337 0.94193 154.71 3.8566 2.7654 0.0024955
-170.62 7.4884e-06 1.9519e-10 -163.94 -163.94 -1.0472 715.56 0.0013975 -163.94 -163.94 -1.0472 1.3400 1.9334 2020.5 -0.0076552 3333.8 0.20222 2.6708e-06 3.7442e+05 362.44 381.77 4.2755 0.75720 0.94575 155.39 3.7570 2.7929 0.0025473
-169.62 9.8334e-06 2.4689e-10 -162.00 -162.00 -1.0284 714.54 0.0013995 -162.00 -162.00 -1.0284 1.3395 1.9347 2013.6 -0.0076477 3154.9 0.20182 3.4733e-06 2.8791e+05 363.20 382.72 4.2334 0.76100 0.94956 156.07 3.6609 2.8204 0.0025994
-168.62 1.2839e-05 3.1027e-10 -160.07 -160.07 -1.0098 713.52 0.0014015 -160.07 -160.07 -1.0098 1.3390 1.9359 2006.8 -0.0076401 2989.9 0.20141 4.4917e-06 2.2263e+05 363.96 383.67 4.1922 0.76479 0.95335 156.74 3.5683 2.8479 0.0026518
-167.62 1.6672e-05 3.8746e-10 -158.13 -158.13 -0.99134 712.49 0.0014035 -158.13 -158.13 -0.99134 1.3386 1.9372 2000.0 -0.0076323 2837.5 0.20100 5.7771e-06 1.7310e+05 364.73 384.63 4.1521 0.76856 0.95712 157.41 3.4790 2.8754 0.0027045
-166.62 2.1533e-05 4.8085e-10 -156.19 -156.19 -0.97306 711.47 0.0014055 -156.19 -156.19 -0.97306 1.3382 1.9385 1993.1 -0.0076245 2696.5 0.20058 7.3914e-06 1.3529e+05 365.50 385.59 4.1129 0.77232 0.96087 158.08 3.3927 2.9029 0.0027575
-165.62 2.7666e-05 5.9310e-10 -154.25 -154.25 -0.95494 710.45 0.0014075 -154.25 -154.25 -0.95494 1.3378 1.9398 1986.3 -0.0076165 2566.0 0.20016 9.4084e-06 1.0629e+05 366.27 386.55 4.0746 0.77605 0.96460 158.75 3.3095 2.9304 0.0028108
-164.62 3.5367e-05 7.2711e-10 -152.31 -152.31 -0.93698 709.44 0.0014096 -152.31 -152.31 -0.93698 1.3375 1.9411 1979.4 -0.0076084 2444.9 0.19973 1.1916e-05 83918. 367.05 387.52 4.0372 0.77976 0.96832 159.41 3.2291 2.9579 0.0028643
-163.62 4.4989e-05 8.8607e-10 -150.37 -150.37 -0.91917 708.42 0.0014116 -150.37 -150.37 -0.91917 1.3371 1.9424 1972.6 -0.0076002 2332.3 0.19930 1.5020e-05 66577. 367.83 388.49 4.0008 0.78346 0.97201 160.07 3.1514 2.9854 0.0029182
-162.62 5.6956e-05 1.0734e-09 -148.43 -148.43 -0.90151 707.40 0.0014136 -148.43 -148.43 -0.90151 1.3368 1.9437 1965.8 -0.0075919 2227.7 0.19886 1.8844e-05 53068. 368.62 389.46 3.9651 0.78713 0.97569 160.72 3.0764 3.0129 0.0029723
-161.62 7.1773e-05 1.2926e-09 -146.48 -146.48 -0.88400 706.38 0.0014157 -146.48 -146.48 -0.88400 1.3365 1.9451 1959.0 -0.0075834 2130.2 0.19841 2.3533e-05 42494. 369.41 390.44 3.9304 0.79079 0.97935 161.38 3.0038 3.0404 0.0030268
-160.62 9.0036e-05 1.5475e-09 -144.54 -144.54 -0.86663 705.37 0.0014177 -144.54 -144.54 -0.86663 1.3363 1.9465 1952.1 -0.0075748 2039.2 0.19796 2.9258e-05 34178. 370.20 391.42 3.8964 0.79443 0.98298 162.03 2.9337 3.0679 0.0030815
-159.62 0.00011245 1.8417e-09 -142.59 -142.59 -0.84940 704.35 0.0014197 -142.59 -142.59 -0.84940 1.3360 1.9478 1945.3 -0.0075661 1954.2 0.19751 3.6221e-05 27609. 371.00 392.40 3.8632 0.79805 0.98660 162.68 2.8658 3.0955 0.0031365
-158.62 0.00013985 2.1789e-09 -140.64 -140.64 -0.83231 703.34 0.0014218 -140.64 -140.64 -0.83231 1.3358 1.9492 1938.5 -0.0075573 1874.8 0.19705 4.4652e-05 22395. 371.80 393.39 3.8307 0.80164 0.99020 163.32 2.8002 3.1230 0.0031918
-157.62 0.00017320 2.5626e-09 -138.69 -138.69 -0.81536 702.32 0.0014238 -138.69 -138.69 -0.81536 1.3356 1.9506 1931.7 -0.0075484 1800.3 0.19658 5.4822e-05 18241. 372.60 394.38 3.7990 0.80522 0.99378 163.96 2.7367 3.1505 0.0032474
-156.62 0.00021364 2.9959e-09 -136.74 -136.74 -0.79854 701.31 0.0014259 -136.74 -136.74 -0.79854 1.3354 1.9520 1924.9 -0.0075393 1730.5 0.19611 6.7040e-05 14916. 373.41 395.38 3.7680 0.80878 0.99734 164.60 2.6752 3.1780 0.0033033
-155.62 0.00026248 3.4810e-09 -134.79 -134.79 -0.78185 700.30 0.0014280 -134.79 -134.79 -0.78185 1.3352 1.9534 1918.1 -0.0075302 1664.9 0.19564 8.1666e-05 12245. 374.22 396.38 3.7377 0.81232 1.0009 165.24 2.6157 3.2055 0.0033595
-154.62 0.00032125 4.0196e-09 -132.83 -132.83 -0.76530 699.29 0.0014300 -132.83 -132.83 -0.76530 1.3350 1.9548 1911.3 -0.0075209 1603.3 0.19516 9.9109e-05 10090. 375.03 397.38 3.7081 0.81585 1.0044 165.87 2.5580 3.2330 0.0034160
-153.62 0.00039171 4.6118e-09 -130.88 -130.88 -0.74887 698.27 0.0014321 -130.88 -130.88 -0.74887 1.3349 1.9563 1904.5 -0.0075114 1545.3 0.19468 0.00011984 8344.6 375.85 398.39 3.6792 0.81935 1.0079 166.50 2.5022 3.2606 0.0034727
-152.62 0.00047590 5.2565e-09 -128.92 -128.92 -0.73256 697.26 0.0014342 -128.92 -128.92 -0.73256 1.3348 1.9577 1897.8 -0.0075019 1490.6 0.19419 0.00014439 6925.9 376.67 399.40 3.6509 0.82284 1.0114 167.13 2.4481 3.2881 0.0035298
-151.62 0.00057613 5.9500e-09 -126.96 -126.96 -0.71638 696.25 0.0014363 -126.96 -126.96 -0.71638 1.3346 1.9592 1891.0 -0.0074922 1438.9 0.19370 0.00017336 5768.4 377.49 400.41 3.6232 0.82631 1.0149 167.76 2.3957 3.3156 0.0035872
-150.62 0.00069507 6.6865e-09 -125.00 -125.00 -0.70032 695.24 0.0014384 -125.00 -125.00 -0.70032 1.3345 1.9606 1884.2 -0.0074824 1390.2 0.19320 0.00020744 4820.7 378.32 401.42 3.5962 0.82976 1.0183 168.38 2.3448 3.3431 0.0036448
-149.62 0.00083574 7.4565e-09 -123.04 -123.04 -0.68438 694.23 0.0014404 -123.04 -123.04 -0.68438 1.3345 1.9621 1877.4 -0.0074724 1344.0 0.19270 0.00024740 4042.0 379.15 402.44 3.5697 0.83319 1.0218 169.00 2.2956 3.3706 0.0037027
-148.62 0.0010016 8.2468e-09 -121.08 -121.08 -0.66855 693.22 0.0014425 -121.08 -121.08 -0.66855 1.3344 1.9636 1870.7 -0.0074623 1300.3 0.19220 0.00029412 3400.0 379.99 403.47 3.5438 0.83661 1.0252 169.62 2.2478 3.3982 0.0037610
-147.62 0.0011965 9.0393e-09 -119.11 -119.11 -0.65284 692.21 0.0014447 -119.11 -119.11 -0.65284 1.3343 1.9651 1863.9 -0.0074521 1258.9 0.19169 0.00034856 2869.0 380.83 404.49 3.5185 0.84001 1.0286 170.24 2.2014 3.4257 0.0038195
-146.62 0.0014249 9.8102e-09 -117.15 -117.15 -0.63724 691.20 0.0014468 -117.15 -117.15 -0.63724 1.3343 1.9666 1857.2 -0.0074417 1219.6 0.19117 0.00041181 2428.3 381.67 405.52 3.4938 0.84340 1.0320 170.85 2.1565 3.4532 0.0038783
-145.62 0.0016917 1.0529e-08 -115.18 -115.18 -0.62175 690.19 0.0014489 -115.18 -115.18 -0.62175 1.3343 1.9682 1850.4 -0.0074312 1182.3 0.19066 0.00048510 2061.4 382.51 406.56 3.4695 0.84677 1.0353 171.46 2.1128 3.4807 0.0039374
-144.62 0.0020026 1.1157e-08 -113.21 -113.21 -0.60637 689.18 0.0014510 -113.21 -113.21 -0.60637 1.3343 1.9697 1843.7 -0.0074206 1146.8 0.19014 0.00056976 1755.1 383.36 407.59 3.4458 0.85012 1.0387 172.07 2.0705 3.5082 0.0039967
-143.62 0.0023637 1.1646e-08 -111.24 -111.24 -0.59110 688.17 0.0014531 -111.24 -111.24 -0.59110 1.3343 1.9713 1836.9 -0.0074098 1113.0 0.18962 0.00066731 1498.6 384.21 408.63 3.4226 0.85346 1.0420 172.68 2.0294 3.5358 0.0040564
-142.62 0.0027820 1.1938e-08 -109.27 -109.27 -0.57593 687.16 0.0014553 -109.27 -109.27 -0.57593 1.3343 1.9728 1830.2 -0.0073988 1080.8 0.18909 0.00077939 1283.1 385.07 409.68 3.3999 0.85679 1.0454 173.28 1.9896 3.5633 0.0041164
-141.62 0.0032653 1.1961e-08 -107.30 -107.30 -0.56087 686.15 0.0014574 -107.30 -107.30 -0.56087 1.3343 1.9744 1823.5 -0.0073878 1050.1 0.18856 0.00090784 1101.5 385.93 410.72 3.3777 0.86011 1.0487 173.88 1.9508 3.5908 0.0041766
-140.62 0.0038222 1.1630e-08 -105.32 -105.32 -0.54591 685.14 0.0014596 -105.32 -105.32 -0.54591 1.3344 1.9760 1816.7 -0.0073765 1020.7 0.18803 0.0010547 948.16 386.79 411.77 3.3560 0.86341 1.0520 174.48 1.9133 3.6183 0.0042372
-139.62 0.0044623 1.0844e-08 -103.34 -103.34 -0.53105 684.13 0.0014617 -103.34 -103.34 -0.53105 1.3344 1.9776 1810.0 -0.0073651 992.74 0.18749 0.0012221 818.26 387.65 412.83 3.3347 0.86670 1.0553 175.08 1.8768 3.6459 0.0042980
-138.62 0.0051963 9.4813e-09 -101.37 -101.37 -0.51629 683.12 0.0014639 -101.37 -101.37 -0.51629 1.3345 1.9792 1803.3 -0.0073536 965.97 0.18695 0.0014125 707.94 388.52 413.88 3.3139 0.86998 1.0586 175.67 1.8413 3.6734 0.0043592
-137.62 0.0060358 7.4017e-09 -99.386 -99.386 -0.50162 682.11 0.0014660 -99.386 -99.386 -0.50162 1.3346 1.9808 1796.6 -0.0073419 940.35 0.18641 0.0016287 614.00 389.39 414.94 3.2935 0.87325 1.0619 176.26 1.8069 3.7009 0.0044206
-136.62 0.0069938 4.4406e-09 -97.404 -97.404 -0.48705 681.10 0.0014682 -97.404 -97.404 -0.48705 1.3347 1.9825 1789.9 -0.0073301 915.81 0.18586 0.0018733 533.80 390.26 416.00 3.2735 0.87650 1.0651 176.85 1.7734 3.7284 0.0044823
-135.62 0.0080843 4.0697e-10 -95.421 -95.421 -0.47258 680.09 0.0014704 -95.421 -95.421 -0.47258 1.3348 1.9841 1783.2 -0.0073180 892.30 0.18531 0.0021497 465.17 391.14 417.07 3.2540 0.87975 1.0684 177.44 1.7409 3.7559 0.0045443
-134.62 285.70 undefined -94.029 -91.132 -0.46249 680.00 0.0014706 -94.029 -91.132 -0.46249 1.3369 1.9839 1785.0 -0.0073196 883.67 0.18551 680.00 0.0014706 -94.029 -91.132 -0.46249 1.3369 1.9839 1785.0 -0.0073196 883.67 0.18551
-133.62 597.52 undefined -92.691 -86.633 -0.45287 680.00 0.0014706 -92.691 -86.633 -0.45287 1.3391 1.9836 1787.6 -0.0073224 876.55 0.18577 680.00 0.0014706 -92.691 -86.633 -0.45287 1.3391 1.9836 1787.6 -0.0073224 876.55 0.18577
-132.62 908.36 undefined -91.351 -82.141 -0.44330 680.00 0.0014706 -91.351 -82.141 -0.44330 1.3413 1.9833 1790.2 -0.0073251 869.58 0.18603 680.00 0.0014706 -91.351 -82.141 -0.44330 1.3413 1.9833 1790.2 -0.0073251 869.58 0.18603
-131.62 1218.2 undefined -90.009 -77.657 -0.43378 680.00 0.0014706 -90.009 -77.657 -0.43378 1.3435 1.9830 1792.8 -0.0073276 862.76 0.18630 680.00 0.0014706 -90.009 -77.657 -0.43378 1.3435 1.9830 1792.8 -0.0073276 862.76 0.18630
-130.62 1527.1 undefined -88.664 -73.180 -0.42431 680.00 0.0014706 -88.664 -73.180 -0.42431 1.3457 1.9827 1795.4 -0.0073300 856.08 0.18656 680.00 0.0014706 -88.664 -73.180 -0.42431 1.3457 1.9827 1795.4 -0.0073300 856.08 0.18656
-129.62 1835.0 undefined -87.317 -68.711 -0.41489 680.00 0.0014706 -87.317 -68.711 -0.41489 1.3479 1.9824 1798.0 -0.0073323 849.54 0.18683 680.00 0.0014706 -87.317 -68.711 -0.41489 1.3479 1.9824 1798.0 -0.0073323 849.54 0.18683
-128.62 2142.0 undefined -85.968 -64.250 -0.40553 680.00 0.0014706 -85.968 -64.250 -0.40553 1.3502 1.9822 1800.5 -0.0073345 843.14 0.18709 680.00 0.0014706 -85.968 -64.250 -0.40553 1.3502 1.9822 1800.5 -0.0073345 843.14 0.18709
-127.62 2448.0 undefined -84.617 -59.796 -0.39621 680.00 0.0014706 -84.617 -59.796 -0.39621 1.3524 1.9820 1803.1 -0.0073365 836.86 0.18736 680.00 0.0014706 -84.617 -59.796 -0.39621 1.3524 1.9820 1803.1 -0.0073365 836.86 0.18736
-126.62 2753.1 undefined -83.263 -55.349 -0.38694 680.00 0.0014706 -83.263 -55.349 -0.38694 1.3546 1.9819 1805.6 -0.0073385 830.72 0.18763 680.00 0.0014706 -83.263 -55.349 -0.38694 1.3546 1.9819 1805.6 -0.0073385 830.72 0.18763
-125.62 3057.2 undefined -81.908 -50.909 -0.37772 680.00 0.0014706 -81.908 -50.909 -0.37772 1.3568 1.9818 1808.1 -0.0073403 824.70 0.18789 680.00 0.0014706 -81.908 -50.909 -0.37772 1.3568 1.9818 1808.1 -0.0073403 824.70 0.18789
-124.62 3360.5 undefined -80.550 -46.477 -0.36855 680.00 0.0014706 -80.550 -46.477 -0.36855 1.3590 1.9817 1810.7 -0.0073420 818.80 0.18816 680.00 0.0014706 -80.550 -46.477 -0.36855 1.3590 1.9817 1810.7 -0.0073420 818.80 0.18816
-123.62 3662.8 undefined -79.190 -42.051 -0.35942 680.00 0.0014706 -79.190 -42.051 -0.35942 1.3612 1.9816 1813.2 -0.0073435 813.02 0.18843 680.00 0.0014706 -79.190 -42.051 -0.35942 1.3612 1.9816 1813.2 -0.0073435 813.02 0.18843
-122.62 3964.3 undefined -77.827 -37.632 -0.35034 680.00 0.0014706 -77.827 -37.632 -0.35034 1.3634 1.9815 1815.6 -0.0073450 807.35 0.18869 680.00 0.0014706 -77.827 -37.632 -0.35034 1.3634 1.9815 1815.6 -0.0073450 807.35 0.18869
-121.62 4264.8 undefined -76.463 -33.220 -0.34130 680.00 0.0014706 -76.463 -33.220 -0.34130 1.3656 1.9815 1818.1 -0.0073463 801.79 0.18896 680.00 0.0014706 -76.463 -33.220 -0.34130 1.3656 1.9815 1818.1 -0.0073463 801.79 0.18896
-120.62 4564.5 undefined -75.096 -28.815 -0.33231 680.00 0.0014706 -75.096 -28.815 -0.33231 1.3679 1.9815 1820.6 -0.0073475 796.35 0.18923 680.00 0.0014706 -75.096 -28.815 -0.33231 1.3679 1.9815 1820.6 -0.0073475 796.35 0.18923
-119.62 4863.3 undefined -73.727 -24.416 -0.32337 680.00 0.0014706 -73.727 -24.416 -0.32337 1.3701 1.9816 1823.0 -0.0073486 791.00 0.18950 680.00 0.0014706 -73.727 -24.416 -0.32337 1.3701 1.9816 1823.0 -0.0073486 791.00 0.18950
-118.62 5161.3 undefined -72.356 -20.024 -0.31447 680.00 0.0014706 -72.356 -20.024 -0.31447 1.3723 1.9816 1825.4 -0.0073495 785.76 0.18976 680.00 0.0014706 -72.356 -20.024 -0.31447 1.3723 1.9816 1825.4 -0.0073495 785.76 0.18976
-117.62 5458.3 undefined -70.982 -15.639 -0.30561 680.00 0.0014706 -70.982 -15.639 -0.30561 1.3745 1.9817 1827.8 -0.0073504 780.62 0.19003 680.00 0.0014706 -70.982 -15.639 -0.30561 1.3745 1.9817 1827.8 -0.0073504 780.62 0.19003
-116.62 5754.6 undefined -69.607 -11.259 -0.29679 680.00 0.0014706 -69.607 -11.259 -0.29679 1.3768 1.9819 1830.2 -0.0073511 775.58 0.19030 680.00 0.0014706 -69.607 -11.259 -0.29679 1.3768 1.9819 1830.2 -0.0073511 775.58 0.19030
-115.62 6049.9 undefined -68.229 -6.8864 -0.28801 680.00 0.0014706 -68.229 -6.8864 -0.28801 1.3790 1.9820 1832.6 -0.0073517 770.63 0.19057 680.00 0.0014706 -68.229 -6.8864 -0.28801 1.3790 1.9820 1832.6 -0.0073517 770.63 0.19057
-114.62 6344.5 undefined -66.849 -2.5197 -0.27928 680.00 0.0014706 -66.849 -2.5197 -0.27928 1.3813 1.9822 1835.0 -0.0073522 765.78 0.19084 680.00 0.0014706 -66.849 -2.5197 -0.27928 1.3813 1.9822 1835.0 -0.0073522 765.78 0.19084
-113.62 6638.2 undefined -65.466 1.8409 -0.27059 680.00 0.0014706 -65.466 1.8409 -0.27059 1.3836 1.9824 1837.3 -0.0073526 761.02 0.19111 680.00 0.0014706 -65.466 1.8409 -0.27059 1.3836 1.9824 1837.3 -0.0073526 761.02 0.19111
-112.62 6931.1 undefined -64.082 6.1953 -0.26193 680.00 0.0014706 -64.082 6.1953 -0.26193 1.3858 1.9826 1839.7 -0.0073529 756.34 0.19138 680.00 0.0014706 -64.082 6.1953 -0.26193 1.3858 1.9826 1839.7 -0.0073529 756.34 0.19138
-111.62 7223.2 undefined -62.695 10.544 -0.25332 680.00 0.0014706 -62.695 10.544 -0.25332 1.3881 1.9829 1842.0 -0.0073530 751.75 0.19165 680.00 0.0014706 -62.695 10.544 -0.25332 1.3881 1.9829 1842.0 -0.0073530 751.75 0.19165
-110.62 7514.5 undefined -61.305 14.886 -0.24475 680.00 0.0014706 -61.305 14.886 -0.24475 1.3904 1.9832 1844.3 -0.0073530 747.24 0.19192 680.00 0.0014706 -61.305 14.886 -0.24475 1.3904 1.9832 1844.3 -0.0073530 747.24 0.19192
-109.62 7804.9 undefined -59.914 19.223 -0.23621 680.00 0.0014706 -59.914 19.223 -0.23621 1.3927 1.9835 1846.6 -0.0073529 742.82 0.19219 680.00 0.0014706 -59.914 19.223 -0.23621 1.3927 1.9835 1846.6 -0.0073529 742.82 0.19219
-108.62 8094.6 undefined -58.520 23.554 -0.22771 680.00 0.0014706 -58.520 23.554 -0.22771 1.3950 1.9839 1848.9 -0.0073527 738.48 0.19246 680.00 0.0014706 -58.520 23.554 -0.22771 1.3950 1.9839 1848.9 -0.0073527 738.48 0.19246
-107.62 8383.5 undefined -57.124 27.879 -0.21925 680.00 0.0014706 -57.124 27.879 -0.21925 1.3973 1.9842 1851.1 -0.0073524 734.21 0.19274 680.00 0.0014706 -57.124 27.879 -0.21925 1.3973 1.9842 1851.1 -0.0073524 734.21 0.19274
-106.62 8671.6 undefined -55.725 32.199 -0.21083 680.00 0.0014706 -55.725 32.199 -0.21083 1.3996 1.9846 1853.4 -0.0073519 730.02 0.19301 680.00 0.0014706 -55.725 32.199 -0.21083 1.3996 1.9846 1853.4 -0.0073519 730.02 0.19301
-105.62 8958.9 undefined -54.325 36.513 -0.20244 680.00 0.0014706 -54.325 36.513 -0.20244 1.4020 1.9851 1855.6 -0.0073513 725.90 0.19328 680.00 0.0014706 -54.325 36.513 -0.20244 1.4020 1.9851 1855.6 -0.0073513 725.90 0.19328
-104.62 9245.5 undefined -52.921 40.822 -0.19409 680.00 0.0014706 -52.921 40.822 -0.19409 1.4043 1.9855 1857.8 -0.0073506 721.86 0.19355 680.00 0.0014706 -52.921 40.822 -0.19409 1.4043 1.9855 1857.8 -0.0073506 721.86 0.19355
-103.62 9531.3 undefined -51.516 45.125 -0.18578 680.00 0.0014706 -51.516 45.125 -0.18578 1.4067 1.9860 1860.0 -0.0073498 717.88 0.19382 680.00 0.0014706 -51.516 45.125 -0.18578 1.4067 1.9860 1860.0 -0.0073498 717.88 0.19382
-102.62 9816.3 undefined -50.108 49.423 -0.17750 680.00 0.0014706 -50.108 49.423 -0.17750 1.4091 1.9866 1862.2 -0.0073489 713.98 0.19410 680.00 0.0014706 -50.108 49.423 -0.17750 1.4091 1.9866 1862.2 -0.0073489 713.98 0.19410
-101.62 10101. undefined -48.698 53.715 -0.16925 680.00 0.0014706 -48.698 53.715 -0.16925 1.4114 1.9871 1864.4 -0.0073479 710.14 0.19437 680.00 0.0014706 -48.698 53.715 -0.16925 1.4114 1.9871 1864.4 -0.0073479 710.14 0.19437
-100.62 10384. undefined -47.285 58.003 -0.16104 680.00 0.0014706 -47.285 58.003 -0.16104 1.4138 1.9877 1866.5 -0.0073467 706.37 0.19464 680.00 0.0014706 -47.285 58.003 -0.16104 1.4138 1.9877 1866.5 -0.0073467 706.37 0.19464
-99.625 10667. undefined -45.870 62.285 -0.15286 680.00 0.0014706 -45.870 62.285 -0.15286 1.4162 1.9883 1868.7 -0.0073454 702.66 0.19492 680.00 0.0014706 -45.870 62.285 -0.15286 1.4162 1.9883 1868.7 -0.0073454 702.66 0.19492
-98.625 10949. undefined -44.453 66.562 -0.14471 680.00 0.0014706 -44.453 66.562 -0.14471 1.4187 1.9889 1870.8 -0.0073441 699.02 0.19519 680.00 0.0014706 -44.453 66.562 -0.14471 1.4187 1.9889 1870.8 -0.0073441 699.02 0.19519
-97.625 11230. undefined -43.033 70.835 -0.13660 680.00 0.0014706 -43.033 70.835 -0.13660 1.4211 1.9896 1872.9 -0.0073425 695.43 0.19547 680.00 0.0014706 -43.033 70.835 -0.13660 1.4211 1.9896 1872.9 -0.0073425 695.43 0.19547
-96.625 11511. undefined -41.610 75.102 -0.12852 680.00 0.0014706 -41.610 75.102 -0.12852 1.4235 1.9903 1875.0 -0.0073409 691.91 0.19574 680.00 0.0014706 -41.610 75.102 -0.12852 1.4235 1.9903 1875.0 -0.0073409 691.91 0.19574
-95.625 11791. undefined -40.186 79.364 -0.12047 680.00 0.0014706 -40.186 79.364 -0.12047 1.4260 1.9910 1877.1 -0.0073392 688.45 0.19602 680.00 0.0014706 -40.186 79.364 -0.12047 1.4260 1.9910 1877.1 -0.0073392 688.45 0.19602
-94.625 12070. undefined -38.758 83.622 -0.11246 680.00 0.0014706 -38.758 83.622 -0.11246 1.4285 1.9917 1879.2 -0.0073373 685.04 0.19629 680.00 0.0014706 -38.758 83.622 -0.11246 1.4285 1.9917 1879.2 -0.0073373 685.04 0.19629
-93.625 12348. undefined -37.329 87.875 -0.10447 680.00 0.0014706 -37.329 87.875 -0.10447 1.4309 1.9925 1881.2 -0.0073354 681.69 0.19657 680.00 0.0014706 -37.329 87.875 -0.10447 1.4309 1.9925 1881.2 -0.0073354 681.69 0.19657
-92.625 12626. undefined -35.897 92.123 -0.096515 680.00 0.0014706 -35.897 92.123 -0.096515 1.4334 1.9933 1883.3 -0.0073333 678.39 0.19684 680.00 0.0014706 -35.897 92.123 -0.096515 1.4334 1.9933 1883.3 -0.0073333 678.39 0.19684
-91.625 12903. undefined -34.462 96.367 -0.088590 680.00 0.0014706 -34.462 96.367 -0.088590 1.4359 1.9942 1885.3 -0.0073311 675.15 0.19712 680.00 0.0014706 -34.462 96.367 -0.088590 1.4359 1.9942 1885.3 -0.0073311 675.15 0.19712
-90.625 13179. undefined -33.025 100.61 -0.080694 680.00 0.0014706 -33.025 100.61 -0.080694 1.4385 1.9950 1887.3 -0.0073288 671.96 0.19740 680.00 0.0014706 -33.025 100.61 -0.080694 1.4385 1.9950 1887.3 -0.0073288 671.96 0.19740
-89.625 13455. undefined -31.585 104.84 -0.072828 680.00 0.0014706 -31.585 104.84 -0.072828 1.4410 1.9959 1889.3 -0.0073264 668.82 0.19767 680.00 0.0014706 -31.585 104.84 -0.072828 1.4410 1.9959 1889.3 -0.0073264 668.82 0.19767
-88.625 13730. undefined -30.143 109.07 -0.064990 680.00 0.0014706 -30.143 109.07 -0.064990 1.4436 1.9968 1891.3 -0.0073238 665.73 0.19795 680.00 0.0014706 -30.143 109.07 -0.064990 1.4436 1.9968 1891.3 -0.0073238 665.73 0.19795
-87.625 14004. undefined -28.698 113.30 -0.057181 680.00 0.0014706 -28.698 113.30 -0.057181 1.4461 1.9978 1893.3 -0.0073212 662.69 0.19823 680.00 0.0014706 -28.698 113.30 -0.057181 1.4461 1.9978 1893.3 -0.0073212 662.69 0.19823
-86.625 14278. undefined -27.250 117.52 -0.049401 680.00 0.0014706 -27.250 117.52 -0.049401 1.4487 1.9988 1895.2 -0.0073184 659.70 0.19851 680.00 0.0014706 -27.250 117.52 -0.049401 1.4487 1.9988 1895.2 -0.0073184 659.70 0.19851
-85.625 14551. undefined -25.800 121.74 -0.041647 680.00 0.0014706 -25.800 121.74 -0.041647 1.4513 1.9998 1897.2 -0.0073155 656.76 0.19878 680.00 0.0014706 -25.800 121.74 -0.041647 1.4513 1.9998 1897.2 -0.0073155 656.76 0.19878
-84.625 14823. undefined -24.348 125.95 -0.033922 680.00 0.0014706 -24.348 125.95 -0.033922 1.4539 2.0008 1899.1 -0.0073126 653.86 0.19906 680.00 0.0014706 -24.348 125.95 -0.033922 1.4539 2.0008 1899.1 -0.0073126 653.86 0.19906
-83.625 15095. undefined -22.893 130.16 -0.026223 680.00 0.0014706 -22.893 130.16 -0.026223 1.4565 2.0019 1901.1 -0.0073095 651.01 0.19934 680.00 0.0014706 -22.893 130.16 -0.026223 1.4565 2.0019 1901.1 -0.0073095 651.01 0.19934
-82.625 15366. undefined -21.435 134.36 -0.018551 680.00 0.0014706 -21.435 134.36 -0.018551 1.4592 2.0030 1903.0 -0.0073063 648.20 0.19962 680.00 0.0014706 -21.435 134.36 -0.018551 1.4592 2.0030 1903.0 -0.0073063 648.20 0.19962
-81.625 15636. undefined -19.974 138.56 -0.010905 680.00 0.0014706 -19.974 138.56 -0.010905 1.4619 2.0041 1904.9 -0.0073030 645.44 0.19990 680.00 0.0014706 -19.974 138.56 -0.010905 1.4619 2.0041 1904.9 -0.0073030 645.44 0.19990
-80.625 15906. undefined -18.511 142.76 -0.0032857 680.00 0.0014706 -18.511 142.76 -0.0032857 1.4645 2.0052 1906.7 -0.0072995 642.72 0.20018 680.00 0.0014706 -18.511 142.76 -0.0032857 1.4645 2.0052 1906.7 -0.0072995 642.72 0.20018
-79.625 16175. undefined -17.045 146.96 0.0043085 680.00 0.0014706 -17.045 146.96 0.0043085 1.4672 2.0064 1908.6 -0.0072960 640.04 0.20046 680.00 0.0014706 -17.045 146.96 0.0043085 1.4672 2.0064 1908.6 -0.0072960 640.04 0.20046
-78.625 16443. undefined -15.577 151.15 0.011877 680.00 0.0014706 -15.577 151.15 0.011877 1.4699 2.0076 1910.5 -0.0072924 637.40 0.20074 680.00 0.0014706 -15.577 151.15 0.011877 1.4699 2.0076 1910.5 -0.0072924 637.40 0.20074
-77.625 16711. undefined -14.105 155.33 0.019422 680.00 0.0014706 -14.105 155.33 0.019422 1.4726 2.0088 1912.3 -0.0072887 634.80 0.20102 680.00 0.0014706 -14.105 155.33 0.019422 1.4726 2.0088 1912.3 -0.0072887 634.80 0.20102
-76.625 16978. undefined -12.631 159.51 0.026941 680.00 0.0014706 -12.631 159.51 0.026941 1.4754 2.0101 1914.1 -0.0072848 632.24 0.20130 680.00 0.0014706 -12.631 159.51 0.026941 1.4754 2.0101 1914.1 -0.0072848 632.24 0.20130
-75.625 17244. undefined -11.154 163.69 0.034436 680.00 0.0014706 -11.154 163.69 0.034436 1.4781 2.0114 1916.0 -0.0072809 629.71 0.20158 680.00 0.0014706 -11.154 163.69 0.034436 1.4781 2.0114 1916.0 -0.0072809 629.71 0.20158
-74.625 17510. undefined -9.6750 167.87 0.041908 680.00 0.0014706 -9.6750 167.87 0.041908 1.4809 2.0127 1917.8 -0.0072768 627.23 0.20186 680.00 0.0014706 -9.6750 167.87 0.041908 1.4809 2.0127 1917.8 -0.0072768 627.23 0.20186
-73.625 17775. undefined -8.1927 172.04 0.049355 680.00 0.0014706 -8.1927 172.04 0.049355 1.4837 2.0140 1919.6 -0.0072726 624.78 0.20214 680.00 0.0014706 -8.1927 172.04 0.049355 1.4837 2.0140 1919.6 -0.0072726 624.78 0.20214
-72.625 18040. undefined -6.7076 176.21 0.056780 680.00 0.0014706 -6.7076 176.21 0.056780 1.4865 2.0154 1921.3 -0.0072684 622.37 0.20242 680.00 0.0014706 -6.7076 176.21 0.056780 1.4865 2.0154 1921.3 -0.0072684 622.37 0.20242
-71.625 18304. undefined -5.2197 180.37 0.064182 680.00 0.0014706 -5.2197 180.37 0.064182 1.4893 2.0168 1923.1 -0.0072640 619.99 0.20271 680.00 0.0014706 -5.2197 180.37 0.064182 1.4893 2.0168 1923.1 -0.0072640 619.99 0.20271
-70.625 18567. undefined -3.7290 184.53 0.071561 680.00 0.0014706 -3.7290 184.53 0.071561 1.4921 2.0182 1924.9 -0.0072596 617.65 0.20299 680.00 0.0014706 -3.7290 184.53 0.071561 1.4921 2.0182 1924.9 -0.0072596 617.65 0.20299
-69.625 18830. undefined -2.2354 188.69 0.078917 680.00 0.0014706 -2.2354 188.69 0.078917 1.4950 2.0197 1926.6 -0.0072550 615.35 0.20327 680.00 0.0014706 -2.2354 188.69 0.078917 1.4950 2.0197 1926.6 -0.0072550 615.35 0.20327
-68.625 19092. undefined -0.73895 192.85 0.086252 680.00 0.0014706 -0.73895 192.85 0.086252 1.4979 2.0212 1928.4 -0.0072503 613.07 0.20355 680.00 0.0014706 -0.73895 192.85 0.086252 1.4979 2.0212 1928.4 -0.0072503 613.07 0.20355
-67.625 19354. undefined 0.76037 197.00 0.093565 680.00 0.0014706 0.76037 197.00 0.093565 1.5008 2.0227 1930.1 -0.0072455 610.83 0.20384 680.00 0.0014706 0.76037 197.00 0.093565 1.5008 2.0227 1930.1 -0.0072455 610.83 0.20384
-66.625 19615. undefined 2.2626 201.15 0.10086 680.00 0.0014706 2.2626 201.15 0.10086 1.5037 2.0242 1931.8 -0.0072407 608.62 0.20412 680.00 0.0014706 2.2626 201.15 0.10086 1.5037 2.0242 1931.8 -0.0072407 608.62 0.20412
-65.625 19875. undefined 3.7677 205.29 0.10813 680.00 0.0014706 3.7677 205.29 0.10813 1.5066 2.0258 1933.5 -0.0072357 606.44 0.20440 680.00 0.0014706 3.7677 205.29 0.10813 1.5066 2.0258 1933.5 -0.0072357 606.44 0.20440
-64.625 20135. undefined 5.2757 209.43 0.11538 680.00 0.0014706 5.2757 209.43 0.11538 1.5095 2.0274 1935.2 -0.0072307 604.30 0.20469 680.00 0.0014706 5.2757 209.43 0.11538 1.5095 2.0274 1935.2 -0.0072307 604.30 0.20469
-63.625 20394. undefined 6.7867 213.57 0.12260 680.00 0.0014706 6.7867 213.57 0.12260 1.5125 2.0290 1936.9 -0.0072255 602.18 0.20497 680.00 0.0014706 6.7867 213.57 0.12260 1.5125 2.0290 1936.9 -0.0072255 602.18 0.20497
-62.625 20653. undefined 8.3007 217.71 0.12981 680.00 0.0014706 8.3007 217.71 0.12981 1.5154 2.0306 1938.6 -0.0072203 600.09 0.20526 680.00 0.0014706 8.3007 217.71 0.12981 1.5154 2.0306 1938.6 -0.0072203 600.09 0.20526
-61.625 20911. undefined 9.8176 221.84 0.13700 680.00 0.0014706 9.8176 221.84 0.13700 1.5184 2.0323 1940.2 -0.0072149 598.03 0.20554 680.00 0.0014706 9.8176 221.84 0.13700 1.5184 2.0323 1940.2 -0.0072149 598.03 0.20554
-60.625 21169. undefined 11.338 225.97 0.14417 680.00 0.0014706 11.338 225.97 0.14417 1.5214 2.0340 1941.9 -0.0072095 596.01 0.20583 680.00 0.0014706 11.338 225.97 0.14417 1.5214 2.0340 1941.9 -0.0072095 596.01 0.20583
-59.625 21426. undefined 12.861 230.10 0.15132 680.00 0.0014706 12.861 230.10 0.15132 1.5245 2.0357 1943.5 -0.0072039 594.01 0.20611 680.00 0.0014706 12.861 230.10 0.15132 1.5245 2.0357 1943.5 -0.0072039 594.01 0.20611
-58.625 21682. undefined 14.386 234.23 0.15845 680.00 0.0014706 14.386 234.23 0.15845 1.5275 2.0375 1945.1 -0.0071983 592.03 0.20640 680.00 0.0014706 14.386 234.23 0.15845 1.5275 2.0375 1945.1 -0.0071983 592.03 0.20640
-57.625 21938. undefined 15.916 238.35 0.16556 680.00 0.0014706 15.916 238.35 0.16556 1.5306 2.0393 1946.8 -0.0071926 590.09 0.20669 680.00 0.0014706 15.916 238.35 0.16556 1.5306 2.0393 1946.8 -0.0071926 590.09 0.20669
-56.625 22193. undefined 17.448 242.47 0.17265 680.00 0.0014706 17.448 242.47 0.17265 1.5336 2.0411 1948.4 -0.0071868 588.17 0.20697 680.00 0.0014706 17.448 242.47 0.17265 1.5336 2.0411 1948.4 -0.0071868 588.17 0.20697
-55.625 22448. undefined 18.983 246.59 0.17973 680.00 0.0014706 18.983 246.59 0.17973 1.5367 2.0429 1950.0 -0.0071809 586.27 0.20726 680.00 0.0014706 18.983 246.59 0.17973 1.5367 2.0429 1950.0 -0.0071809 586.27 0.20726
-54.625 22702. undefined 20.521 250.71 0.18678 680.00 0.0014706 20.521 250.71 0.18678 1.5398 2.0448 1951.6 -0.0071749 584.41 0.20755 680.00 0.0014706 20.521 250.71 0.18678 1.5398 2.0448 1951.6 -0.0071749 584.41 0.20755
-53.625 22956. undefined 22.062 254.82 0.19382 680.00 0.0014706 22.062 254.82 0.19382 1.5429 2.0467 1953.1 -0.0071689 582.56 0.20783 680.00 0.0014706 22.062 254.82 0.19382 1.5429 2.0467 1953.1 -0.0071689 582.56 0.20783
-52.625 23209. undefined 23.607 258.93 0.20084 680.00 0.0014706 23.607 258.93 0.20084 1.5461 2.0486 1954.7 -0.0071627 580.75 0.20812 680.00 0.0014706 23.607 258.93 0.20084 1.5461 2.0486 1954.7 -0.0071627 580.75 0.20812
-51.625 23461. undefined 25.155 263.04 0.20784 680.00 0.0014706 25.155 263.04 0.20784 1.5492 2.0505 1956.3 -0.0071565 578.95 0.20841 680.00 0.0014706 25.155 263.04 0.20784 1.5492 2.0505 1956.3 -0.0071565 578.95 0.20841
-50.625 23713. undefined 26.705 267.14 0.21483 680.00 0.0014706 26.705 267.14 0.21483 1.5524 2.0525 1957.8 -0.0071501 577.18 0.20870 680.00 0.0014706 26.705 267.14 0.21483 1.5524 2.0525 1957.8 -0.0071501 577.18 0.20870
-49.625 23965. undefined 28.259 271.25 0.22179 680.00 0.0014706 28.259 271.25 0.22179 1.5556 2.0544 1959.4 -0.0071437 575.44 0.20899 680.00 0.0014706 28.259 271.25 0.22179 1.5556 2.0544 1959.4 -0.0071437 575.44 0.20899
-48.625 24216. undefined 29.817 275.35 0.22874 680.00 0.0014706 29.817 275.35 0.22874 1.5588 2.0565 1960.9 -0.0071372 573.71 0.20927 680.00 0.0014706 29.817 275.35 0.22874 1.5588 2.0565 1960.9 -0.0071372 573.71 0.20927
-47.625 24466. undefined 31.377 279.45 0.23568 680.00 0.0014706 31.377 279.45 0.23568 1.5620 2.0585 1962.4 -0.0071307 572.01 0.20956 680.00 0.0014706 31.377 279.45 0.23568 1.5620 2.0585 1962.4 -0.0071307 572.01 0.20956
-46.625 24716. undefined 32.941 283.54 0.24260 680.00 0.0014706 32.941 283.54 0.24260 1.5653 2.0606 1963.9 -0.0071240 570.34 0.20985 680.00 0.0014706 32.941 283.54 0.24260 1.5653 2.0606 1963.9 -0.0071240 570.34 0.20985
-45.625 24965. undefined 34.508 287.64 0.24950 680.00 0.0014706 34.508 287.64 0.24950 1.5685 2.0626 1965.4 -0.0071173 568.68 0.21014 680.00 0.0014706 34.508 287.64 0.24950 1.5685 2.0626 1965.4 -0.0071173 568.68 0.21014
-44.625 25214. undefined 36.078 291.73 0.25639 680.00 0.0014706 36.078 291.73 0.25639 1.5718 2.0648 1966.9 -0.0071105 567.05 0.21043 680.00 0.0014706 36.078 291.73 0.25639 1.5718 2.0648 1966.9 -0.0071105 567.05 0.21043
-43.625 25463. undefined 37.651 295.82 0.26326 680.00 0.0014706 37.651 295.82 0.26326 1.5751 2.0669 1968.4 -0.0071036 565.43 0.21072 680.00 0.0014706 37.651 295.82 0.26326 1.5751 2.0669 1968.4 -0.0071036 565.43 0.21072
-42.625 25710. undefined 39.228 299.91 0.27011 680.00 0.0014706 39.228 299.91 0.27011 1.5784 2.0691 1969.9 -0.0070967 563.84 0.21101 680.00 0.0014706 39.228 299.91 0.27011 1.5784 2.0691 1969.9 -0.0070967 563.84 0.21101
-41.625 25958. undefined 40.808 304.00 0.27695 680.00 0.0014706 40.808 304.00 0.27695 1.5817 2.0712 1971.4 -0.0070896 562.27 0.21130 680.00 0.0014706 40.808 304.00 0.27695 1.5817 2.0712 1971.4 -0.0070896 562.27 0.21130
-40.625 26204. undefined 42.392 308.09 0.28377 680.00 0.0014706 42.392 308.09 0.28377 1.5851 2.0735 1972.9 -0.0070825 560.72 0.21160 680.00 0.0014706 42.392 308.09 0.28377 1.5851 2.0735 1972.9 -0.0070825 560.72 0.21160
-39.625 26451. undefined 43.978 312.17 0.29058 680.00 0.0014706 43.978 312.17 0.29058 1.5884 2.0757 1974.3 -0.0070753 559.18 0.21189 680.00 0.0014706 43.978 312.17 0.29058 1.5884 2.0757 1974.3 -0.0070753 559.18 0.21189
-38.625 26697. undefined 45.568 316.25 0.29738 680.00 0.0014706 45.568 316.25 0.29738 1.5918 2.0779 1975.8 -0.0070681 557.67 0.21218 680.00 0.0014706 45.568 316.25 0.29738 1.5918 2.0779 1975.8 -0.0070681 557.67 0.21218
-37.625 26942. undefined 47.162 320.34 0.30416 680.00 0.0014706 47.162 320.34 0.30416 1.5952 2.0802 1977.2 -0.0070608 556.18 0.21247 680.00 0.0014706 47.162 320.34 0.30416 1.5952 2.0802 1977.2 -0.0070608 556.18 0.21247
-36.625 27187. undefined 48.759 324.41 0.31092 680.00 0.0014706 48.759 324.41 0.31092 1.5986 2.0825 1978.6 -0.0070534 554.70 0.21276 680.00 0.0014706 48.759 324.41 0.31092 1.5986 2.0825 1978.6 -0.0070534 554.70 0.21276
-35.625 27431. undefined 50.359 328.49 0.31768 680.00 0.0014706 50.359 328.49 0.31768 1.6020 2.0849 1980.1 -0.0070459 553.24 0.21306 680.00 0.0014706 50.359 328.49 0.31768 1.6020 2.0849 1980.1 -0.0070459 553.24 0.21306
-34.625 27675. undefined 51.963 332.57 0.32441 680.00 0.0014706 51.963 332.57 0.32441 1.6054 2.0872 1981.5 -0.0070384 551.81 0.21335 680.00 0.0014706 51.963 332.57 0.32441 1.6054 2.0872 1981.5 -0.0070384 551.81 0.21335
-33.625 27918. undefined 53.570 336.64 0.33114 680.00 0.0014706 53.570 336.64 0.33114 1.6089 2.0896 1982.9 -0.0070308 550.39 0.21364 680.00 0.0014706 53.570 336.64 0.33114 1.6089 2.0896 1982.9 -0.0070308 550.39 0.21364
-32.625 28161. undefined 55.181 340.72 0.33785 680.00 0.0014706 55.181 340.72 0.33785 1.6123 2.0920 1984.3 -0.0070232 548.98 0.21394 680.00 0.0014706 55.181 340.72 0.33785 1.6123 2.0920 1984.3 -0.0070232 548.98 0.21394
-31.625 28403. undefined 56.795 344.79 0.34454 680.00 0.0014706 56.795 344.79 0.34454 1.6158 2.0944 1985.7 -0.0070155 547.60 0.21423 680.00 0.0014706 56.795 344.79 0.34454 1.6158 2.0944 1985.7 -0.0070155 547.60 0.21423
-30.625 28645. undefined 58.412 348.86 0.35123 680.00 0.0014706 58.412 348.86 0.35123 1.6193 2.0968 1987.1 -0.0070077 546.23 0.21452 680.00 0.0014706 58.412 348.86 0.35123 1.6193 2.0968 1987.1 -0.0070077 546.23 0.21452
-29.625 28887. undefined 60.033 352.93 0.35790 680.00 0.0014706 60.033 352.93 0.35790 1.6228 2.0993 1988.5 -0.0069999 544.88 0.21482 680.00 0.0014706 60.033 352.93 0.35790 1.6228 2.0993 1988.5 -0.0069999 544.88 0.21482
-28.625 29128. undefined 61.658 356.99 0.36456 680.00 0.0014706 61.658 356.99 0.36456 1.6263 2.1018 1989.9 -0.0069920 543.54 0.21511 680.00 0.0014706 61.658 356.99 0.36456 1.6263 2.1018 1989.9 -0.0069920 543.54 0.21511
-27.625 29368. undefined 63.286 361.06 0.37120 680.00 0.0014706 63.286 361.06 0.37120 1.6299 2.1043 1991.3 -0.0069840 542.22 0.21541 680.00 0.0014706 63.286 361.06 0.37120 1.6299 2.1043 1991.3 -0.0069840 542.22 0.21541
-26.625 29608. undefined 64.918 365.13 0.37783 680.00 0.0014706 64.918 365.13 0.37783 1.6334 2.1068 1992.6 -0.0069760 540.92 0.21570 680.00 0.0014706 64.918 365.13 0.37783 1.6334 2.1068 1992.6 -0.0069760 540.92 0.21570
-25.625 29848. undefined 66.553 369.19 0.38445 680.00 0.0014706 66.553 369.19 0.38445 1.6370 2.1094 1994.0 -0.0069680 539.63 0.21600 680.00 0.0014706 66.553 369.19 0.38445 1.6370 2.1094 1994.0 -0.0069680 539.63 0.21600
-24.625 30087. undefined 68.192 373.25 0.39106 680.00 0.0014706 68.192 373.25 0.39106 1.6406 2.1119 1995.3 -0.0069598 538.36 0.21629 680.00 0.0014706 68.192 373.25 0.39106 1.6406 2.1119 1995.3 -0.0069598 538.36 0.21629
-23.625 30326. undefined 69.834 377.32 0.39765 680.00 0.0014706 69.834 377.32 0.39765 1.6442 2.1145 1996.7 -0.0069517 537.10 0.21659 680.00 0.0014706 69.834 377.32 0.39765 1.6442 2.1145 1996.7 -0.0069517 537.10 0.21659
-22.625 30564. undefined 71.480 381.38 0.40424 680.00 0.0014706 71.480 381.38 0.40424 1.6478 2.1171 1998.0 -0.0069434 535.86 0.21689 680.00 0.0014706 71.480 381.38 0.40424 1.6478 2.1171 1998.0 -0.0069434 535.86 0.21689
-21.625 30801. undefined 73.130 385.44 0.41081 680.00 0.0014706 73.130 385.44 0.41081 1.6514 2.1198 1999.4 -0.0069352 534.63 0.21718 680.00 0.0014706 73.130 385.44 0.41081 1.6514 2.1198 1999.4 -0.0069352 534.63 0.21718
-20.625 31039. undefined 74.783 389.50 0.41737 680.00 0.0014706 74.783 389.50 0.41737 1.6550 2.1224 2000.7 -0.0069268 533.42 0.21748 680.00 0.0014706 74.783 389.50 0.41737 1.6550 2.1224 2000.7 -0.0069268 533.42 0.21748
-19.625 31276. undefined 76.440 393.55 0.42392 680.00 0.0014706 76.440 393.55 0.42392 1.6587 2.1251 2002.0 -0.0069185 532.22 0.21778 680.00 0.0014706 76.440 393.55 0.42392 1.6587 2.1251 2002.0 -0.0069185 532.22 0.21778
-18.625 31512. undefined 78.100 397.61 0.43045 680.00 0.0014706 78.100 397.61 0.43045 1.6623 2.1278 2003.3 -0.0069100 531.03 0.21807 680.00 0.0014706 78.100 397.61 0.43045 1.6623 2.1278 2003.3 -0.0069100 531.03 0.21807
-17.625 31748. undefined 79.764 401.67 0.43698 680.00 0.0014706 79.764 401.67 0.43698 1.6660 2.1305 2004.6 -0.0069016 529.86 0.21837 680.00 0.0014706 79.764 401.67 0.43698 1.6660 2.1305 2004.6 -0.0069016 529.86 0.21837
-16.625 31983. undefined 81.432 405.72 0.44349 680.00 0.0014706 81.432 405.72 0.44349 1.6697 2.1332 2006.0 -0.0068930 528.71 0.21867 680.00 0.0014706 81.432 405.72 0.44349 1.6697 2.1332 2006.0 -0.0068930 528.71 0.21867
-15.625 32218. undefined 83.104 409.78 0.45000 680.00 0.0014706 83.104 409.78 0.45000 1.6734 2.1360 2007.3 -0.0068845 527.56 0.21897 680.00 0.0014706 83.104 409.78 0.45000 1.6734 2.1360 2007.3 -0.0068845 527.56 0.21897
-14.625 32453. undefined 84.779 413.83 0.45649 680.00 0.0014706 84.779 413.83 0.45649 1.6771 2.1388 2008.5 -0.0068759 526.43 0.21927 680.00 0.0014706 84.779 413.83 0.45649 1.6771 2.1388 2008.5 -0.0068759 526.43 0.21927
-13.625 32687. undefined 86.458 417.89 0.46297 680.00 0.0014706 86.458 417.89 0.46297 1.6808 2.1415 2009.8 -0.0068672 525.31 0.21957 680.00 0.0014706 86.458 417.89 0.46297 1.6808 2.1415 2009.8 -0.0068672 525.31 0.21957
-12.625 32921. undefined 88.141 421.94 0.46944 680.00 0.0014706 88.141 421.94 0.46944 1.6845 2.1444 2011.1 -0.0068585 524.21 0.21987 680.00 0.0014706 88.141 421.94 0.46944 1.6845 2.1444 2011.1 -0.0068585 524.21 0.21987
-11.625 33154. undefined 89.827 425.99 0.47590 680.00 0.0014706 89.827 425.99 0.47590 1.6883 2.1472 2012.4 -0.0068498 523.12 0.22017 680.00 0.0014706 89.827 425.99 0.47590 1.6883 2.1472 2012.4 -0.0068498 523.12 0.22017
-10.625 33387. undefined 91.517 430.04 0.48235 680.00 0.0014706 91.517 430.04 0.48235 1.6920 2.1500 2013.7 -0.0068410 522.04 0.22047 680.00 0.0014706 91.517 430.04 0.48235 1.6920 2.1500 2013.7 -0.0068410 522.04 0.22047
-9.6250 33620. undefined 93.211 434.09 0.48879 680.00 0.0014706 93.211 434.09 0.48879 1.6958 2.1529 2015.0 -0.0068322 520.97 0.22077 680.00 0.0014706 93.211 434.09 0.48879 1.6958 2.1529 2015.0 -0.0068322 520.97 0.22077
-8.6250 33852. undefined 94.909 438.14 0.49522 680.00 0.0014706 94.909 438.14 0.49522 1.6996 2.1558 2016.2 -0.0068234 519.91 0.22107 680.00 0.0014706 94.909 438.14 0.49522 1.6996 2.1558 2016.2 -0.0068234 519.91 0.22107
-7.6250 34084. undefined 96.610 442.19 0.50164 680.00 0.0014706 96.610 442.19 0.50164 1.7034 2.1587 2017.5 -0.0068145 518.87 0.22137 680.00 0.0014706 96.610 442.19 0.50164 1.7034 2.1587 2017.5 -0.0068145 518.87 0.22137
-6.6250 34315. undefined 98.316 446.24 0.50805 680.00 0.0014706 98.316 446.24 0.50805 1.7072 2.1616 2018.7 -0.0068056 517.84 0.22167 680.00 0.0014706 98.316 446.24 0.50805 1.7072 2.1616 2018.7 -0.0068056 517.84 0.22167
-5.6250 34546. undefined 100.02 450.29 0.51445 680.00 0.0014706 100.02 450.29 0.51445 1.7110 2.1645 2020.0 -0.0067966 516.82 0.22197 680.00 0.0014706 100.02 450.29 0.51445 1.7110 2.1645 2020.0 -0.0067966 516.82 0.22197
-4.6250 34776. undefined 101.74 454.34 0.52085 680.00 0.0014706 101.74 454.34 0.52085 1.7148 2.1674 2021.2 -0.0067876 515.81 0.22227 680.00 0.0014706 101.74 454.34 0.52085 1.7148 2.1674 2021.2 -0.0067876 515.81 0.22227
-3.6250 35006. undefined 103.45 458.39 0.52723 680.00 0.0014706 103.45 458.39 0.52723 1.7187 2.1704 2022.5 -0.0067786 514.81 0.22257 680.00 0.0014706 103.45 458.39 0.52723 1.7187 2.1704 2022.5 -0.0067786 514.81 0.22257
-2.6250 35236. undefined 105.17 462.44 0.53360 680.00 0.0014706 105.17 462.44 0.53360 1.7225 2.1734 2023.7 -0.0067696 513.83 0.22288 680.00 0.0014706 105.17 462.44 0.53360 1.7225 2.1734 2023.7 -0.0067696 513.83 0.22288
-1.6250 35465. undefined 106.90 466.49 0.53996 680.00 0.0014706 106.90 466.49 0.53996 1.7264 2.1764 2025.0 -0.0067605 512.85 0.22318 680.00 0.0014706 106.90 466.49 0.53996 1.7264 2.1764 2025.0 -0.0067605 512.85 0.22318
-0.62500 35694. undefined 108.63 470.54 0.54631 680.00 0.0014706 108.63 470.54 0.54631 1.7302 2.1794 2026.2 -0.0067514 511.88 0.22348 680.00 0.0014706 108.63 470.54 0.54631 1.7302 2.1794 2026.2 -0.0067514 511.88 0.22348
0.37500 35922. undefined 110.36 474.58 0.55266 680.00 0.0014706 110.36 474.58 0.55266 1.7341 2.1824 2027.4 -0.0067423 510.93 0.22378 680.00 0.0014706 110.36 474.58 0.55266 1.7341 2.1824 2027.4 -0.0067423 510.93 0.22378
1.3750 36150. undefined 112.10 478.63 0.55899 680.00 0.0014706 112.10 478.63 0.55899 1.7380 2.1855 2028.6 -0.0067331 509.99 0.22409 680.00 0.0014706 112.10 478.63 0.55899 1.7380 2.1855 2028.6 -0.0067331 509.99 0.22409
2.3750 36378. undefined 113.84 482.68 0.56532 680.00 0.0014706 113.84 482.68 0.56532 1.7419 2.1885 2029.9 -0.0067239 509.05 0.22439 680.00 0.0014706 113.84 482.68 0.56532 1.7419 2.1885 2029.9 -0.0067239 509.05 0.22439
3.3750 36605. undefined 115.58 486.73 0.57164 680.00 0.0014706 115.58 486.73 0.57164 1.7458 2.1916 2031.1 -0.0067147 508.13 0.22469 680.00 0.0014706 115.58 486.73 0.57164 1.7458 2.1916 2031.1 -0.0067147 508.13 0.22469
4.3750 36832. undefined 117.33 490.78 0.57795 680.00 0.0014706 117.33 490.78 0.57795 1.7497 2.1947 2032.3 -0.0067055 507.22 0.22500 680.00 0.0014706 117.33 490.78 0.57795 1.7497 2.1947 2032.3 -0.0067055 507.22 0.22500
5.3750 37058. undefined 119.08 494.82 0.58425 680.00 0.0014706 119.08 494.82 0.58425 1.7537 2.1978 2033.5 -0.0066962 506.31 0.22530 680.00 0.0014706 119.08 494.82 0.58425 1.7537 2.1978 2033.5 -0.0066962 506.31 0.22530
6.3750 37284. undefined 120.83 498.87 0.59054 680.00 0.0014706 120.83 498.87 0.59054 1.7576 2.2009 2034.7 -0.0066869 505.42 0.22561 680.00 0.0014706 120.83 498.87 0.59054 1.7576 2.2009 2034.7 -0.0066869 505.42 0.22561
7.3750 37510. undefined 122.59 502.92 0.59682 680.00 0.0014706 122.59 502.92 0.59682 1.7615 2.2041 2035.9 -0.0066776 504.53 0.22591 680.00 0.0014706 122.59 502.92 0.59682 1.7615 2.2041 2035.9 -0.0066776 504.53 0.22591
8.3750 37735. undefined 124.36 506.96 0.60310 680.00 0.0014706 124.36 506.96 0.60310 1.7655 2.2072 2037.1 -0.0066683 503.66 0.22622 680.00 0.0014706 124.36 506.96 0.60310 1.7655 2.2072 2037.1 -0.0066683 503.66 0.22622
9.3750 37960. undefined 126.13 511.01 0.60937 680.00 0.0014706 126.13 511.01 0.60937 1.7694 2.2104 2038.3 -0.0066589 502.79 0.22652 680.00 0.0014706 126.13 511.01 0.60937 1.7694 2.2104 2038.3 -0.0066589 502.79 0.22652
10.375 38184. undefined 127.90 515.06 0.61563 680.00 0.0014706 127.90 515.06 0.61563 1.7734 2.2135 2039.5 -0.0066496 501.94 0.22683 680.00 0.0014706 127.90 515.06 0.61563 1.7734 2.2135 2039.5 -0.0066496 501.94 0.22683
11.375 38408. undefined 129.67 519.11 0.62188 680.00 0.0014706 129.67 519.11 0.62188 1.7774 2.2167 2040.6 -0.0066402 501.09 0.22714 680.00 0.0014706 129.67 519.11 0.62188 1.7774 2.2167 2040.6 -0.0066402 501.09 0.22714
12.375 38632. undefined 131.45 523.16 0.62812 680.00 0.0014706 131.45 523.16 0.62812 1.7814 2.2199 2041.8 -0.0066308 500.25 0.22744 680.00 0.0014706 131.45 523.16 0.62812 1.7814 2.2199 2041.8 -0.0066308 500.25 0.22744
13.375 38856. undefined 133.23 527.20 0.63435 680.00 0.0014706 133.23 527.20 0.63435 1.7854 2.2231 2043.0 -0.0066214 499.42 0.22775 680.00 0.0014706 133.23 527.20 0.63435 1.7854 2.2231 2043.0 -0.0066214 499.42 0.22775
14.375 39079. undefined 135.02 531.25 0.64058 680.00 0.0014706 135.02 531.25 0.64058 1.7894 2.2264 2044.2 -0.0066120 498.60 0.22806 680.00 0.0014706 135.02 531.25 0.64058 1.7894 2.2264 2044.2 -0.0066120 498.60 0.22806
15.375 39301. undefined 136.81 535.30 0.64680 680.00 0.0014706 136.81 535.30 0.64680 1.7934 2.2296 2045.3 -0.0066025 497.79 0.22837 680.00 0.0014706 136.81 535.30 0.64680 1.7934 2.2296 2045.3 -0.0066025 497.79 0.22837
16.375 39523. undefined 138.61 539.35 0.65301 680.00 0.0014706 138.61 539.35 0.65301 1.7974 2.2329 2046.5 -0.0065931 496.98 0.22867 680.00 0.0014706 138.61 539.35 0.65301 1.7974 2.2329 2046.5 -0.0065931 496.98 0.22867
17.375 39745. undefined 140.41 543.40 0.65922 680.00 0.0014706 140.41 543.40 0.65922 1.8014 2.2361 2047.7 -0.0065836 496.18 0.22898 680.00 0.0014706 140.41 543.40 0.65922 1.8014 2.2361 2047.7 -0.0065836 496.18 0.22898
18.375 39967. undefined 142.21 547.45 0.66541 680.00 0.0014706 142.21 547.45 0.66541 1.8055 2.2394 2048.8 -0.0065741 495.40 0.22929 680.00 0.0014706 142.21 547.45 0.66541 1.8055 2.2394 2048.8 -0.0065741 495.40 0.22929
19.375 40188. undefined 144.02 551.50 0.67160 680.00 0.0014706 144.02 551.50 0.67160 1.8095 2.2427 2050.0 -0.0065646 494.62 0.22960 680.00 0.0014706 144.02 551.50 0.67160 1.8095 2.2427 2050.0 -0.0065646 494.62 0.22960
20.375 40409. undefined 145.83 555.55 0.67779 680.00 0.0014706 145.83 555.55 0.67779 1.8136 2.2460 2051.1 -0.0065551 493.85 0.22991 680.00 0.0014706 145.83 555.55 0.67779 1.8136 2.2460 2051.1 -0.0065551 493.85 0.22991
21.375 40629. undefined 147.65 559.60 0.68396 680.00 0.0014706 147.65 559.60 0.68396 1.8176 2.2493 2052.3 -0.0065456 493.08 0.23022 680.00 0.0014706 147.65 559.60 0.68396 1.8176 2.2493 2052.3 -0.0065456 493.08 0.23022
22.375 40849. undefined 149.47 563.65 0.69013 680.00 0.0014706 149.47 563.65 0.69013 1.8217 2.2527 2053.4 -0.0065361 492.33 0.23053 680.00 0.0014706 149.47 563.65 0.69013 1.8217 2.2527 2053.4 -0.0065361 492.33 0.23053
23.375 41069. undefined 151.29 567.71 0.69629 680.00 0.0014706 151.29 567.71 0.69629 1.8257 2.2560 2054.6 -0.0065266 491.58 0.23084 680.00 0.0014706 151.29 567.71 0.69629 1.8257 2.2560 2054.6 -0.0065266 491.58 0.23084
24.375 41289. undefined 153.12 571.76 0.70244 680.00 0.0014706 153.12 571.76 0.70244 1.8298 2.2593 2055.7 -0.0065171 490.84 0.23115 680.00 0.0014706 153.12 571.76 0.70244 1.8298 2.2593 2055.7 -0.0065171 490.84 0.23115
25.375 41508. undefined 154.95 575.81 0.70859 680.00 0.0014706 154.95 575.81 0.70859 1.8339 2.2627 2056.9 -0.0065075 490.11 0.23146 680.00 0.0014706 154.95 575.81 0.70859 1.8339 2.2627 2056.9 -0.0065075 490.11 0.23146
26.375 41726. undefined 156.79 579.86 0.71473 680.00 0.0014706 156.79 579.86 0.71473 1.8380 2.2661 2058.0 -0.0064980 489.38 0.23177 680.00 0.0014706 156.79 579.86 0.71473 1.8380 2.2661 2058.0 -0.0064980 489.38 0.23177
27.375 41945. undefined 158.63 583.92 0.72086 680.00 0.0014706 158.63 583.92 0.72086 1.8421 2.2695 2059.1 -0.0064884 488.66 0.23208 680.00 0.0014706 158.63 583.92 0.72086 1.8421 2.2695 2059.1 -0.0064884 488.66 0.23208
28.375 42163. undefined 160.47 587.97 0.72699 680.00 0.0014706 160.47 587.97 0.72699 1.8462 2.2728 2060.3 -0.0064789 487.95 0.23239 680.00 0.0014706 160.47 587.97 0.72699 1.8462 2.2728 2060.3 -0.0064789 487.95 0.23239
29.375 42380. undefined 162.32 592.03 0.73311 680.00 0.0014706 162.32 592.03 0.73311 1.8503 2.2762 2061.4 -0.0064693 487.25 0.23270 680.00 0.0014706 162.32 592.03 0.73311 1.8503 2.2762 2061.4 -0.0064693 487.25 0.23270
30.375 42598. undefined 164.17 596.08 0.73922 680.00 0.0014706 164.17 596.08 0.73922 1.8544 2.2797 2062.5 -0.0064597 486.55 0.23301 680.00 0.0014706 164.17 596.08 0.73922 1.8544 2.2797 2062.5 -0.0064597 486.55 0.23301
31.375 42815. undefined 166.03 600.14 0.74533 680.00 0.0014706 166.03 600.14 0.74533 1.8585 2.2831 2063.6 -0.0064502 485.86 0.23332 680.00 0.0014706 166.03 600.14 0.74533 1.8585 2.2831 2063.6 -0.0064502 485.86 0.23332
32.375 43031. undefined 167.89 604.20 0.75143 680.00 0.0014706 167.89 604.20 0.75143 1.8626 2.2865 2064.8 -0.0064406 485.17 0.23364 680.00 0.0014706 167.89 604.20 0.75143 1.8626 2.2865 2064.8 -0.0064406 485.17 0.23364
33.375 43248. undefined 169.75 608.26 0.75752 680.00 0.0014706 169.75 608.26 0.75752 1.8668 2.2900 2065.9 -0.0064310 484.50 0.23395 680.00 0.0014706 169.75 608.26 0.75752 1.8668 2.2900 2065.9 -0.0064310 484.50 0.23395
34.375 43464. undefined 171.62 612.31 0.76361 680.00 0.0014706 171.62 612.31 0.76361 1.8709 2.2934 2067.0 -0.0064215 483.83 0.23426 680.00 0.0014706 171.62 612.31 0.76361 1.8709 2.2934 2067.0 -0.0064215 483.83 0.23426
35.375 43679. undefined 173.49 616.37 0.76969 680.00 0.0014706 173.49 616.37 0.76969 1.8750 2.2969 2068.1 -0.0064119 483.17 0.23458 680.00 0.0014706 173.49 616.37 0.76969 1.8750 2.2969 2068.1 -0.0064119 483.17 0.23458
36.375 43895. undefined 175.37 620.43 0.77576 680.00 0.0014706 175.37 620.43 0.77576 1.8792 2.3003 2069.2 -0.0064023 482.51 0.23489 680.00 0.0014706 175.37 620.43 0.77576 1.8792 2.3003 2069.2 -0.0064023 482.51 0.23489
37.375 44110. undefined 177.25 624.50 0.78183 680.00 0.0014706 177.25 624.50 0.78183 1.8833 2.3038 2070.3 -0.0063928 481.86 0.23520 680.00 0.0014706 177.25 624.50 0.78183 1.8833 2.3038 2070.3 -0.0063928 481.86 0.23520
38.375 44324. undefined 179.14 628.56 0.78789 680.00 0.0014706 179.14 628.56 0.78789 1.8875 2.3073 2071.4 -0.0063832 481.21 0.23552 680.00 0.0014706 179.14 628.56 0.78789 1.8875 2.3073 2071.4 -0.0063832 481.21 0.23552
39.375 44539. undefined 181.03 632.62 0.79395 680.00 0.0014706 181.03 632.62 0.79395 1.8916 2.3108 2072.5 -0.0063736 480.58 0.23583 680.00 0.0014706 181.03 632.62 0.79395 1.8916 2.3108 2072.5 -0.0063736 480.58 0.23583
40.375 44753. undefined 182.92 636.68 0.80000 680.00 0.0014706 182.92 636.68 0.80000 1.8958 2.3143 2073.6 -0.0063641 479.94 0.23615 680.00 0.0014706 182.92 636.68 0.80000 1.8958 2.3143 2073.6 -0.0063641 479.94 0.23615
41.375 44966. undefined 184.82 640.75 0.80604 680.00 0.0014706 184.82 640.75 0.80604 1.9000 2.3178 2074.7 -0.0063545 479.32 0.23646 680.00 0.0014706 184.82 640.75 0.80604 1.9000 2.3178 2074.7 -0.0063545 479.32 0.23646
42.375 45180. undefined 186.72 644.81 0.81208 680.00 0.0014706 186.72 644.81 0.81208 1.9041 2.3213 2075.8 -0.0063450 478.70 0.23678 680.00 0.0014706 186.72 644.81 0.81208 1.9041 2.3213 2075.8 -0.0063450 478.70 0.23678
43.375 45393. undefined 188.63 648.88 0.81811 680.00 0.0014706 188.63 648.88 0.81811 1.9083 2.3249 2076.9 -0.0063354 478.08 0.23709 680.00 0.0014706 188.63 648.88 0.81811 1.9083 2.3249 2076.9 -0.0063354 478.08 0.23709
44.375 45606. undefined 190.54 652.95 0.82414 680.00 0.0014706 190.54 652.95 0.82414 1.9125 2.3284 2078.0 -0.0063259 477.48 0.23741 680.00 0.0014706 190.54 652.95 0.82414 1.9125 2.3284 2078.0 -0.0063259 477.48 0.23741
45.375 45818. undefined 192.45 657.02 0.83016 680.00 0.0014706 192.45 657.02 0.83016 1.9167 2.3319 2079.1 -0.0063164 476.88 0.23773 680.00 0.0014706 192.45 657.02 0.83016 1.9167 2.3319 2079.1 -0.0063164 476.88 0.23773
46.375 46030. undefined 194.37 661.09 0.83617 680.00 0.0014706 194.37 661.09 0.83617 1.9209 2.3355 2080.2 -0.0063068 476.28 0.23804 680.00 0.0014706 194.37 661.09 0.83617 1.9209 2.3355 2080.2 -0.0063068 476.28 0.23804
47.375 46242. undefined 196.29 665.16 0.84218 680.00 0.0014706 196.29 665.16 0.84218 1.9250 2.3390 2081.2 -0.0062973 475.69 0.23836 680.00 0.0014706 196.29 665.16 0.84218 1.9250 2.3390 2081.2 -0.0062973 475.69 0.23836
48.375 46453. undefined 198.22 669.23 0.84818 680.00 0.0014706 198.22 669.23 0.84818 1.9292 2.3426 2082.3 -0.0062878 475.10 0.23868 680.00 0.0014706 198.22 669.23 0.84818 1.9292 2.3426 2082.3 -0.0062878 475.10 0.23868
49.375 46665. undefined 200.15 673.30 0.85418 680.00 0.0014706 200.15 673.30 0.85418 1.9334 2.3462 2083.4 -0.0062783 474.52 0.23899 680.00 0.0014706 200.15 673.30 0.85418 1.9334 2.3462 2083.4 -0.0062783 474.52 0.23899
50.375 46875. undefined 202.09 677.37 0.86017 680.00 0.0014706 202.09 677.37 0.86017 1.9376 2.3498 2084.5 -0.0062688 473.95 0.23931 680.00 0.0014706 202.09 677.37 0.86017 1.9376 2.3498 2084.5 -0.0062688 473.95 0.23931
51.375 47086. undefined 204.03 681.45 0.86616 680.00 0.0014706 204.03 681.45 0.86616 1.9418 2.3533 2085.6 -0.0062593 473.38 0.23963 680.00 0.0014706 204.03 681.45 0.86616 1.9418 2.3533 2085.6 -0.0062593 473.38 0.23963
52.375 47296. undefined 205.97 685.52 0.87214 680.00 0.0014706 205.97 685.52 0.87214 1.9460 2.3569 2086.6 -0.0062498 472.82 0.23995 680.00 0.0014706 205.97 685.52 0.87214 1.9460 2.3569 2086.6 -0.0062498 472.82 0.23995
53.375 47506. undefined 207.92 689.60 0.87812 680.00 0.0014706 207.92 689.60 0.87812 1.9502 2.3605 2087.7 -0.0062403 472.26 0.24027 680.00 0.0014706 207.92 689.60 0.87812 1.9502 2.3605 2087.7 -0.0062403 472.26 0.24027
54.375 47716. undefined 209.87 693.68 0.88409 680.00 0.0014706 209.87 693.68 0.88409 1.9545 2.3641 2088.8 -0.0062309 471.71 0.24059 680.00 0.0014706 209.87 693.68 0.88409 1.9545 2.3641 2088.8 -0.0062309 471.71 0.24059
55.375 47925. undefined 211.83 697.76 0.89005 680.00 0.0014706 211.83 697.76 0.89005 1.9587 2.3677 2089.8 -0.0062214 471.16 0.24090 680.00 0.0014706 211.83 697.76 0.89005 1.9587 2.3677 2089.8 -0.0062214 471.16 0.24090
56.375 48134. undefined 213.79 701.84 0.89601 680.00 0.0014706 213.79 701.84 0.89601 1.9629 2.3714 2090.9 -0.0062120 470.62 0.24122 680.00 0.0014706 213.79 701.84 0.89601 1.9629 2.3714 2090.9 -0.0062120 470.62 0.24122
57.375 48343. undefined 215.75 705.92 0.90196 680.00 0.0014706 215.75 705.92 0.90196 1.9671 2.3750 2092.0 -0.0062026 470.08 0.24154 680.00 0.0014706 215.75 705.92 0.90196 1.9671 2.3750 2092.0 -0.0062026 470.08 0.24154
58.375 48551. undefined 217.72 710.00 0.90791 680.00 0.0014706 217.72 710.00 0.90791 1.9713 2.3786 2093.0 -0.0061931 469.55 0.24186 680.00 0.0014706 217.72 710.00 0.90791 1.9713 2.3786 2093.0 -0.0061931 469.55 0.24186
59.375 48759. undefined 219.70 714.09 0.91386 680.00 0.0014706 219.70 714.09 0.91386 1.9755 2.3823 2094.1 -0.0061837 469.02 0.24218 680.00 0.0014706 219.70 714.09 0.91386 1.9755 2.3823 2094.1 -0.0061837 469.02 0.24218
60.375 48967. undefined 221.67 718.17 0.91979 680.00 0.0014706 221.67 718.17 0.91979 1.9798 2.3859 2095.1 -0.0061743 468.49 0.24251 680.00 0.0014706 221.67 718.17 0.91979 1.9798 2.3859 2095.1 -0.0061743 468.49 0.24251
61.375 49175. undefined 223.66 722.26 0.92573 680.00 0.0014706 223.66 722.26 0.92573 1.9840 2.3895 2096.2 -0.0061650 467.98 0.24283 680.00 0.0014706 223.66 722.26 0.92573 1.9840 2.3895 2096.2 -0.0061650 467.98 0.24283
62.375 49382. undefined 225.64 726.34 0.93166 680.00 0.0014706 225.64 726.34 0.93166 1.9882 2.3932 2097.2 -0.0061556 467.46 0.24315 680.00 0.0014706 225.64 726.34 0.93166 1.9882 2.3932 2097.2 -0.0061556 467.46 0.24315
63.375 49589. undefined 227.63 730.43 0.93758 680.00 0.0014706 227.63 730.43 0.93758 1.9925 2.3968 2098.3 -0.0061462 466.95 0.24347 680.00 0.0014706 227.63 730.43 0.93758 1.9925 2.3968 2098.3 -0.0061462 466.95 0.24347
64.375 49796. undefined 229.63 734.52 0.94350 680.00 0.0014706 229.63 734.52 0.94350 1.9967 2.4005 2099.3 -0.0061369 466.45 0.24379 680.00 0.0014706 229.63 734.52 0.94350 1.9967 2.4005 2099.3 -0.0061369 466.45 0.24379
65.375 50002. undefined 231.63 738.62 0.94941 680.00 0.0014706 231.63 738.62 0.94941 2.0009 2.4042 2100.4 -0.0061276 465.95 0.24411 680.00 0.0014706 231.63 738.62 0.94941 2.0009 2.4042 2100.4 -0.0061276 465.95 0.24411
66.375 50208. undefined 233.63 742.71 0.95532 680.00 0.0014706 233.63 742.71 0.95532 2.0052 2.4078 2101.4 -0.0061183 465.45 0.24444 680.00 0.0014706 233.63 742.71 0.95532 2.0052 2.4078 2101.4 -0.0061183 465.45 0.24444
67.375 50414. undefined 235.64 746.80 0.96122 680.00 0.0014706 235.64 746.80 0.96122 2.0094 2.4115 2102.5 -0.0061090 464.96 0.24476 680.00 0.0014706 235.64 746.80 0.96122 2.0094 2.4115 2102.5 -0.0061090 464.96 0.24476
68.375 50620. undefined 237.65 750.90 0.96712 680.00 0.0014706 237.65 750.90 0.96712 2.0136 2.4152 2103.5 -0.0060997 464.48 0.24508 680.00 0.0014706 237.65 750.90 0.96712 2.0136 2.4152 2103.5 -0.0060997 464.48 0.24508
69.375 50825. undefined 239.66 755.00 0.97301 680.00 0.0014706 239.66 755.00 0.97301 2.0179 2.4189 2104.5 -0.0060904 463.99 0.24540 680.00 0.0014706 239.66 755.00 0.97301 2.0179 2.4189 2104.5 -0.0060904 463.99 0.24540
70.375 51030. undefined 241.68 759.09 0.97890 680.00 0.0014706 241.68 759.09 0.97890 2.0221 2.4226 2105.6 -0.0060812 463.52 0.24573 680.00 0.0014706 241.68 759.09 0.97890 2.0221 2.4226 2105.6 -0.0060812 463.52 0.24573
71.375 51235. undefined 243.71 763.19 0.98479 680.00 0.0014706 243.71 763.19 0.98479 2.0264 2.4262 2106.6 -0.0060720 463.04 0.24605 680.00 0.0014706 243.71 763.19 0.98479 2.0264 2.4262 2106.6 -0.0060720 463.04 0.24605
72.375 51439. undefined 245.74 767.29 0.99067 680.00 0.0014706 245.74 767.29 0.99067 2.0306 2.4299 2107.6 -0.0060627 462.57 0.24638 680.00 0.0014706 245.74 767.29 0.99067 2.0306 2.4299 2107.6 -0.0060627 462.57 0.24638
73.375 51643. undefined 247.77 771.40 0.99654 680.00 0.0014706 247.77 771.40 0.99654 2.0348 2.4336 2108.7 -0.0060535 462.11 0.24670 680.00 0.0014706 247.77 771.40 0.99654 2.0348 2.4336 2108.7 -0.0060535 462.11 0.24670
74.375 51847. undefined 249.81 775.50 1.0024 680.00 0.0014706 249.81 775.50 1.0024 2.0391 2.4373 2109.7 -0.0060444 461.65 0.24702 680.00 0.0014706 249.81 775.50 1.0024 2.0391 2.4373 2109.7 -0.0060444 461.65 0.24702
75.375 52051. undefined 251.85 779.61 1.0083 680.00 0.0014706 251.85 779.61 1.0083 2.0433 2.4410 2110.7 -0.0060352 461.19 0.24735 680.00 0.0014706 251.85 779.61 1.0083 2.0433 2.4410 2110.7 -0.0060352 461.19 0.24735
76.375 52254. undefined 253.89 783.71 1.0141 680.00 0.0014706 253.89 783.71 1.0141 2.0476 2.4448 2111.8 -0.0060261 460.74 0.24768 680.00 0.0014706 253.89 783.71 1.0141 2.0476 2.4448 2111.8 -0.0060261 460.74 0.24768
77.375 52457. undefined 255.94 787.82 1.0200 680.00 0.0014706 255.94 787.82 1.0200 2.0518 2.4485 2112.8 -0.0060169 460.29 0.24800 680.00 0.0014706 255.94 787.82 1.0200 2.0518 2.4485 2112.8 -0.0060169 460.29 0.24800
78.375 52660. undefined 258.00 791.93 1.0258 680.00 0.0014706 258.00 791.93 1.0258 2.0561 2.4522 2113.8 -0.0060078 459.84 0.24833 680.00 0.0014706 258.00 791.93 1.0258 2.0561 2.4522 2113.8 -0.0060078 459.84 0.24833
79.375 52862. undefined 260.05 796.04 1.0317 680.00 0.0014706 260.05 796.04 1.0317 2.0603 2.4559 2114.8 -0.0059987 459.40 0.24865 680.00 0.0014706 260.05 796.04 1.0317 2.0603 2.4559 2114.8 -0.0059987 459.40 0.24865
80.375 53065. undefined 262.12 800.16 1.0375 680.00 0.0014706 262.12 800.16 1.0375 2.0646 2.4596 2115.8 -0.0059897 458.97 0.24898 680.00 0.0014706 262.12 800.16 1.0375 2.0646 2.4596 2115.8 -0.0059897 458.97 0.24898
81.375 53267. undefined 264.18 804.27 1.0434 680.00 0.0014706 264.18 804.27 1.0434 2.0688 2.4633 2116.9 -0.0059806 458.53 0.24931 680.00 0.0014706 264.18 804.27 1.0434 2.0688 2.4633 2116.9 -0.0059806 458.53 0.24931
82.375 53468. undefined 266.25 808.39 1.0492 680.00 0.0014706 266.25 808.39 1.0492 2.0730 2.4671 2117.9 -0.0059716 458.10 0.24963 680.00 0.0014706 266.25 808.39 1.0492 2.0730 2.4671 2117.9 -0.0059716 458.10 0.24963
83.375 53670. undefined 268.33 812.51 1.0550 680.00 0.0014706 268.33 812.51 1.0550 2.0773 2.4708 2118.9 -0.0059626 457.68 0.24996 680.00 0.0014706 268.33 812.51 1.0550 2.0773 2.4708 2118.9 -0.0059626 457.68 0.24996
84.375 53871. undefined 270.41 816.62 1.0609 680.00 0.0014706 270.41 816.62 1.0609 2.0815 2.4745 2119.9 -0.0059536 457.25 0.25029 680.00 0.0014706 270.41 816.62 1.0609 2.0815 2.4745 2119.9 -0.0059536 457.25 0.25029
85.375 54072. undefined 272.49 820.75 1.0667 680.00 0.0014706 272.49 820.75 1.0667 2.0858 2.4783 2120.9 -0.0059446 456.84 0.25062 680.00 0.0014706 272.49 820.75 1.0667 2.0858 2.4783 2120.9 -0.0059446 456.84 0.25062
86.375 54272. undefined 274.58 824.87 1.0725 680.00 0.0014706 274.58 824.87 1.0725 2.0900 2.4820 2121.9 -0.0059356 456.42 0.25094 680.00 0.0014706 274.58 824.87 1.0725 2.0900 2.4820 2121.9 -0.0059356 456.42 0.25094
87.375 54473. undefined 276.67 828.99 1.0783 680.00 0.0014706 276.67 828.99 1.0783 2.0943 2.4857 2122.9 -0.0059267 456.01 0.25127 680.00 0.0014706 276.67 828.99 1.0783 2.0943 2.4857 2122.9 -0.0059267 456.01 0.25127
88.375 54673. undefined 278.77 833.12 1.0841 680.00 0.0014706 278.77 833.12 1.0841 2.0985 2.4895 2123.9 -0.0059178 455.60 0.25160 680.00 0.0014706 278.77 833.12 1.0841 2.0985 2.4895 2123.9 -0.0059178 455.60 0.25160
89.375 54873. undefined 280.87 837.24 1.0899 680.00 0.0014706 280.87 837.24 1.0899 2.1028 2.4932 2124.9 -0.0059089 455.20 0.25193 680.00 0.0014706 280.87 837.24 1.0899 2.1028 2.4932 2124.9 -0.0059089 455.20 0.25193
90.375 55072. undefined 282.97 841.37 1.0957 680.00 0.0014706 282.97 841.37 1.0957 2.1070 2.4970 2125.9 -0.0059000 454.79 0.25226 680.00 0.0014706 282.97 841.37 1.0957 2.1070 2.4970 2125.9 -0.0059000 454.79 0.25226
91.375 55272. undefined 285.08 845.50 1.1015 680.00 0.0014706 285.08 845.50 1.1015 2.1113 2.5007 2127.0 -0.0058912 454.40 0.25259 680.00 0.0014706 285.08 845.50 1.1015 2.1113 2.5007 2127.0 -0.0058912 454.40 0.25259
92.375 55471. undefined 287.20 849.64 1.1073 680.00 0.0014706 287.20 849.64 1.1073 2.1155 2.5045 2128.0 -0.0058823 454.00 0.25292 680.00 0.0014706 287.20 849.64 1.1073 2.1155 2.5045 2128.0 -0.0058823 454.00 0.25292
93.375 55670. undefined 289.31 853.77 1.1131 680.00 0.0014706 289.31 853.77 1.1131 2.1197 2.5082 2129.0 -0.0058735 453.61 0.25325 680.00 0.0014706 289.31 853.77 1.1131 2.1197 2.5082 2129.0 -0.0058735 453.61 0.25325
94.375 55868. undefined 291.44 857.90 1.1189 680.00 0.0014706 291.44 857.90 1.1189 2.1240 2.5120 2129.9 -0.0058647 453.22 0.25358 680.00 0.0014706 291.44 857.90 1.1189 2.1240 2.5120 2129.9 -0.0058647 453.22 0.25358
95.375 56067. undefined 293.56 862.04 1.1246 680.00 0.0014706 293.56 862.04 1.1246 2.1282 2.5157 2130.9 -0.0058560 452.84 0.25391 680.00 0.0014706 293.56 862.04 1.1246 2.1282 2.5157 2130.9 -0.0058560 452.84 0.25391
96.375 56265. undefined 295.69 866.18 1.1304 680.00 0.0014706 295.69 866.18 1.1304 2.1325 2.5195 2131.9 -0.0058472 452.46 0.25424 680.00 0.0014706 295.69 866.18 1.1304 2.1325 2.5195 2131.9 -0.0058472 452.46 0.25424
97.375 56463. undefined 297.83 870.32 1.1362 680.00 0.0014706 297.83 870.32 1.1362 2.1367 2.5232 2132.9 -0.0058385 452.08 0.25457 680.00 0.0014706 297.83 870.32 1.1362 2.1367 2.5232 2132.9 -0.0058385 452.08 0.25457
98.375 56660. undefined 299.97 874.46 1.1419 680.00 0.0014706 299.97 874.46 1.1419 2.1409 2.5270 2133.9 -0.0058298 451.70 0.25491 680.00 0.0014706 299.97 874.46 1.1419 2.1409 2.5270 2133.9 -0.0058298 451.70 0.25491
99.375 56858. undefined 302.11 878.61 1.1477 680.00 0.0014706 302.11 878.61 1.1477 2.1452 2.5307 2134.9 -0.0058211 451.33 0.25524 680.00 0.0014706 302.11 878.61 1.1477 2.1452 2.5307 2134.9 -0.0058211 451.33 0.25524
100.38 57055. undefined 304.26 882.75 1.1535 680.00 0.0014706 304.26 882.75 1.1535 2.1494 2.5345 2135.9 -0.0058125 450.96 0.25557 680.00 0.0014706 304.26 882.75 1.1535 2.1494 2.5345 2135.9 -0.0058125 450.96 0.25557
101.38 57251. undefined 306.41 886.90 1.1592 680.00 0.0014706 306.41 886.90 1.1592 2.1536 2.5383 2136.9 -0.0058038 450.60 0.25590 680.00 0.0014706 306.41 886.90 1.1592 2.1536 2.5383 2136.9 -0.0058038 450.60 0.25590
102.38 57448. undefined 308.56 891.05 1.1650 680.00 0.0014706 308.56 891.05 1.1650 2.1579 2.5420 2137.9 -0.0057952 450.24 0.25624 680.00 0.0014706 308.56 891.05 1.1650 2.1579 2.5420 2137.9 -0.0057952 450.24 0.25624
103.38 57644. undefined 310.72 895.20 1.1707 680.00 0.0014706 310.72 895.20 1.1707 2.1621 2.5458 2138.9 -0.0057866 449.88 0.25657 680.00 0.0014706 310.72 895.20 1.1707 2.1621 2.5458 2138.9 -0.0057866 449.88 0.25657
104.38 57841. undefined 312.89 899.35 1.1764 680.00 0.0014706 312.89 899.35 1.1764 2.1663 2.5495 2139.8 -0.0057781 449.52 0.25690 680.00 0.0014706 312.89 899.35 1.1764 2.1663 2.5495 2139.8 -0.0057781 449.52 0.25690
105.38 58036. undefined 315.06 903.51 1.1822 680.00 0.0014706 315.06 903.51 1.1822 2.1705 2.5533 2140.8 -0.0057695 449.17 0.25724 680.00 0.0014706 315.06 903.51 1.1822 2.1705 2.5533 2140.8 -0.0057695 449.17 0.25724
106.38 58232. undefined 317.23 907.66 1.1879 680.00 0.0014706 317.23 907.66 1.1879 2.1748 2.5571 2141.8 -0.0057610 448.81 0.25757 680.00 0.0014706 317.23 907.66 1.1879 2.1748 2.5571 2141.8 -0.0057610 448.81 0.25757
107.38 58427. undefined 319.41 911.82 1.1936 680.00 0.0014706 319.41 911.82 1.1936 2.1790 2.5608 2142.8 -0.0057525 448.47 0.25790 680.00 0.0014706 319.41 911.82 1.1936 2.1790 2.5608 2142.8 -0.0057525 448.47 0.25790
108.38 58623. undefined 321.59 915.98 1.1994 680.00 0.0014706 321.59 915.98 1.1994 2.1832 2.5646 2143.8 -0.0057440 448.12 0.25824 680.00 0.0014706 321.59 915.98 1.1994 2.1832 2.5646 2143.8 -0.0057440 448.12 0.25824
109.38 58818. undefined 323.77 920.14 1.2051 680.00 0.0014706 323.77 920.14 1.2051 2.1874 2.5684 2144.7 -0.0057356 447.78 0.25857 680.00 0.0014706 323.77 920.14 1.2051 2.1874 2.5684 2144.7 -0.0057356 447.78 0.25857
110.38 59012. undefined 325.96 924.31 1.2108 680.00 0.0014706 325.96 924.31 1.2108 2.1916 2.5721 2145.7 -0.0057271 447.44 0.25891 680.00 0.0014706 325.96 924.31 1.2108 2.1916 2.5721 2145.7 -0.0057271 447.44 0.25891
111.38 59207. undefined 328.16 928.47 1.2165 680.00 0.0014706 328.16 928.47 1.2165 2.1958 2.5759 2146.7 -0.0057187 447.10 0.25925 680.00 0.0014706 328.16 928.47 1.2165 2.1958 2.5759 2146.7 -0.0057187 447.10 0.25925
112.38 59401. undefined 330.35 932.64 1.2222 680.00 0.0014706 330.35 932.64 1.2222 2.2001 2.5796 2147.7 -0.0057104 446.77 0.25958 680.00 0.0014706 330.35 932.64 1.2222 2.2001 2.5796 2147.7 -0.0057104 446.77 0.25958
113.38 59595. undefined 332.56 936.81 1.2279 680.00 0.0014706 332.56 936.81 1.2279 2.2043 2.5834 2148.6 -0.0057020 446.44 0.25992 680.00 0.0014706 332.56 936.81 1.2279 2.2043 2.5834 2148.6 -0.0057020 446.44 0.25992
114.38 59789. undefined 334.76 940.98 1.2336 680.00 0.0014706 334.76 940.98 1.2336 2.2085 2.5872 2149.6 -0.0056937 446.11 0.26025 680.00 0.0014706 334.76 940.98 1.2336 2.2085 2.5872 2149.6 -0.0056937 446.11 0.26025
115.38 59982. undefined 336.97 945.15 1.2393 680.00 0.0014706 336.97 945.15 1.2393 2.2127 2.5909 2150.6 -0.0056854 445.78 0.26059 680.00 0.0014706 336.97 945.15 1.2393 2.2127 2.5909 2150.6 -0.0056854 445.78 0.26059
116.38 60175. undefined 339.19 949.33 1.2450 680.00 0.0014706 339.19 949.33 1.2450 2.2169 2.5947 2151.5 -0.0056771 445.46 0.26093 680.00 0.0014706 339.19 949.33 1.2450 2.2169 2.5947 2151.5 -0.0056771 445.46 0.26093
117.38 60369. undefined 341.41 953.50 1.2507 680.00 0.0014706 341.41 953.50 1.2507 2.2211 2.5985 2152.5 -0.0056688 445.14 0.26126 680.00 0.0014706 341.41 953.50 1.2507 2.2211 2.5985 2152.5 -0.0056688 445.14 0.26126
118.38 60561. undefined 343.63 957.68 1.2564 680.00 0.0014706 343.63 957.68 1.2564 2.2253 2.6022 2153.5 -0.0056606 444.82 0.26160 680.00 0.0014706 343.63 957.68 1.2564 2.2253 2.6022 2153.5 -0.0056606 444.82 0.26160
119.38 60754. undefined 345.86 961.86 1.2621 680.00 0.0014706 345.86 961.86 1.2621 2.2295 2.6060 2154.4 -0.0056524 444.50 0.26194 680.00 0.0014706 345.86 961.86 1.2621 2.2295 2.6060 2154.4 -0.0056524 444.50 0.26194
120.38 60946. undefined 348.09 966.04 1.2678 680.00 0.0014706 348.09 966.04 1.2678 2.2337 2.6097 2155.4 -0.0056442 444.19 0.26228 680.00 0.0014706 348.09 966.04 1.2678 2.2337 2.6097 2155.4 -0.0056442 444.19 0.26228
121.38 61138. undefined 350.32 970.23 1.2734 680.00 0.0014706 350.32 970.23 1.2734 2.2378 2.6135 2156.4 -0.0056360 443.88 0.26262 680.00 0.0014706 350.32 970.23 1.2734 2.2378 2.6135 2156.4 -0.0056360 443.88 0.26262
122.38 61330. undefined 352.56 974.41 1.2791 680.00 0.0014706 352.56 974.41 1.2791 2.2420 2.6173 2157.3 -0.0056279 443.57 0.26296 680.00 0.0014706 352.56 974.41 1.2791 2.2420 2.6173 2157.3 -0.0056279 443.57 0.26296
123.38 61522. undefined 354.81 978.60 1.2848 680.00 0.0014706 354.81 978.60 1.2848 2.2462 2.6210 2158.3 -0.0056198 443.26 0.26329 680.00 0.0014706 354.81 978.60 1.2848 2.2462 2.6210 2158.3 -0.0056198 443.26 0.26329
124.38 61714. undefined 357.06 982.79 1.2904 680.00 0.0014706 357.06 982.79 1.2904 2.2504 2.6248 2159.2 -0.0056117 442.96 0.26363 680.00 0.0014706 357.06 982.79 1.2904 2.2504 2.6248 2159.2 -0.0056117 442.96 0.26363
125.38 61905. undefined 359.31 986.98 1.2961 680.00 0.0014706 359.31 986.98 1.2961 2.2546 2.6285 2160.2 -0.0056036 442.66 0.26397 680.00 0.0014706 359.31 986.98 1.2961 2.2546 2.6285 2160.2 -0.0056036 442.66 0.26397
126.38 62096. undefined 361.57 991.18 1.3017 680.00 0.0014706 361.57 991.18 1.3017 2.2587 2.6323 2161.2 -0.0055956 442.36 0.26431 680.00 0.0014706 361.57 991.18 1.3017 2.2587 2.6323 2161.2 -0.0055956 442.36 0.26431
127.38 62287. undefined 363.83 995.37 1.3074 680.00 0.0014706 363.83 995.37 1.3074 2.2629 2.6360 2162.1 -0.0055875 442.07 0.26465 680.00 0.0014706 363.83 995.37 1.3074 2.2629 2.6360 2162.1 -0.0055875 442.07 0.26465
128.38 62477. undefined 366.09 999.57 1.3130 680.00 0.0014706 366.09 999.57 1.3130 2.2671 2.6398 2163.1 -0.0055795 441.77 0.26499 680.00 0.0014706 366.09 999.57 1.3130 2.2671 2.6398 2163.1 -0.0055795 441.77 0.26499
129.38 62668. undefined 368.36 1003.8 1.3187 680.00 0.0014706 368.36 1003.8 1.3187 2.2713 2.6435 2164.0 -0.0055716 441.48 0.26533 680.00 0.0014706 368.36 1003.8 1.3187 2.2713 2.6435 2164.0 -0.0055716 441.48 0.26533
130.38 62858. undefined 370.63 1008.0 1.3243 680.00 0.0014706 370.63 1008.0 1.3243 2.2754 2.6473 2165.0 -0.0055636 441.19 0.26568 680.00 0.0014706 370.63 1008.0 1.3243 2.2754 2.6473 2165.0 -0.0055636 441.19 0.26568
131.38 63048. undefined 372.91 1012.2 1.3300 680.00 0.0014706 372.91 1012.2 1.3300 2.2796 2.6510 2165.9 -0.0055557 440.90 0.26602 680.00 0.0014706 372.91 1012.2 1.3300 2.2796 2.6510 2165.9 -0.0055557 440.90 0.26602
132.38 63237. undefined 375.19 1016.4 1.3356 680.00 0.0014706 375.19 1016.4 1.3356 2.2837 2.6548 2166.9 -0.0055478 440.62 0.26636 680.00 0.0014706 375.19 1016.4 1.3356 2.2837 2.6548 2166.9 -0.0055478 440.62 0.26636
133.38 63427. undefined 377.48 1020.6 1.3412 680.00 0.0014706 377.48 1020.6 1.3412 2.2879 2.6585 2167.8 -0.0055399 440.33 0.26670 680.00 0.0014706 377.48 1020.6 1.3412 2.2879 2.6585 2167.8 -0.0055399 440.33 0.26670
134.38 63616. undefined 379.77 1024.8 1.3469 680.00 0.0014706 379.77 1024.8 1.3469 2.2920 2.6623 2168.8 -0.0055321 440.05 0.26704 680.00 0.0014706 379.77 1024.8 1.3469 2.2920 2.6623 2168.8 -0.0055321 440.05 0.26704
135.38 63805. undefined 382.06 1029.0 1.3525 680.00 0.0014706 382.06 1029.0 1.3525 2.2962 2.6660 2169.7 -0.0055243 439.78 0.26739 680.00 0.0014706 382.06 1029.0 1.3525 2.2962 2.6660 2169.7 -0.0055243 439.78 0.26739
136.38 63994. undefined 384.36 1033.2 1.3581 680.00 0.0014706 384.36 1033.2 1.3581 2.3003 2.6698 2170.6 -0.0055165 439.50 0.26773 680.00 0.0014706 384.36 1033.2 1.3581 2.3003 2.6698 2170.6 -0.0055165 439.50 0.26773
137.38 64183. undefined 386.66 1037.4 1.3637 680.00 0.0014706 386.66 1037.4 1.3637 2.3045 2.6735 2171.6 -0.0055087 439.23 0.26807 680.00 0.0014706 386.66 1037.4 1.3637 2.3045 2.6735 2171.6 -0.0055087 439.23 0.26807
138.38 64371. undefined 388.97 1041.7 1.3693 680.00 0.0014706 388.97 1041.7 1.3693 2.3086 2.6772 2172.5 -0.0055009 438.95 0.26842 680.00 0.0014706 388.97 1041.7 1.3693 2.3086 2.6772 2172.5 -0.0055009 438.95 0.26842
139.38 64559. undefined 391.28 1045.9 1.3749 680.00 0.0014706 391.28 1045.9 1.3749 2.3127 2.6810 2173.5 -0.0054932 438.68 0.26876 680.00 0.0014706 391.28 1045.9 1.3749 2.3127 2.6810 2173.5 -0.0054932 438.68 0.26876
140.38 64747. undefined 393.60 1050.1 1.3805 680.00 0.0014706 393.60 1050.1 1.3805 2.3169 2.6847 2174.4 -0.0054855 438.42 0.26910 680.00 0.0014706 393.60 1050.1 1.3805 2.3169 2.6847 2174.4 -0.0054855 438.42 0.26910
141.38 64935. undefined 395.92 1054.3 1.3861 680.00 0.0014706 395.92 1054.3 1.3861 2.3210 2.6884 2175.4 -0.0054778 438.15 0.26945 680.00 0.0014706 395.92 1054.3 1.3861 2.3210 2.6884 2175.4 -0.0054778 438.15 0.26945
142.38 65123. undefined 398.24 1058.5 1.3917 680.00 0.0014706 398.24 1058.5 1.3917 2.3251 2.6922 2176.3 -0.0054702 437.89 0.26979 680.00 0.0014706 398.24 1058.5 1.3917 2.3251 2.6922 2176.3 -0.0054702 437.89 0.26979
143.38 65310. undefined 400.57 1062.8 1.3973 680.00 0.0014706 400.57 1062.8 1.3973 2.3292 2.6959 2177.2 -0.0054626 437.62 0.27014 680.00 0.0014706 400.57 1062.8 1.3973 2.3292 2.6959 2177.2 -0.0054626 437.62 0.27014
144.38 65497. undefined 402.90 1067.0 1.4029 680.00 0.0014706 402.90 1067.0 1.4029 2.3333 2.6996 2178.2 -0.0054550 437.36 0.27048 680.00 0.0014706 402.90 1067.0 1.4029 2.3333 2.6996 2178.2 -0.0054550 437.36 0.27048
145.38 65684. undefined 405.23 1071.2 1.4085 680.00 0.0014706 405.23 1071.2 1.4085 2.3374 2.7033 2179.1 -0.0054474 437.11 0.27083 680.00 0.0014706 405.23 1071.2 1.4085 2.3374 2.7033 2179.1 -0.0054474 437.11 0.27083
146.38 65871. undefined 407.57 1075.5 1.4141 680.00 0.0014706 407.57 1075.5 1.4141 2.3416 2.7071 2180.0 -0.0054398 436.85 0.27117 680.00 0.0014706 407.57 1075.5 1.4141 2.3416 2.7071 2180.0 -0.0054398 436.85 0.27117
147.38 66057. undefined 409.92 1079.7 1.4197 680.00 0.0014706 409.92 1079.7 1.4197 2.3457 2.7108 2181.0 -0.0054323 436.60 0.27152 680.00 0.0014706 409.92 1079.7 1.4197 2.3457 2.7108 2181.0 -0.0054323 436.60 0.27152
148.38 66244. undefined 412.26 1083.9 1.4252 680.00 0.0014706 412.26 1083.9 1.4252 2.3498 2.7145 2181.9 -0.0054248 436.34 0.27187 680.00 0.0014706 412.26 1083.9 1.4252 2.3498 2.7145 2181.9 -0.0054248 436.34 0.27187
149.38 66430. undefined 414.61 1088.2 1.4308 680.00 0.0014706 414.61 1088.2 1.4308 2.3539 2.7182 2182.8 -0.0054173 436.09 0.27221 680.00 0.0014706 414.61 1088.2 1.4308 2.3539 2.7182 2182.8 -0.0054173 436.09 0.27221
150.38 66616. undefined 416.97 1092.4 1.4364 680.00 0.0014706 416.97 1092.4 1.4364 2.3579 2.7219 2183.7 -0.0054099 435.84 0.27256 680.00 0.0014706 416.97 1092.4 1.4364 2.3579 2.7219 2183.7 -0.0054099 435.84 0.27256
151.38 66802. undefined 419.33 1096.7 1.4419 680.00 0.0014706 419.33 1096.7 1.4419 2.3620 2.7256 2184.7 -0.0054024 435.60 0.27291 680.00 0.0014706 419.33 1096.7 1.4419 2.3620 2.7256 2184.7 -0.0054024 435.60 0.27291
152.38 66987. undefined 421.69 1100.9 1.4475 680.00 0.0014706 421.69 1100.9 1.4475 2.3661 2.7293 2185.6 -0.0053950 435.35 0.27325 680.00 0.0014706 421.69 1100.9 1.4475 2.3661 2.7293 2185.6 -0.0053950 435.35 0.27325
153.38 67172. undefined 424.06 1105.1 1.4531 680.00 0.0014706 424.06 1105.1 1.4531 2.3702 2.7330 2186.5 -0.0053876 435.11 0.27360 680.00 0.0014706 424.06 1105.1 1.4531 2.3702 2.7330 2186.5 -0.0053876 435.11 0.27360
154.38 67358. undefined 426.43 1109.4 1.4586 680.00 0.0014706 426.43 1109.4 1.4586 2.3743 2.7367 2187.5 -0.0053803 434.87 0.27395 680.00 0.0014706 426.43 1109.4 1.4586 2.3743 2.7367 2187.5 -0.0053803 434.87 0.27395
155.38 67542. undefined 428.81 1113.6 1.4642 680.00 0.0014706 428.81 1113.6 1.4642 2.3783 2.7404 2188.4 -0.0053730 434.63 0.27430 680.00 0.0014706 428.81 1113.6 1.4642 2.3783 2.7404 2188.4 -0.0053730 434.63 0.27430
156.38 67727. undefined 431.19 1117.9 1.4697 680.00 0.0014706 431.19 1117.9 1.4697 2.3824 2.7441 2189.3 -0.0053656 434.39 0.27465 680.00 0.0014706 431.19 1117.9 1.4697 2.3824 2.7441 2189.3 -0.0053656 434.39 0.27465
157.38 67912. undefined 433.58 1122.2 1.4753 680.00 0.0014706 433.58 1122.2 1.4753 2.3865 2.7478 2190.2 -0.0053584 434.16 0.27500 680.00 0.0014706 433.58 1122.2 1.4753 2.3865 2.7478 2190.2 -0.0053584 434.16 0.27500
158.38 68096. undefined 435.96 1126.4 1.4808 680.00 0.0014706 435.96 1126.4 1.4808 2.3905 2.7515 2191.1 -0.0053511 433.92 0.27535 680.00 0.0014706 435.96 1126.4 1.4808 2.3905 2.7515 2191.1 -0.0053511 433.92 0.27535
159.38 68280. undefined 438.36 1130.7 1.4864 680.00 0.0014706 438.36 1130.7 1.4864 2.3946 2.7552 2192.1 -0.0053439 433.69 0.27569 680.00 0.0014706 438.36 1130.7 1.4864 2.3946 2.7552 2192.1 -0.0053439 433.69 0.27569
160.38 68464. undefined 440.75 1134.9 1.4919 680.00 0.0014706 440.75 1134.9 1.4919 2.3986 2.7589 2193.0 -0.0053366 433.46 0.27604 680.00 0.0014706 440.75 1134.9 1.4919 2.3986 2.7589 2193.0 -0.0053366 433.46 0.27604
161.38 68648. undefined 443.15 1139.2 1.4974 680.00 0.0014706 443.15 1139.2 1.4974 2.4027 2.7626 2193.9 -0.0053295 433.23 0.27639 680.00 0.0014706 443.15 1139.2 1.4974 2.4027 2.7626 2193.9 -0.0053295 433.23 0.27639
162.38 68831. undefined 445.56 1143.5 1.5029 680.00 0.0014706 445.56 1143.5 1.5029 2.4067 2.7663 2194.8 -0.0053223 433.00 0.27675 680.00 0.0014706 445.56 1143.5 1.5029 2.4067 2.7663 2194.8 -0.0053223 433.00 0.27675
163.38 69015. undefined 447.97 1147.7 1.5085 680.00 0.0014706 447.97 1147.7 1.5085 2.4108 2.7700 2195.7 -0.0053152 432.78 0.27710 680.00 0.0014706 447.97 1147.7 1.5085 2.4108 2.7700 2195.7 -0.0053152 432.78 0.27710
164.38 69198. undefined 450.38 1152.0 1.5140 680.00 0.0014706 450.38 1152.0 1.5140 2.4148 2.7736 2196.6 -0.0053080 432.56 0.27745 680.00 0.0014706 450.38 1152.0 1.5140 2.4148 2.7736 2196.6 -0.0053080 432.56 0.27745
165.38 69381. undefined 452.80 1156.3 1.5195 680.00 0.0014706 452.80 1156.3 1.5195 2.4188 2.7773 2197.5 -0.0053009 432.33 0.27780 680.00 0.0014706 452.80 1156.3 1.5195 2.4188 2.7773 2197.5 -0.0053009 432.33 0.27780
166.38 69564. undefined 455.22 1160.5 1.5250 680.00 0.0014706 455.22 1160.5 1.5250 2.4228 2.7810 2198.5 -0.0052939 432.11 0.27815 680.00 0.0014706 455.22 1160.5 1.5250 2.4228 2.7810 2198.5 -0.0052939 432.11 0.27815
167.38 69746. undefined 457.64 1164.8 1.5305 680.00 0.0014706 457.64 1164.8 1.5305 2.4269 2.7846 2199.4 -0.0052868 431.89 0.27850 680.00 0.0014706 457.64 1164.8 1.5305 2.4269 2.7846 2199.4 -0.0052868 431.89 0.27850
168.38 69929. undefined 460.07 1169.1 1.5360 680.00 0.0014706 460.07 1169.1 1.5360 2.4309 2.7883 2200.3 -0.0052798 431.68 0.27885 680.00 0.0014706 460.07 1169.1 1.5360 2.4309 2.7883 2200.3 -0.0052798 431.68 0.27885
169.38 70111. undefined 462.50 1173.4 1.5415 680.00 0.0014706 462.50 1173.4 1.5415 2.4349 2.7920 2201.2 -0.0052728 431.46 0.27921 680.00 0.0014706 462.50 1173.4 1.5415 2.4349 2.7920 2201.2 -0.0052728 431.46 0.27921
170.38 70293. undefined 464.94 1177.7 1.5470 680.00 0.0014706 464.94 1177.7 1.5470 2.4389 2.7956 2202.1 -0.0052658 431.25 0.27956 680.00 0.0014706 464.94 1177.7 1.5470 2.4389 2.7956 2202.1 -0.0052658 431.25 0.27956
171.38 70475. undefined 467.38 1182.0 1.5525 680.00 0.0014706 467.38 1182.0 1.5525 2.4429 2.7993 2203.0 -0.0052589 431.03 0.27991 680.00 0.0014706 467.38 1182.0 1.5525 2.4429 2.7993 2203.0 -0.0052589 431.03 0.27991
172.38 70656. undefined 469.83 1186.2 1.5580 680.00 0.0014706 469.83 1186.2 1.5580 2.4469 2.8029 2203.9 -0.0052520 430.82 0.28027 680.00 0.0014706 469.83 1186.2 1.5580 2.4469 2.8029 2203.9 -0.0052520 430.82 0.28027
173.38 70838. undefined 472.28 1190.5 1.5635 680.00 0.0014706 472.28 1190.5 1.5635 2.4509 2.8066 2204.8 -0.0052451 430.61 0.28062 680.00 0.0014706 472.28 1190.5 1.5635 2.4509 2.8066 2204.8 -0.0052451 430.61 0.28062
174.38 71019. undefined 474.73 1194.8 1.5690 680.00 0.0014706 474.73 1194.8 1.5690 2.4549 2.8102 2205.7 -0.0052382 430.40 0.28097 680.00 0.0014706 474.73 1194.8 1.5690 2.4549 2.8102 2205.7 -0.0052382 430.40 0.28097
175.38 71200. undefined 477.19 1199.1 1.5745 680.00 0.0014706 477.19 1199.1 1.5745 2.4588 2.8139 2206.6 -0.0052313 430.20 0.28133 680.00 0.0014706 477.19 1199.1 1.5745 2.4588 2.8139 2206.6 -0.0052313 430.20 0.28133
176.38 71381. undefined 479.65 1203.4 1.5800 680.00 0.0014706 479.65 1203.4 1.5800 2.4628 2.8175 2207.5 -0.0052245 429.99 0.28168 680.00 0.0014706 479.65 1203.4 1.5800 2.4628 2.8175 2207.5 -0.0052245 429.99 0.28168
177.38 71562. undefined 482.11 1207.7 1.5855 680.00 0.0014706 482.11 1207.7 1.5855 2.4668 2.8211 2208.4 -0.0052177 429.79 0.28204 680.00 0.0014706 482.11 1207.7 1.5855 2.4668 2.8211 2208.4 -0.0052177 429.79 0.28204
178.38 71742. undefined 484.58 1212.0 1.5909 680.00 0.0014706 484.58 1212.0 1.5909 2.4708 2.8248 2209.3 -0.0052109 429.59 0.28239 680.00 0.0014706 484.58 1212.0 1.5909 2.4708 2.8248 2209.3 -0.0052109 429.59 0.28239
179.38 71923. undefined 487.05 1216.3 1.5964 680.00 0.0014706 487.05 1216.3 1.5964 2.4747 2.8284 2210.2 -0.0052041 429.39 0.28275 680.00 0.0014706 487.05 1216.3 1.5964 2.4747 2.8284 2210.2 -0.0052041 429.39 0.28275
180.38 72103. undefined 489.53 1220.6 1.6019 680.00 0.0014706 489.53 1220.6 1.6019 2.4787 2.8320 2211.1 -0.0051974 429.19 0.28310 680.00 0.0014706 489.53 1220.6 1.6019 2.4787 2.8320 2211.1 -0.0051974 429.19 0.28310
181.38 72283. undefined 492.01 1224.9 1.6073 680.00 0.0014706 492.01 1224.9 1.6073 2.4826 2.8356 2212.0 -0.0051907 428.99 0.28346 680.00 0.0014706 492.01 1224.9 1.6073 2.4826 2.8356 2212.0 -0.0051907 428.99 0.28346
182.38 72463. undefined 494.50 1229.2 1.6128 680.00 0.0014706 494.50 1229.2 1.6128 2.4866 2.8392 2212.9 -0.0051840 428.79 0.28381 680.00 0.0014706 494.50 1229.2 1.6128 2.4866 2.8392 2212.9 -0.0051840 428.79 0.28381
183.38 72642. undefined 496.98 1233.5 1.6182 680.00 0.0014706 496.98 1233.5 1.6182 2.4905 2.8429 2213.8 -0.0051773 428.60 0.28417 680.00 0.0014706 496.98 1233.5 1.6182 2.4905 2.8429 2213.8 -0.0051773 428.60 0.28417
184.38 72822. undefined 499.48 1237.8 1.6237 680.00 0.0014706 499.48 1237.8 1.6237 2.4945 2.8465 2214.7 -0.0051707 428.40 0.28453 680.00 0.0014706 499.48 1237.8 1.6237 2.4945 2.8465 2214.7 -0.0051707 428.40 0.28453
185.38 73001. undefined 501.97 1242.2 1.6291 680.00 0.0014706 501.97 1242.2 1.6291 2.4984 2.8501 2215.6 -0.0051640 428.21 0.28489 680.00 0.0014706 501.97 1242.2 1.6291 2.4984 2.8501 2215.6 -0.0051640 428.21 0.28489
186.38 73180. undefined 504.47 1246.5 1.6346 680.00 0.0014706 504.47 1246.5 1.6346 2.5023 2.8537 2216.5 -0.0051574 428.02 0.28524 680.00 0.0014706 504.47 1246.5 1.6346 2.5023 2.8537 2216.5 -0.0051574 428.02 0.28524
187.38 73359. undefined 506.98 1250.8 1.6400 680.00 0.0014706 506.98 1250.8 1.6400 2.5063 2.8573 2217.4 -0.0051509 427.83 0.28560 680.00 0.0014706 506.98 1250.8 1.6400 2.5063 2.8573 2217.4 -0.0051509 427.83 0.28560
188.38 73538. undefined 509.49 1255.1 1.6455 680.00 0.0014706 509.49 1255.1 1.6455 2.5102 2.8609 2218.3 -0.0051443 427.64 0.28596 680.00 0.0014706 509.49 1255.1 1.6455 2.5102 2.8609 2218.3 -0.0051443 427.64 0.28596
189.38 73716. undefined 512.00 1259.4 1.6509 680.00 0.0014706 512.00 1259.4 1.6509 2.5141 2.8645 2219.2 -0.0051378 427.45 0.28632 680.00 0.0014706 512.00 1259.4 1.6509 2.5141 2.8645 2219.2 -0.0051378 427.45 0.28632
190.38 73895. undefined 514.51 1263.8 1.6564 680.00 0.0014706 514.51 1263.8 1.6564 2.5180 2.8681 2220.0 -0.0051313 427.27 0.28668 680.00 0.0014706 514.51 1263.8 1.6564 2.5180 2.8681 2220.0 -0.0051313 427.27 0.28668
191.38 74073. undefined 517.03 1268.1 1.6618 680.00 0.0014706 517.03 1268.1 1.6618 2.5219 2.8716 2220.9 -0.0051248 427.08 0.28703 680.00 0.0014706 517.03 1268.1 1.6618 2.5219 2.8716 2220.9 -0.0051248 427.08 0.28703
192.38 74251. undefined 519.56 1272.4 1.6672 680.00 0.0014706 519.56 1272.4 1.6672 2.5258 2.8752 2221.8 -0.0051183 426.90 0.28739 680.00 0.0014706 519.56 1272.4 1.6672 2.5258 2.8752 2221.8 -0.0051183 426.90 0.28739
193.38 74429. undefined 522.09 1276.7 1.6726 680.00 0.0014706 522.09 1276.7 1.6726 2.5297 2.8788 2222.7 -0.0051118 426.72 0.28775 680.00 0.0014706 522.09 1276.7 1.6726 2.5297 2.8788 2222.7 -0.0051118 426.72 0.28775
194.38 74606. undefined 524.62 1281.1 1.6781 680.00 0.0014706 524.62 1281.1 1.6781 2.5336 2.8824 2223.6 -0.0051054 426.54 0.28811 680.00 0.0014706 524.62 1281.1 1.6781 2.5336 2.8824 2223.6 -0.0051054 426.54 0.28811
195.38 74784. undefined 527.15 1285.4 1.6835 680.00 0.0014706 527.15 1285.4 1.6835 2.5375 2.8859 2224.5 -0.0050990 426.36 0.28847 680.00 0.0014706 527.15 1285.4 1.6835 2.5375 2.8859 2224.5 -0.0050990 426.36 0.28847
196.38 74961. undefined 529.69 1289.7 1.6889 680.00 0.0014706 529.69 1289.7 1.6889 2.5414 2.8895 2225.4 -0.0050926 426.18 0.28883 680.00 0.0014706 529.69 1289.7 1.6889 2.5414 2.8895 2225.4 -0.0050926 426.18 0.28883
197.38 75138. undefined 532.24 1294.1 1.6943 680.00 0.0014706 532.24 1294.1 1.6943 2.5453 2.8931 2226.2 -0.0050863 426.00 0.28919 680.00 0.0014706 532.24 1294.1 1.6943 2.5453 2.8931 2226.2 -0.0050863 426.00 0.28919
198.38 75315. undefined 534.78 1298.4 1.6997 680.00 0.0014706 534.78 1298.4 1.6997 2.5491 2.8966 2227.1 -0.0050800 425.83 0.28955 680.00 0.0014706 534.78 1298.4 1.6997 2.5491 2.8966 2227.1 -0.0050800 425.83 0.28955
199.38 75492. undefined 537.33 1302.8 1.7051 680.00 0.0014706 537.33 1302.8 1.7051 2.5530 2.9002 2228.0 -0.0050736 425.65 0.28992 680.00 0.0014706 537.33 1302.8 1.7051 2.5530 2.9002 2228.0 -0.0050736 425.65 0.28992
200.38 75669. undefined 539.89 1307.1 1.7105 680.00 0.0014706 539.89 1307.1 1.7105 2.5569 2.9037 2228.9 -0.0050673 425.48 0.29028 680.00 0.0014706 539.89 1307.1 1.7105 2.5569 2.9037 2228.9 -0.0050673 425.48 0.29028
201.38 75845. undefined 542.45 1311.5 1.7159 680.00 0.0014706 542.45 1311.5 1.7159 2.5607 2.9073 2229.8 -0.0050611 425.31 0.29064 680.00 0.0014706 542.45 1311.5 1.7159 2.5607 2.9073 2229.8 -0.0050611 425.31 0.29064
202.38 76022. undefined 545.01 1315.8 1.7213 680.00 0.0014706 545.01 1315.8 1.7213 2.5646 2.9108 2230.6 -0.0050548 425.14 0.29100 680.00 0.0014706 545.01 1315.8 1.7213 2.5646 2.9108 2230.6 -0.0050548 425.14 0.29100
203.38 76198. undefined 547.58 1320.2 1.7267 680.00 0.0014706 547.58 1320.2 1.7267 2.5684 2.9144 2231.5 -0.0050486 424.97 0.29136 680.00 0.0014706 547.58 1320.2 1.7267 2.5684 2.9144 2231.5 -0.0050486 424.97 0.29136
204.38 76374. undefined 550.15 1324.5 1.7321 680.00 0.0014706 550.15 1324.5 1.7321 2.5723 2.9179 2232.4 -0.0050424 424.80 0.29173 680.00 0.0014706 550.15 1324.5 1.7321 2.5723 2.9179 2232.4 -0.0050424 424.80 0.29173
205.38 76549. undefined 552.72 1328.9 1.7375 680.00 0.0014706 552.72 1328.9 1.7375 2.5761 2.9214 2233.3 -0.0050362 424.63 0.29209 680.00 0.0014706 552.72 1328.9 1.7375 2.5761 2.9214 2233.3 -0.0050362 424.63 0.29209
206.38 76725. undefined 555.30 1333.2 1.7429 680.00 0.0014706 555.30 1333.2 1.7429 2.5799 2.9250 2234.1 -0.0050301 424.47 0.29245 680.00 0.0014706 555.30 1333.2 1.7429 2.5799 2.9250 2234.1 -0.0050301 424.47 0.29245
207.38 76900. undefined 557.88 1337.6 1.7482 680.00 0.0014706 557.88 1337.6 1.7482 2.5838 2.9285 2235.0 -0.0050239 424.30 0.29282 680.00 0.0014706 557.88 1337.6 1.7482 2.5838 2.9285 2235.0 -0.0050239 424.30 0.29282
208.38 77076. undefined 560.47 1342.0 1.7536 680.00 0.0014706 560.47 1342.0 1.7536 2.5876 2.9320 2235.9 -0.0050178 424.14 0.29318 680.00 0.0014706 560.47 1342.0 1.7536 2.5876 2.9320 2235.9 -0.0050178 424.14 0.29318
209.38 77251. undefined 563.06 1346.3 1.7590 680.00 0.0014706 563.06 1346.3 1.7590 2.5914 2.9355 2236.8 -0.0050117 423.98 0.29354 680.00 0.0014706 563.06 1346.3 1.7590 2.5914 2.9355 2236.8 -0.0050117 423.98 0.29354
210.38 77426. undefined 565.65 1350.7 1.7643 680.00 0.0014706 565.65 1350.7 1.7643 2.5952 2.9390 2237.6 -0.0050056 423.81 0.29391 680.00 0.0014706 565.65 1350.7 1.7643 2.5952 2.9390 2237.6 -0.0050056 423.81 0.29391
211.38 77601. undefined 568.25 1355.1 1.7697 680.00 0.0014706 568.25 1355.1 1.7697 2.5990 2.9426 2238.5 -0.0049996 423.65 0.29427 680.00 0.0014706 568.25 1355.1 1.7697 2.5990 2.9426 2238.5 -0.0049996 423.65 0.29427
212.38 77775. undefined 570.85 1359.4 1.7751 680.00 0.0014706 570.85 1359.4 1.7751 2.6028 2.9461 2239.4 -0.0049935 423.49 0.29464 680.00 0.0014706 570.85 1359.4 1.7751 2.6028 2.9461 2239.4 -0.0049935 423.49 0.29464
213.38 77950. undefined 573.45 1363.8 1.7804 680.00 0.0014706 573.45 1363.8 1.7804 2.6066 2.9496 2240.2 -0.0049875 423.33 0.29500 680.00 0.0014706 573.45 1363.8 1.7804 2.6066 2.9496 2240.2 -0.0049875 423.33 0.29500
214.38 78124. undefined 576.06 1368.2 1.7858 680.00 0.0014706 576.06 1368.2 1.7858 2.6104 2.9531 2241.1 -0.0049815 423.18 0.29537 680.00 0.0014706 576.06 1368.2 1.7858 2.6104 2.9531 2241.1 -0.0049815 423.18 0.29537
215.38 78298. undefined 578.67 1372.6 1.7911 680.00 0.0014706 578.67 1372.6 1.7911 2.6142 2.9565 2242.0 -0.0049755 423.02 0.29574 680.00 0.0014706 578.67 1372.6 1.7911 2.6142 2.9565 2242.0 -0.0049755 423.02 0.29574
216.38 78472. undefined 581.29 1376.9 1.7965 680.00 0.0014706 581.29 1376.9 1.7965 2.6180 2.9600 2242.8 -0.0049696 422.87 0.29610 680.00 0.0014706 581.29 1376.9 1.7965 2.6180 2.9600 2242.8 -0.0049696 422.87 0.29610
217.38 78646. undefined 583.91 1381.3 1.8018 680.00 0.0014706 583.91 1381.3 1.8018 2.6218 2.9635 2243.7 -0.0049637 422.71 0.29647 680.00 0.0014706 583.91 1381.3 1.8018 2.6218 2.9635 2243.7 -0.0049637 422.71 0.29647
218.38 78820. undefined 586.53 1385.7 1.8072 680.00 0.0014706 586.53 1385.7 1.8072 2.6255 2.9670 2244.6 -0.0049577 422.56 0.29683 680.00 0.0014706 586.53 1385.7 1.8072 2.6255 2.9670 2244.6 -0.0049577 422.56 0.29683
219.38 78993. undefined 589.16 1390.1 1.8125 680.00 0.0014706 589.16 1390.1 1.8125 2.6293 2.9705 2245.4 -0.0049519 422.41 0.29720 680.00 0.0014706 589.16 1390.1 1.8125 2.6293 2.9705 2245.4 -0.0049519 422.41 0.29720
220.38 79166. undefined 591.79 1394.5 1.8179 680.00 0.0014706 591.79 1394.5 1.8179 2.6331 2.9739 2246.3 -0.0049460 422.26 0.29757 680.00 0.0014706 591.79 1394.5 1.8179 2.6331 2.9739 2246.3 -0.0049460 422.26 0.29757
221.38 79340. undefined 594.43 1398.9 1.8232 680.00 0.0014706 594.43 1398.9 1.8232 2.6368 2.9774 2247.1 -0.0049401 422.10 0.29794 680.00 0.0014706 594.43 1398.9 1.8232 2.6368 2.9774 2247.1 -0.0049401 422.10 0.29794
222.38 79513. undefined 597.06 1403.3 1.8285 680.00 0.0014706 597.06 1403.3 1.8285 2.6406 2.9809 2248.0 -0.0049343 421.96 0.29830 680.00 0.0014706 597.06 1403.3 1.8285 2.6406 2.9809 2248.0 -0.0049343 421.96 0.29830
223.38 79685. undefined 599.71 1407.7 1.8338 680.00 0.0014706 599.71 1407.7 1.8338 2.6443 2.9843 2248.9 -0.0049285 421.81 0.29867 680.00 0.0014706 599.71 1407.7 1.8338 2.6443 2.9843 2248.9 -0.0049285 421.81 0.29867
224.38 79858. undefined 602.35 1412.1 1.8392 680.00 0.0014706 602.35 1412.1 1.8392 2.6480 2.9878 2249.7 -0.0049227 421.66 0.29904 680.00 0.0014706 602.35 1412.1 1.8392 2.6480 2.9878 2249.7 -0.0049227 421.66 0.29904
225.38 80031. undefined 605.00 1416.5 1.8445 680.00 0.0014706 605.00 1416.5 1.8445 2.6518 2.9912 2250.6 -0.0049169 421.51 0.29941 680.00 0.0014706 605.00 1416.5 1.8445 2.6518 2.9912 2250.6 -0.0049169 421.51 0.29941
226.38 80203. undefined 607.66 1420.9 1.8498 680.00 0.0014706 607.66 1420.9 1.8498 2.6555 2.9947 2251.4 -0.0049112 421.37 0.29978 680.00 0.0014706 607.66 1420.9 1.8498 2.6555 2.9947 2251.4 -0.0049112 421.37 0.29978
227.38 80375. undefined 610.31 1425.3 1.8551 680.00 0.0014706 610.31 1425.3 1.8551 2.6592 2.9981 2252.3 -0.0049054 421.22 0.30015 680.00 0.0014706 610.31 1425.3 1.8551 2.6592 2.9981 2252.3 -0.0049054 421.22 0.30015
228.38 80547. undefined 612.98 1429.7 1.8604 680.00 0.0014706 612.98 1429.7 1.8604 2.6630 3.0016 2253.1 -0.0048997 421.08 0.30052 680.00 0.0014706 612.98 1429.7 1.8604 2.6630 3.0016 2253.1 -0.0048997 421.08 0.30052
229.38 80719. undefined 615.64 1434.1 1.8657 680.00 0.0014706 615.64 1434.1 1.8657 2.6667 3.0050 2254.0 -0.0048940 420.94 0.30089 680.00 0.0014706 615.64 1434.1 1.8657 2.6667 3.0050 2254.0 -0.0048940 420.94 0.30089
230.38 80891. undefined 618.31 1438.5 1.8711 680.00 0.0014706 618.31 1438.5 1.8711 2.6704 3.0084 2254.8 -0.0048884 420.80 0.30126 680.00 0.0014706 618.31 1438.5 1.8711 2.6704 3.0084 2254.8 -0.0048884 420.80 0.30126
231.38 81063. undefined 620.98 1442.9 1.8764 680.00 0.0014706 620.98 1442.9 1.8764 2.6741 3.0119 2255.7 -0.0048827 420.66 0.30163 680.00 0.0014706 620.98 1442.9 1.8764 2.6741 3.0119 2255.7 -0.0048827 420.66 0.30163
232.38 81234. undefined 623.66 1447.3 1.8817 680.00 0.0014706 623.66 1447.3 1.8817 2.6778 3.0153 2256.6 -0.0048771 420.52 0.30200 680.00 0.0014706 623.66 1447.3 1.8817 2.6778 3.0153 2256.6 -0.0048771 420.52 0.30200
233.38 81405. undefined 626.34 1451.7 1.8869 680.00 0.0014706 626.34 1451.7 1.8869 2.6815 3.0187 2257.4 -0.0048715 420.38 0.30237 680.00 0.0014706 626.34 1451.7 1.8869 2.6815 3.0187 2257.4 -0.0048715 420.38 0.30237
234.38 81576. undefined 629.02 1456.2 1.8922 680.00 0.0014706 629.02 1456.2 1.8922 2.6852 3.0221 2258.3 -0.0048659 420.24 0.30274 680.00 0.0014706 629.02 1456.2 1.8922 2.6852 3.0221 2258.3 -0.0048659 420.24 0.30274
235.38 81747. undefined 631.71 1460.6 1.8975 680.00 0.0014706 631.71 1460.6 1.8975 2.6888 3.0255 2259.1 -0.0048603 420.10 0.30311 680.00 0.0014706 631.71 1460.6 1.8975 2.6888 3.0255 2259.1 -0.0048603 420.10 0.30311
236.38 81918. undefined 634.40 1465.0 1.9028 680.00 0.0014706 634.40 1465.0 1.9028 2.6925 3.0289 2259.9 -0.0048547 419.97 0.30349 680.00 0.0014706 634.40 1465.0 1.9028 2.6925 3.0289 2259.9 -0.0048547 419.97 0.30349
237.38 82089. undefined 637.09 1469.4 1.9081 680.00 0.0014706 637.09 1469.4 1.9081 2.6962 3.0323 2260.8 -0.0048492 419.83 0.30386 680.00 0.0014706 637.09 1469.4 1.9081 2.6962 3.0323 2260.8 -0.0048492 419.83 0.30386
238.38 82259. undefined 639.79 1473.8 1.9134 680.00 0.0014706 639.79 1473.8 1.9134 2.6999 3.0357 2261.6 -0.0048437 419.70 0.30423 680.00 0.0014706 639.79 1473.8 1.9134 2.6999 3.0357 2261.6 -0.0048437 419.70 0.30423
239.38 82430. undefined 642.49 1478.3 1.9187 680.00 0.0014706 642.49 1478.3 1.9187 2.7035 3.0391 2262.5 -0.0048382 419.57 0.30460 680.00 0.0014706 642.49 1478.3 1.9187 2.7035 3.0391 2262.5 -0.0048382 419.57 0.30460
240.38 82600. undefined 645.20 1482.7 1.9239 680.00 0.0014706 645.20 1482.7 1.9239 2.7072 3.0425 2263.3 -0.0048327 419.43 0.30498 680.00 0.0014706 645.20 1482.7 1.9239 2.7072 3.0425 2263.3 -0.0048327 419.43 0.30498
241.38 82770. undefined 647.91 1487.1 1.9292 680.00 0.0014706 647.91 1487.1 1.9292 2.7108 3.0459 2264.2 -0.0048272 419.30 0.30535 680.00 0.0014706 647.91 1487.1 1.9292 2.7108 3.0459 2264.2 -0.0048272 419.30 0.30535
242.38 82940. undefined 650.62 1491.6 1.9345 680.00 0.0014706 650.62 1491.6 1.9345 2.7145 3.0493 2265.0 -0.0048218 419.17 0.30573 680.00 0.0014706 650.62 1491.6 1.9345 2.7145 3.0493 2265.0 -0.0048218 419.17 0.30573
243.38 83110. undefined 653.34 1496.0 1.9397 680.00 0.0014706 653.34 1496.0 1.9397 2.7181 3.0526 2265.9 -0.0048164 419.04 0.30610 680.00 0.0014706 653.34 1496.0 1.9397 2.7181 3.0526 2265.9 -0.0048164 419.04 0.30610
244.38 83279. undefined 656.06 1500.5 1.9450 680.00 0.0014706 656.06 1500.5 1.9450 2.7218 3.0560 2266.7 -0.0048110 418.91 0.30647 680.00 0.0014706 656.06 1500.5 1.9450 2.7218 3.0560 2266.7 -0.0048110 418.91 0.30647
245.38 83449. undefined 658.78 1504.9 1.9502 680.00 0.0014706 658.78 1504.9 1.9502 2.7254 3.0594 2267.5 -0.0048056 418.79 0.30685 680.00 0.0014706 658.78 1504.9 1.9502 2.7254 3.0594 2267.5 -0.0048056 418.79 0.30685
246.38 83618. undefined 661.51 1509.3 1.9555 680.00 0.0014706 661.51 1509.3 1.9555 2.7290 3.0627 2268.4 -0.0048002 418.66 0.30722 680.00 0.0014706 661.51 1509.3 1.9555 2.7290 3.0627 2268.4 -0.0048002 418.66 0.30722
247.38 83787. undefined 664.24 1513.8 1.9608 680.00 0.0014706 664.24 1513.8 1.9608 2.7327 3.0661 2269.2 -0.0047948 418.53 0.30760 680.00 0.0014706 664.24 1513.8 1.9608 2.7327 3.0661 2269.2 -0.0047948 418.53 0.30760
248.38 83956. undefined 666.97 1518.2 1.9660 680.00 0.0014706 666.97 1518.2 1.9660 2.7363 3.0695 2270.1 -0.0047895 418.41 0.30797 680.00 0.0014706 666.97 1518.2 1.9660 2.7363 3.0695 2270.1 -0.0047895 418.41 0.30797
249.38 84125. undefined 669.71 1522.7 1.9712 680.00 0.0014706 669.71 1522.7 1.9712 2.7399 3.0728 2270.9 -0.0047842 418.28 0.30835 680.00 0.0014706 669.71 1522.7 1.9712 2.7399 3.0728 2270.9 -0.0047842 418.28 0.30835
250.38 84294. undefined 672.45 1527.1 1.9765 680.00 0.0014706 672.45 1527.1 1.9765 2.7435 3.0762 2271.7 -0.0047789 418.16 0.30873 680.00 0.0014706 672.45 1527.1 1.9765 2.7435 3.0762 2271.7 -0.0047789 418.16 0.30873
251.38 84463. undefined 675.20 1531.6 1.9817 680.00 0.0014706 675.20 1531.6 1.9817 2.7471 3.0795 2272.6 -0.0047736 418.03 0.30910 680.00 0.0014706 675.20 1531.6 1.9817 2.7471 3.0795 2272.6 -0.0047736 418.03 0.30910
252.38 84631. undefined 677.95 1536.0 1.9870 680.00 0.0014706 677.95 1536.0 1.9870 2.7507 3.0828 2273.4 -0.0047683 417.91 0.30948 680.00 0.0014706 677.95 1536.0 1.9870 2.7507 3.0828 2273.4 -0.0047683 417.91 0.30948
253.38 84799. undefined 680.70 1540.5 1.9922 680.00 0.0014706 680.70 1540.5 1.9922 2.7543 3.0862 2274.2 -0.0047631 417.79 0.30986 680.00 0.0014706 680.70 1540.5 1.9922 2.7543 3.0862 2274.2 -0.0047631 417.79 0.30986
254.38 84968. undefined 683.45 1545.0 1.9974 680.00 0.0014706 683.45 1545.0 1.9974 2.7579 3.0895 2275.1 -0.0047579 417.67 0.31023 680.00 0.0014706 683.45 1545.0 1.9974 2.7579 3.0895 2275.1 -0.0047579 417.67 0.31023
255.38 85136. undefined 686.21 1549.4 2.0027 680.00 0.0014706 686.21 1549.4 2.0027 2.7614 3.0928 2275.9 -0.0047527 417.55 0.31061 680.00 0.0014706 686.21 1549.4 2.0027 2.7614 3.0928 2275.9 -0.0047527 417.55 0.31061
256.38 85303. undefined 688.98 1553.9 2.0079 680.00 0.0014706 688.98 1553.9 2.0079 2.7650 3.0961 2276.7 -0.0047475 417.43 0.31099 680.00 0.0014706 688.98 1553.9 2.0079 2.7650 3.0961 2276.7 -0.0047475 417.43 0.31099
257.38 85471. undefined 691.74 1558.4 2.0131 680.00 0.0014706 691.74 1558.4 2.0131 2.7686 3.0995 2277.6 -0.0047423 417.31 0.31137 680.00 0.0014706 691.74 1558.4 2.0131 2.7686 3.0995 2277.6 -0.0047423 417.31 0.31137
258.38 85639. undefined 694.51 1562.8 2.0183 680.00 0.0014706 694.51 1562.8 2.0183 2.7722 3.1028 2278.4 -0.0047371 417.19 0.31175 680.00 0.0014706 694.51 1562.8 2.0183 2.7722 3.1028 2278.4 -0.0047371 417.19 0.31175
259.38 85806. undefined 697.29 1567.3 2.0235 680.00 0.0014706 697.29 1567.3 2.0235 2.7757 3.1061 2279.2 -0.0047320 417.08 0.31212 680.00 0.0014706 697.29 1567.3 2.0235 2.7757 3.1061 2279.2 -0.0047320 417.08 0.31212
260.38 85974. undefined 700.07 1571.8 2.0287 680.00 0.0014706 700.07 1571.8 2.0287 2.7793 3.1094 2280.1 -0.0047269 416.96 0.31250 680.00 0.0014706 700.07 1571.8 2.0287 2.7793 3.1094 2280.1 -0.0047269 416.96 0.31250
261.38 86141. undefined 702.85 1576.3 2.0339 680.00 0.0014706 702.85 1576.3 2.0339 2.7828 3.1127 2280.9 -0.0047218 416.84 0.31288 680.00 0.0014706 702.85 1576.3 2.0339 2.7828 3.1127 2280.9 -0.0047218 416.84 0.31288
262.38 86308. undefined 705.63 1580.7 2.0391 680.00 0.0014706 705.63 1580.7 2.0391 2.7864 3.1160 2281.7 -0.0047167 416.73 0.31326 680.00 0.0014706 705.63 1580.7 2.0391 2.7864 3.1160 2281.7 -0.0047167 416.73 0.31326
263.38 86475. undefined 708.42 1585.2 2.0443 680.00 0.0014706 708.42 1585.2 2.0443 2.7899 3.1193 2282.5 -0.0047116 416.61 0.31364 680.00 0.0014706 708.42 1585.2 2.0443 2.7899 3.1193 2282.5 -0.0047116 416.61 0.31364
264.38 86641. undefined 711.21 1589.7 2.0495 680.00 0.0014706 711.21 1589.7 2.0495 2.7934 3.1226 2283.4 -0.0047066 416.50 0.31402 680.00 0.0014706 711.21 1589.7 2.0495 2.7934 3.1226 2283.4 -0.0047066 416.50 0.31402
265.38 86808. undefined 714.01 1594.2 2.0547 680.00 0.0014706 714.01 1594.2 2.0547 2.7970 3.1258 2284.2 -0.0047015 416.39 0.31440 680.00 0.0014706 714.01 1594.2 2.0547 2.7970 3.1258 2284.2 -0.0047015 416.39 0.31440
266.38 86974. undefined 716.80 1598.7 2.0599 680.00 0.0014706 716.80 1598.7 2.0599 2.8005 3.1291 2285.0 -0.0046965 416.28 0.31478 680.00 0.0014706 716.80 1598.7 2.0599 2.8005 3.1291 2285.0 -0.0046965 416.28 0.31478
267.38 87141. undefined 719.61 1603.2 2.0651 680.00 0.0014706 719.61 1603.2 2.0651 2.8040 3.1324 2285.8 -0.0046915 416.17 0.31516 680.00 0.0014706 719.61 1603.2 2.0651 2.8040 3.1324 2285.8 -0.0046915 416.17 0.31516
268.38 87307. undefined 722.41 1607.6 2.0703 680.00 0.0014706 722.41 1607.6 2.0703 2.8075 3.1357 2286.7 -0.0046865 416.05 0.31555 680.00 0.0014706 722.41 1607.6 2.0703 2.8075 3.1357 2286.7 -0.0046865 416.05 0.31555
269.38 87473. undefined 725.22 1612.1 2.0755 680.00 0.0014706 725.22 1612.1 2.0755 2.8110 3.1389 2287.5 -0.0046815 415.95 0.31593 680.00 0.0014706 725.22 1612.1 2.0755 2.8110 3.1389 2287.5 -0.0046815 415.95 0.31593
270.38 87639. undefined 728.03 1616.6 2.0807 680.00 0.0014706 728.03 1616.6 2.0807 2.8145 3.1422 2288.3 -0.0046766 415.84 0.31631 680.00 0.0014706 728.03 1616.6 2.0807 2.8145 3.1422 2288.3 -0.0046766 415.84 0.31631
271.38 87805. undefined 730.85 1621.1 2.0859 680.00 0.0014706 730.85 1621.1 2.0859 2.8180 3.1454 2289.1 -0.0046716 415.73 0.31669 680.00 0.0014706 730.85 1621.1 2.0859 2.8180 3.1454 2289.1 -0.0046716 415.73 0.31669
272.38 87970. undefined 733.67 1625.6 2.0910 680.00 0.0014706 733.67 1625.6 2.0910 2.8215 3.1487 2289.9 -0.0046667 415.62 0.31707 680.00 0.0014706 733.67 1625.6 2.0910 2.8215 3.1487 2289.9 -0.0046667 415.62 0.31707
273.38 88136. undefined 736.49 1630.1 2.0962 680.00 0.0014706 736.49 1630.1 2.0962 2.8250 3.1519 2290.8 -0.0046618 415.51 0.31746 680.00 0.0014706 736.49 1630.1 2.0962 2.8250 3.1519 2290.8 -0.0046618 415.51 0.31746
274.38 88301. undefined 739.32 1634.6 2.1014 680.00 0.0014706 739.32 1634.6 2.1014 2.8285 3.1552 2291.6 -0.0046569 415.41 0.31784 680.00 0.0014706 739.32 1634.6 2.1014 2.8285 3.1552 2291.6 -0.0046569 415.41 0.31784
275.38 88466. undefined 742.15 1639.1 2.1065 680.00 0.0014706 742.15 1639.1 2.1065 2.8320 3.1584 2292.4 -0.0046520 415.30 0.31822 680.00 0.0014706 742.15 1639.1 2.1065 2.8320 3.1584 2292.4 -0.0046520 415.30 0.31822
276.38 88631. undefined 744.98 1643.6 2.1117 680.00 0.0014706 744.98 1643.6 2.1117 2.8355 3.1616 2293.2 -0.0046472 415.20 0.31861 680.00 0.0014706 744.98 1643.6 2.1117 2.8355 3.1616 2293.2 -0.0046472 415.20 0.31861
277.38 88796. undefined 747.82 1648.2 2.1168 680.00 0.0014706 747.82 1648.2 2.1168 2.8389 3.1649 2294.0 -0.0046424 415.09 0.31899 680.00 0.0014706 747.82 1648.2 2.1168 2.8389 3.1649 2294.0 -0.0046424 415.09 0.31899
278.38 88961. undefined 750.66 1652.7 2.1220 680.00 0.0014706 750.66 1652.7 2.1220 2.8424 3.1681 2294.8 -0.0046375 414.99 0.31938 680.00 0.0014706 750.66 1652.7 2.1220 2.8424 3.1681 2294.8 -0.0046375 414.99 0.31938
279.38 89126. undefined 753.51 1657.2 2.1272 680.00 0.0014706 753.51 1657.2 2.1272 2.8459 3.1713 2295.6 -0.0046327 414.88 0.31976 680.00 0.0014706 753.51 1657.2 2.1272 2.8459 3.1713 2295.6 -0.0046327 414.88 0.31976
280.38 89290. undefined 756.35 1661.7 2.1323 680.00 0.0014706 756.35 1661.7 2.1323 2.8493 3.1745 2296.5 -0.0046279 414.78 0.32014 680.00 0.0014706 756.35 1661.7 2.1323 2.8493 3.1745 2296.5 -0.0046279 414.78 0.32014
281.38 89455. undefined 759.21 1666.2 2.1374 680.00 0.0014706 759.21 1666.2 2.1374 2.8528 3.1778 2297.3 -0.0046231 414.68 0.32053 680.00 0.0014706 759.21 1666.2 2.1374 2.8528 3.1778 2297.3 -0.0046231 414.68 0.32053
282.38 89619. undefined 762.06 1670.7 2.1426 680.00 0.0014706 762.06 1670.7 2.1426 2.8562 3.1810 2298.1 -0.0046184 414.58 0.32080 680.00 0.0014706 762.06 1670.7 2.1426 2.8562 3.1810 2298.1 -0.0046184 414.58 0.32080
283.38 89783. undefined 764.92 1675.3 2.1477 680.00 0.0014706 764.92 1675.3 2.1477 2.8596 3.1842 2298.9 -0.0046136 414.48 0.32119 680.00 0.0014706 764.92 1675.3 2.1477 2.8596 3.1842 2298.9 -0.0046136 414.48 0.32119
284.38 89947. undefined 767.78 1679.8 2.1529 680.00 0.0014706 767.78 1679.8 2.1529 2.8631 3.1874 2299.7 -0.0046089 414.38 0.32158 680.00 0.0014706 767.78 1679.8 2.1529 2.8631 3.1874 2299.7 -0.0046089 414.38 0.32158
285.38 90111. undefined 770.64 1684.3 2.1580 680.00 0.0014706 770.64 1684.3 2.1580 2.8665 3.1906 2300.5 -0.0046042 414.28 0.32196 680.00 0.0014706 770.64 1684.3 2.1580 2.8665 3.1906 2300.5 -0.0046042 414.28 0.32196
286.38 90275. undefined 773.51 1688.8 2.1631 680.00 0.0014706 773.51 1688.8 2.1631 2.8699 3.1938 2301.3 -0.0045995 414.18 0.32235 680.00 0.0014706 773.51 1688.8 2.1631 2.8699 3.1938 2301.3 -0.0045995 414.18 0.32235
287.38 90438. undefined 776.38 1693.4 2.1683 680.00 0.0014706 776.38 1693.4 2.1683 2.8734 3.1969 2302.1 -0.0045948 414.08 0.32273 680.00 0.0014706 776.38 1693.4 2.1683 2.8734 3.1969 2302.1 -0.0045948 414.08 0.32273
288.38 90602. undefined 779.26 1697.9 2.1734 680.00 0.0014706 779.26 1697.9 2.1734 2.8768 3.2001 2302.9 -0.0045901 413.98 0.32312 680.00 0.0014706 779.26 1697.9 2.1734 2.8768 3.2001 2302.9 -0.0045901 413.98 0.32312
289.38 90765. undefined 782.14 1702.4 2.1785 680.00 0.0014706 782.14 1702.4 2.1785 2.8802 3.2033 2303.7 -0.0045855 413.89 0.32351 680.00 0.0014706 782.14 1702.4 2.1785 2.8802 3.2033 2303.7 -0.0045855 413.89 0.32351
290.38 90929. undefined 785.02 1707.0 2.1836 680.00 0.0014706 785.02 1707.0 2.1836 2.8836 3.2065 2304.5 -0.0045808 413.79 0.32390 680.00 0.0014706 785.02 1707.0 2.1836 2.8836 3.2065 2304.5 -0.0045808 413.79 0.32390
291.38 91092. undefined 787.90 1711.5 2.1887 680.00 0.0014706 787.90 1711.5 2.1887 2.8870 3.2097 2305.3 -0.0045762 413.69 0.32428 680.00 0.0014706 787.90 1711.5 2.1887 2.8870 3.2097 2305.3 -0.0045762 413.69 0.32428
292.38 91255. undefined 790.79 1716.1 2.1939 680.00 0.0014706 790.79 1716.1 2.1939 2.8904 3.2128 2306.2 -0.0045716 413.60 0.32467 680.00 0.0014706 790.79 1716.1 2.1939 2.8904 3.2128 2306.2 -0.0045716 413.60 0.32467
293.38 91417. undefined 793.69 1720.6 2.1990 680.00 0.0014706 793.69 1720.6 2.1990 2.8938 3.2160 2307.0 -0.0045670 413.50 0.32506 680.00 0.0014706 793.69 1720.6 2.1990 2.8938 3.2160 2307.0 -0.0045670 413.50 0.32506
294.38 91580. undefined 796.58 1725.1 2.2041 680.00 0.0014706 796.58 1725.1 2.2041 2.8971 3.2191 2307.8 -0.0045624 413.41 0.32545 680.00 0.0014706 796.58 1725.1 2.2041 2.8971 3.2191 2307.8 -0.0045624 413.41 0.32545
295.38 91743. undefined 799.48 1729.7 2.2092 680.00 0.0014706 799.48 1729.7 2.2092 2.9005 3.2223 2308.6 -0.0045579 413.32 0.32584 680.00 0.0014706 799.48 1729.7 2.2092 2.9005 3.2223 2308.6 -0.0045579 413.32 0.32584
296.38 91905. undefined 802.38 1734.2 2.2143 680.00 0.0014706 802.38 1734.2 2.2143 2.9039 3.2255 2309.4 -0.0045533 413.22 0.32623 680.00 0.0014706 802.38 1734.2 2.2143 2.9039 3.2255 2309.4 -0.0045533 413.22 0.32623
297.38 92067. undefined 805.29 1738.8 2.2194 680.00 0.0014706 805.29 1738.8 2.2194 2.9073 3.2286 2310.2 -0.0045488 413.13 0.32662 680.00 0.0014706 805.29 1738.8 2.2194 2.9073 3.2286 2310.2 -0.0045488 413.13 0.32662
298.38 92230. undefined 808.20 1743.3 2.2245 680.00 0.0014706 808.20 1743.3 2.2245 2.9106 3.2317 2311.0 -0.0045443 413.04 0.32701 680.00 0.0014706 808.20 1743.3 2.2245 2.9106 3.2317 2311.0 -0.0045443 413.04 0.32701
299.38 92392. undefined 811.11 1747.9 2.2296 680.00 0.0014706 811.11 1747.9 2.2296 2.9140 3.2349 2311.8 -0.0045398 412.95 0.32740 680.00 0.0014706 811.11 1747.9 2.2296 2.9140 3.2349 2311.8 -0.0045398 412.95 0.32740
300.38 92554. undefined 814.02 1752.5 2.2346 680.00 0.0014706 814.02 1752.5 2.2346 2.9174 3.2380 2312.6 -0.0045353 412.86 0.32779 680.00 0.0014706 814.02 1752.5 2.2346 2.9174 3.2380 2312.6 -0.0045353 412.86 0.32779