Temperature (C) Pressure (psia) Quality (l+v) Internal Energy (l+v, kJ/kg) Enthalpy (l+v, kJ/kg) Entropy (l+v, J/g*K) Density (l, kg/m3) Volume (l, m3/kg) Internal Energy (l, kJ/kg) Enthalpy (l, kJ/kg) Entropy (l, J/g*K) Cv (l, J/g*K) Cp (l, J/g*K) Sound Spd. (l, m/s) Joule-Thomson (l, F/psia) Viscosity (l, uPa*s) Therm. Cond. (l, W/m*K) Density (v, kg/m3) Volume (v, m3/kg) Internal Energy (v, kJ/kg) Enthalpy (v, kJ/kg) Entropy (v, J/g*K) Cv (v, J/g*K) Cp (v, J/g*K) Sound Spd. (v, m/s) Joule-Thomson (v, F/psia) Viscosity (v, uPa*s) Therm. Cond. (v, W/m*K)
-187.62 2.4953e-08 7.9829e-13 -196.64 -196.64 -1.3959 733.13 0.0013640 -196.64 -196.64 -1.3959 1.3553 1.9158 2136.4 -0.0077592 10960. 0.20792 1.0669e-08 9.3732e+07 350.13 366.26 5.1858 0.69067 0.87923 143.28 6.1051 2.3259 0.0017061
-186.62 3.7339e-08 1.1501e-12 -194.73 -194.73 -1.3736 732.08 0.0013660 -194.73 -194.73 -1.3736 1.3539 1.9166 2129.6 -0.0077546 10073. 0.20765 1.5780e-08 6.3371e+07 350.82 367.14 5.1200 0.69462 0.88317 144.03 5.9178 2.3534 0.0017533
-185.62 5.5322e-08 1.6394e-12 -192.81 -192.81 -1.3516 731.04 0.0013679 -192.81 -192.81 -1.3516 1.3525 1.9174 2122.9 -0.0077498 9276.1 0.20737 2.3112e-08 4.3267e+07 351.52 368.02 5.0561 0.69857 0.88713 144.77 5.7383 2.3808 0.0018007
-184.62 8.1182e-08 2.3132e-12 -190.89 -190.89 -1.3298 730.00 0.0013699 -190.89 -190.89 -1.3298 1.3513 1.9182 2116.1 -0.0077448 8557.8 0.20708 3.3533e-08 2.9821e+07 352.22 368.91 4.9939 0.70253 0.89108 145.51 5.5662 2.4083 0.0018485
-183.62 1.1803e-07 3.2315e-12 -188.97 -188.97 -1.3083 728.96 0.0013718 -188.97 -188.97 -1.3083 1.3501 1.9191 2109.3 -0.0077395 7909.8 0.20678 4.8211e-08 2.0742e+07 352.92 369.81 4.9333 0.70648 0.89504 146.24 5.4011 2.4357 0.0018965
-182.62 1.7009e-07 4.4708e-12 -187.05 -187.05 -1.2869 727.92 0.0013738 -187.05 -187.05 -1.2869 1.3490 1.9201 2102.5 -0.0077340 7324.3 0.20647 6.8704e-08 1.4555e+07 353.63 370.70 4.8744 0.71043 0.89899 146.97 5.2426 2.4632 0.0019448
-181.62 2.4299e-07 6.1270e-12 -185.13 -185.13 -1.2658 726.88 0.0013757 -185.13 -185.13 -1.2658 1.3480 1.9210 2095.7 -0.0077283 6794.5 0.20616 9.7079e-08 1.0301e+07 354.35 371.60 4.8170 0.71438 0.90294 147.69 5.0904 2.4906 0.0019934
-180.62 3.4425e-07 8.3195e-12 -183.21 -183.21 -1.2450 725.85 0.0013777 -183.21 -183.21 -1.2450 1.3470 1.9220 2088.9 -0.0077225 6314.4 0.20584 1.3605e-07 7.3504e+06 355.06 372.51 4.7612 0.71833 0.90688 148.41 4.9442 2.5181 0.0020423
-179.62 4.8378e-07 1.1195e-11 -181.29 -181.29 -1.2243 724.81 0.0013797 -181.29 -181.29 -1.2243 1.3461 1.9231 2082.0 -0.0077164 5878.8 0.20551 1.8915e-07 5.2868e+06 355.78 373.42 4.7068 0.72227 0.91082 149.13 4.8038 2.5456 0.0020915
-178.62 6.7459e-07 1.4931e-11 -179.37 -179.37 -1.2038 723.78 0.0013816 -179.37 -179.37 -1.2038 1.3453 1.9241 2075.2 -0.0077102 5482.9 0.20517 2.6096e-07 3.8320e+06 356.51 374.33 4.6538 0.72620 0.91475 149.84 4.6688 2.5731 0.0021410
-177.62 9.3358e-07 1.9743e-11 -177.44 -177.44 -1.1836 722.75 0.0013836 -177.44 -177.44 -1.1836 1.3445 1.9252 2068.4 -0.0077039 5122.6 0.20483 3.5737e-07 2.7982e+06 357.23 375.25 4.6022 0.73012 0.91867 150.54 4.5390 2.6005 0.0021907
-176.62 1.2826e-06 2.5883e-11 -175.52 -175.52 -1.1635 721.72 0.0013856 -175.52 -175.52 -1.1635 1.3437 1.9263 2061.5 -0.0076973 4794.1 0.20447 4.8588e-07 2.0581e+06 357.97 376.17 4.5519 0.73403 0.92258 151.25 4.4142 2.6280 0.0022408
-175.62 1.7496e-06 3.3647e-11 -173.59 -173.59 -1.1437 720.69 0.0013876 -173.59 -173.59 -1.1437 1.3430 1.9274 2054.7 -0.0076907 4494.3 0.20411 6.5601e-07 1.5244e+06 358.70 377.09 4.5029 0.73792 0.92648 151.95 4.2941 2.6555 0.0022912
-174.62 2.3705e-06 4.3380e-11 -171.66 -171.66 -1.1240 719.66 0.0013895 -171.66 -171.66 -1.1240 1.3423 1.9286 2047.9 -0.0076838 4220.2 0.20375 8.7976e-07 1.1367e+06 359.44 378.02 4.4551 0.74181 0.93036 152.64 4.1784 2.6830 0.0023418
-173.62 3.1903e-06 5.5469e-11 -169.73 -169.73 -1.1045 718.64 0.0013915 -169.73 -169.73 -1.1045 1.3417 1.9298 2041.0 -0.0076769 3969.3 0.20338 1.1721e-06 8.5314e+05 360.19 378.95 4.4085 0.74568 0.93423 153.33 4.0671 2.7105 0.0023928
-172.62 4.2661e-06 7.0349e-11 -167.80 -167.80 -1.0852 717.61 0.0013935 -167.80 -167.80 -1.0852 1.3411 1.9310 2034.2 -0.0076698 3739.3 0.20300 1.5518e-06 6.4441e+05 360.93 379.89 4.3631 0.74953 0.93809 154.02 3.9599 2.7379 0.0024440
-171.62 5.6692e-06 8.8496e-11 -165.87 -165.87 -1.0661 716.58 0.0013955 -165.87 -165.87 -1.0661 1.3405 1.9322 2027.3 -0.0076625 3528.0 0.20261 2.0419e-06 4.8974e+05 361.69 380.83 4.3188 0.75337 0.94193 154.71 3.8566 2.7654 0.0024955
-170.62 7.4884e-06 1.1042e-10 -163.94 -163.94 -1.0472 715.56 0.0013975 -163.94 -163.94 -1.0472 1.3400 1.9334 2020.5 -0.0076552 3333.8 0.20222 2.6708e-06 3.7442e+05 362.44 381.77 4.2755 0.75720 0.94575 155.39 3.7570 2.7929 0.0025473
-169.62 9.8334e-06 1.3665e-10 -162.00 -162.00 -1.0284 714.54 0.0013995 -162.00 -162.00 -1.0284 1.3395 1.9347 2013.6 -0.0076477 3154.9 0.20182 3.4733e-06 2.8791e+05 363.20 382.72 4.2334 0.76100 0.94956 156.07 3.6609 2.8204 0.0025994
-168.62 1.2839e-05 1.6771e-10 -160.07 -160.07 -1.0098 713.52 0.0014015 -160.07 -160.07 -1.0098 1.3390 1.9359 2006.8 -0.0076401 2989.9 0.20141 4.4917e-06 2.2263e+05 363.96 383.67 4.1922 0.76479 0.95335 156.74 3.5683 2.8479 0.0026518
-167.62 1.6672e-05 2.0410e-10 -158.13 -158.13 -0.99134 712.49 0.0014035 -158.13 -158.13 -0.99134 1.3386 1.9372 2000.0 -0.0076323 2837.5 0.20100 5.7771e-06 1.7310e+05 364.73 384.63 4.1521 0.76856 0.95712 157.41 3.4790 2.8754 0.0027045
-166.62 2.1533e-05 2.4626e-10 -156.19 -156.19 -0.97306 711.47 0.0014055 -156.19 -156.19 -0.97306 1.3382 1.9385 1993.1 -0.0076245 2696.5 0.20058 7.3914e-06 1.3529e+05 365.50 385.59 4.1129 0.77232 0.96087 158.08 3.3927 2.9029 0.0027575
-165.62 2.7666e-05 2.9448e-10 -154.25 -154.25 -0.95494 710.45 0.0014075 -154.25 -154.25 -0.95494 1.3378 1.9398 1986.3 -0.0076165 2566.0 0.20016 9.4084e-06 1.0629e+05 366.27 386.55 4.0746 0.77605 0.96460 158.75 3.3095 2.9304 0.0028108
-164.62 3.5367e-05 3.4889e-10 -152.31 -152.31 -0.93698 709.44 0.0014096 -152.31 -152.31 -0.93698 1.3375 1.9411 1979.4 -0.0076084 2444.9 0.19973 1.1916e-05 83918. 367.05 387.52 4.0372 0.77976 0.96832 159.41 3.2291 2.9579 0.0028643
-163.62 4.4989e-05 4.0935e-10 -150.37 -150.37 -0.91917 708.42 0.0014116 -150.37 -150.37 -0.91917 1.3371 1.9424 1972.6 -0.0076002 2332.3 0.19930 1.5020e-05 66577. 367.83 388.49 4.0008 0.78346 0.97201 160.07 3.1514 2.9854 0.0029182
-162.62 5.6956e-05 4.7530e-10 -148.43 -148.43 -0.90151 707.40 0.0014136 -148.43 -148.43 -0.90151 1.3368 1.9437 1965.8 -0.0075919 2227.7 0.19886 1.8844e-05 53068. 368.62 389.46 3.9651 0.78713 0.97569 160.72 3.0764 3.0129 0.0029723
-161.62 7.1773e-05 5.4570e-10 -146.48 -146.48 -0.88400 706.38 0.0014157 -146.48 -146.48 -0.88400 1.3365 1.9451 1959.0 -0.0075834 2130.2 0.19841 2.3533e-05 42494. 369.41 390.44 3.9304 0.79079 0.97935 161.38 3.0038 3.0404 0.0030268
-160.62 9.0036e-05 6.1883e-10 -144.54 -144.54 -0.86663 705.37 0.0014177 -144.54 -144.54 -0.86663 1.3363 1.9465 1952.1 -0.0075748 2039.2 0.19796 2.9258e-05 34178. 370.20 391.42 3.8964 0.79443 0.98298 162.03 2.9337 3.0679 0.0030815
-159.62 0.00011245 6.9207e-10 -142.59 -142.59 -0.84940 704.35 0.0014197 -142.59 -142.59 -0.84940 1.3360 1.9478 1945.3 -0.0075661 1954.2 0.19751 3.6221e-05 27609. 371.00 392.40 3.8632 0.79805 0.98660 162.68 2.8658 3.0955 0.0031365
-158.62 0.00013985 7.6171e-10 -140.64 -140.64 -0.83231 703.34 0.0014218 -140.64 -140.64 -0.83231 1.3358 1.9492 1938.5 -0.0075573 1874.8 0.19705 4.4652e-05 22395. 371.80 393.39 3.8307 0.80164 0.99020 163.32 2.8002 3.1230 0.0031918
-157.62 0.00017320 8.2265e-10 -138.69 -138.69 -0.81536 702.32 0.0014238 -138.69 -138.69 -0.81536 1.3356 1.9506 1931.7 -0.0075484 1800.3 0.19658 5.4822e-05 18241. 372.60 394.38 3.7990 0.80522 0.99378 163.96 2.7367 3.1505 0.0032474
-156.62 0.00021364 8.6805e-10 -136.74 -136.74 -0.79854 701.31 0.0014259 -136.74 -136.74 -0.79854 1.3354 1.9520 1924.9 -0.0075393 1730.5 0.19611 6.7040e-05 14916. 373.41 395.38 3.7680 0.80878 0.99734 164.60 2.6752 3.1780 0.0033033
-155.62 0.00026248 8.8897e-10 -134.79 -134.79 -0.78185 700.30 0.0014280 -134.79 -134.79 -0.78185 1.3352 1.9534 1918.1 -0.0075302 1664.9 0.19564 8.1666e-05 12245. 374.22 396.38 3.7377 0.81232 1.0009 165.24 2.6157 3.2055 0.0033595
-154.62 0.00032125 8.7390e-10 -132.83 -132.83 -0.76530 699.29 0.0014300 -132.83 -132.83 -0.76530 1.3350 1.9548 1911.3 -0.0075209 1603.3 0.19516 9.9109e-05 10090. 375.03 397.38 3.7081 0.81585 1.0044 165.87 2.5580 3.2330 0.0034160
-153.62 0.00039171 8.0826e-10 -130.88 -130.88 -0.74887 698.27 0.0014321 -130.88 -130.88 -0.74887 1.3349 1.9563 1904.5 -0.0075114 1545.3 0.19468 0.00011984 8344.6 375.85 398.39 3.6792 0.81935 1.0079 166.50 2.5022 3.2606 0.0034727
-152.62 0.00047590 6.7377e-10 -128.92 -128.92 -0.73256 697.26 0.0014342 -128.92 -128.92 -0.73256 1.3348 1.9577 1897.8 -0.0075019 1490.6 0.19419 0.00014439 6925.9 376.67 399.40 3.6509 0.82284 1.0114 167.13 2.4481 3.2881 0.0035298
-151.62 0.00057613 4.4777e-10 -126.96 -126.96 -0.71638 696.25 0.0014363 -126.96 -126.96 -0.71638 1.3346 1.9592 1891.0 -0.0074922 1438.9 0.19370 0.00017336 5768.4 377.49 400.41 3.6232 0.82631 1.0149 167.76 2.3957 3.3156 0.0035872
-150.62 0.00069507 1.0249e-10 -125.00 -125.00 -0.70032 695.24 0.0014384 -125.00 -125.00 -0.70032 1.3345 1.9606 1884.2 -0.0074824 1390.2 0.19320 0.00020744 4820.7 378.32 401.42 3.5962 0.82976 1.0183 168.38 2.3448 3.3431 0.0036448
-149.62 269.76 undefined -123.52 -120.84 -0.68826 695.00 0.0014388 -123.52 -120.84 -0.68826 1.3362 1.9609 1884.7 -0.0074807 1365.5 0.19331 695.00 0.0014388 -123.52 -120.84 -0.68826 1.3362 1.9609 1884.7 -0.0074807 1365.5 0.19331
-148.62 621.79 undefined -122.18 -116.01 -0.67748 695.00 0.0014388 -122.18 -116.01 -0.67748 1.3384 1.9607 1887.4 -0.0074814 1348.2 0.19362 695.00 0.0014388 -122.18 -116.01 -0.67748 1.3384 1.9607 1887.4 -0.0074814 1348.2 0.19362
-147.62 972.55 undefined -120.84 -111.20 -0.66676 695.00 0.0014388 -120.84 -111.20 -0.66676 1.3406 1.9606 1890.1 -0.0074821 1331.4 0.19392 695.00 0.0014388 -120.84 -111.20 -0.66676 1.3406 1.9606 1890.1 -0.0074821 1331.4 0.19392
-146.62 1322.1 undefined -119.50 -106.39 -0.65612 695.00 0.0014388 -119.50 -106.39 -0.65612 1.3428 1.9605 1892.8 -0.0074827 1315.2 0.19423 695.00 0.0014388 -119.50 -106.39 -0.65612 1.3428 1.9605 1892.8 -0.0074827 1315.2 0.19423
-145.62 1670.3 undefined -118.16 -101.59 -0.64554 695.00 0.0014388 -118.16 -101.59 -0.64554 1.3449 1.9604 1895.5 -0.0074832 1299.4 0.19454 695.00 0.0014388 -118.16 -101.59 -0.64554 1.3449 1.9604 1895.5 -0.0074832 1299.4 0.19454
-144.62 2017.4 undefined -116.81 -96.798 -0.63502 695.00 0.0014388 -116.81 -96.798 -0.63502 1.3471 1.9604 1898.1 -0.0074837 1284.1 0.19484 695.00 0.0014388 -116.81 -96.798 -0.63502 1.3471 1.9604 1898.1 -0.0074837 1284.1 0.19484
-143.62 2363.3 undefined -115.46 -92.019 -0.62458 695.00 0.0014388 -115.46 -92.019 -0.62458 1.3492 1.9603 1900.8 -0.0074840 1269.2 0.19515 695.00 0.0014388 -115.46 -92.019 -0.62458 1.3492 1.9603 1900.8 -0.0074840 1269.2 0.19515
-142.62 2708.0 undefined -114.11 -87.249 -0.61419 695.00 0.0014388 -114.11 -87.249 -0.61419 1.3514 1.9603 1903.4 -0.0074843 1254.8 0.19546 695.00 0.0014388 -114.11 -87.249 -0.61419 1.3514 1.9603 1903.4 -0.0074843 1254.8 0.19546
-141.62 3051.5 undefined -112.76 -82.489 -0.60387 695.00 0.0014388 -112.76 -82.489 -0.60387 1.3535 1.9603 1906.1 -0.0074845 1240.7 0.19576 695.00 0.0014388 -112.76 -82.489 -0.60387 1.3535 1.9603 1906.1 -0.0074845 1240.7 0.19576
-140.62 3393.8 undefined -111.41 -77.738 -0.59361 695.00 0.0014388 -111.41 -77.738 -0.59361 1.3557 1.9603 1908.7 -0.0074846 1227.1 0.19607 695.00 0.0014388 -111.41 -77.738 -0.59361 1.3557 1.9603 1908.7 -0.0074846 1227.1 0.19607
-139.62 3735.0 undefined -110.05 -72.997 -0.58341 695.00 0.0014388 -110.05 -72.997 -0.58341 1.3578 1.9604 1911.3 -0.0074847 1213.8 0.19638 695.00 0.0014388 -110.05 -72.997 -0.58341 1.3578 1.9604 1911.3 -0.0074847 1213.8 0.19638
-138.62 4075.0 undefined -108.69 -68.264 -0.57327 695.00 0.0014388 -108.69 -68.264 -0.57327 1.3599 1.9604 1913.9 -0.0074846 1200.9 0.19668 695.00 0.0014388 -108.69 -68.264 -0.57327 1.3599 1.9604 1913.9 -0.0074846 1200.9 0.19668
-137.62 4414.0 undefined -107.33 -63.541 -0.56319 695.00 0.0014388 -107.33 -63.541 -0.56319 1.3620 1.9605 1916.5 -0.0074845 1188.3 0.19699 695.00 0.0014388 -107.33 -63.541 -0.56319 1.3620 1.9605 1916.5 -0.0074845 1188.3 0.19699
-136.62 4751.8 undefined -105.97 -58.827 -0.55317 695.00 0.0014388 -105.97 -58.827 -0.55317 1.3642 1.9606 1919.1 -0.0074843 1176.0 0.19730 695.00 0.0014388 -105.97 -58.827 -0.55317 1.3642 1.9606 1919.1 -0.0074843 1176.0 0.19730
-135.62 5088.5 undefined -104.60 -54.121 -0.54321 695.00 0.0014388 -104.60 -54.121 -0.54321 1.3663 1.9607 1921.7 -0.0074841 1164.1 0.19761 695.00 0.0014388 -104.60 -54.121 -0.54321 1.3663 1.9607 1921.7 -0.0074841 1164.1 0.19761
-134.62 5424.2 undefined -103.23 -49.424 -0.53330 695.00 0.0014388 -103.23 -49.424 -0.53330 1.3684 1.9609 1924.2 -0.0074837 1152.5 0.19792 695.00 0.0014388 -103.23 -49.424 -0.53330 1.3684 1.9609 1924.2 -0.0074837 1152.5 0.19792
-133.62 5758.7 undefined -101.86 -44.735 -0.52345 695.00 0.0014388 -101.86 -44.735 -0.52345 1.3705 1.9610 1926.7 -0.0074833 1141.2 0.19823 695.00 0.0014388 -101.86 -44.735 -0.52345 1.3705 1.9610 1926.7 -0.0074833 1141.2 0.19823
-132.62 6092.2 undefined -100.49 -40.056 -0.51365 695.00 0.0014388 -100.49 -40.056 -0.51365 1.3726 1.9612 1929.3 -0.0074828 1130.1 0.19854 695.00 0.0014388 -100.49 -40.056 -0.51365 1.3726 1.9612 1929.3 -0.0074828 1130.1 0.19854
-131.62 6424.6 undefined -99.120 -35.384 -0.50391 695.00 0.0014388 -99.120 -35.384 -0.50391 1.3748 1.9614 1931.8 -0.0074823 1119.4 0.19885 695.00 0.0014388 -99.120 -35.384 -0.50391 1.3748 1.9614 1931.8 -0.0074823 1119.4 0.19885
-130.62 6756.0 undefined -97.744 -30.721 -0.49423 695.00 0.0014388 -97.744 -30.721 -0.49423 1.3769 1.9616 1934.2 -0.0074817 1108.9 0.19916 695.00 0.0014388 -97.744 -30.721 -0.49423 1.3769 1.9616 1934.2 -0.0074817 1108.9 0.19916
-129.62 7086.4 undefined -96.366 -26.066 -0.48459 695.00 0.0014388 -96.366 -26.066 -0.48459 1.3790 1.9618 1936.7 -0.0074810 1098.6 0.19947 695.00 0.0014388 -96.366 -26.066 -0.48459 1.3790 1.9618 1936.7 -0.0074810 1098.6 0.19947
-128.62 7415.7 undefined -94.986 -21.419 -0.47501 695.00 0.0014388 -94.986 -21.419 -0.47501 1.3811 1.9621 1939.2 -0.0074802 1088.6 0.19978 695.00 0.0014388 -94.986 -21.419 -0.47501 1.3811 1.9621 1939.2 -0.0074802 1088.6 0.19978
-127.62 7744.0 undefined -93.604 -16.780 -0.46548 695.00 0.0014388 -93.604 -16.780 -0.46548 1.3833 1.9623 1941.6 -0.0074793 1078.9 0.20009 695.00 0.0014388 -93.604 -16.780 -0.46548 1.3833 1.9623 1941.6 -0.0074793 1078.9 0.20009
-126.62 8071.2 undefined -92.219 -12.148 -0.45600 695.00 0.0014388 -92.219 -12.148 -0.45600 1.3854 1.9626 1944.0 -0.0074784 1069.3 0.20040 695.00 0.0014388 -92.219 -12.148 -0.45600 1.3854 1.9626 1944.0 -0.0074784 1069.3 0.20040
-125.62 8397.5 undefined -90.833 -7.5250 -0.44657 695.00 0.0014388 -90.833 -7.5250 -0.44657 1.3875 1.9629 1946.4 -0.0074774 1060.0 0.20071 695.00 0.0014388 -90.833 -7.5250 -0.44657 1.3875 1.9629 1946.4 -0.0074774 1060.0 0.20071
-124.62 8722.8 undefined -89.444 -2.9094 -0.43719 695.00 0.0014388 -89.444 -2.9094 -0.43719 1.3897 1.9633 1948.8 -0.0074763 1051.0 0.20102 695.00 0.0014388 -89.444 -2.9094 -0.43719 1.3897 1.9633 1948.8 -0.0074763 1051.0 0.20102
-123.62 9047.1 undefined -88.054 1.6986 -0.42786 695.00 0.0014388 -88.054 1.6986 -0.42786 1.3918 1.9636 1951.2 -0.0074751 1042.1 0.20134 695.00 0.0014388 -88.054 1.6986 -0.42786 1.3918 1.9636 1951.2 -0.0074751 1042.1 0.20134
-122.62 9370.5 undefined -86.661 6.2991 -0.41857 695.00 0.0014388 -86.661 6.2991 -0.41857 1.3940 1.9640 1953.5 -0.0074739 1033.4 0.20165 695.00 0.0014388 -86.661 6.2991 -0.41857 1.3940 1.9640 1953.5 -0.0074739 1033.4 0.20165
-121.62 9692.8 undefined -85.266 10.892 -0.40933 695.00 0.0014388 -85.266 10.892 -0.40933 1.3961 1.9644 1955.9 -0.0074726 1024.9 0.20196 695.00 0.0014388 -85.266 10.892 -0.40933 1.3961 1.9644 1955.9 -0.0074726 1024.9 0.20196
-120.62 10014. undefined -83.868 15.478 -0.40014 695.00 0.0014388 -83.868 15.478 -0.40014 1.3983 1.9648 1958.2 -0.0074712 1016.6 0.20227 695.00 0.0014388 -83.868 15.478 -0.40014 1.3983 1.9648 1958.2 -0.0074712 1016.6 0.20227
-119.62 10335. undefined -82.469 20.056 -0.39100 695.00 0.0014388 -82.469 20.056 -0.39100 1.4004 1.9652 1960.5 -0.0074697 1008.5 0.20259 695.00 0.0014388 -82.469 20.056 -0.39100 1.4004 1.9652 1960.5 -0.0074697 1008.5 0.20259
-118.62 10654. undefined -81.068 24.627 -0.38190 695.00 0.0014388 -81.068 24.627 -0.38190 1.4026 1.9657 1962.8 -0.0074681 1000.6 0.20290 695.00 0.0014388 -81.068 24.627 -0.38190 1.4026 1.9657 1962.8 -0.0074681 1000.6 0.20290
-117.62 10973. undefined -79.664 29.191 -0.37285 695.00 0.0014388 -79.664 29.191 -0.37285 1.4048 1.9662 1965.1 -0.0074665 992.79 0.20322 695.00 0.0014388 -79.664 29.191 -0.37285 1.4048 1.9662 1965.1 -0.0074665 992.79 0.20322
-116.62 11290. undefined -78.258 33.748 -0.36383 695.00 0.0014388 -78.258 33.748 -0.36383 1.4070 1.9667 1967.3 -0.0074648 985.18 0.20353 695.00 0.0014388 -78.258 33.748 -0.36383 1.4070 1.9667 1967.3 -0.0074648 985.18 0.20353
-115.62 11607. undefined -76.850 38.298 -0.35487 695.00 0.0014388 -76.850 38.298 -0.35487 1.4092 1.9672 1969.6 -0.0074630 977.74 0.20384 695.00 0.0014388 -76.850 38.298 -0.35487 1.4092 1.9672 1969.6 -0.0074630 977.74 0.20384
-114.62 11923. undefined -75.440 42.842 -0.34594 695.00 0.0014388 -75.440 42.842 -0.34594 1.4114 1.9677 1971.8 -0.0074611 970.46 0.20416 695.00 0.0014388 -75.440 42.842 -0.34594 1.4114 1.9677 1971.8 -0.0074611 970.46 0.20416
-113.62 12238. undefined -74.027 47.378 -0.33706 695.00 0.0014388 -74.027 47.378 -0.33706 1.4136 1.9683 1974.0 -0.0074592 963.33 0.20447 695.00 0.0014388 -74.027 47.378 -0.33706 1.4136 1.9683 1974.0 -0.0074592 963.33 0.20447
-112.62 12552. undefined -72.612 51.908 -0.32822 695.00 0.0014388 -72.612 51.908 -0.32822 1.4158 1.9689 1976.2 -0.0074571 956.34 0.20479 695.00 0.0014388 -72.612 51.908 -0.32822 1.4158 1.9689 1976.2 -0.0074571 956.34 0.20479
-111.62 12865. undefined -71.196 56.431 -0.31942 695.00 0.0014388 -71.196 56.431 -0.31942 1.4180 1.9695 1978.4 -0.0074550 949.50 0.20510 695.00 0.0014388 -71.196 56.431 -0.31942 1.4180 1.9695 1978.4 -0.0074550 949.50 0.20510
-110.62 13177. undefined -69.776 60.947 -0.31066 695.00 0.0014388 -69.776 60.947 -0.31066 1.4203 1.9701 1980.5 -0.0074528 942.80 0.20542 695.00 0.0014388 -69.776 60.947 -0.31066 1.4203 1.9701 1980.5 -0.0074528 942.80 0.20542
-109.62 13488. undefined -68.355 65.457 -0.30194 695.00 0.0014388 -68.355 65.457 -0.30194 1.4225 1.9707 1982.7 -0.0074505 936.23 0.20574 695.00 0.0014388 -68.355 65.457 -0.30194 1.4225 1.9707 1982.7 -0.0074505 936.23 0.20574
-108.62 13799. undefined -66.931 69.961 -0.29326 695.00 0.0014388 -66.931 69.961 -0.29326 1.4248 1.9714 1984.8 -0.0074481 929.79 0.20605 695.00 0.0014388 -66.931 69.961 -0.29326 1.4248 1.9714 1984.8 -0.0074481 929.79 0.20605
-107.62 14108. undefined -65.505 74.458 -0.28462 695.00 0.0014388 -65.505 74.458 -0.28462 1.4270 1.9721 1986.9 -0.0074456 923.48 0.20637 695.00 0.0014388 -65.505 74.458 -0.28462 1.4270 1.9721 1986.9 -0.0074456 923.48 0.20637
-106.62 14417. undefined -64.077 78.949 -0.27602 695.00 0.0014388 -64.077 78.949 -0.27602 1.4293 1.9728 1989.0 -0.0074431 917.29 0.20669 695.00 0.0014388 -64.077 78.949 -0.27602 1.4293 1.9728 1989.0 -0.0074431 917.29 0.20669
-105.62 14725. undefined -62.647 83.434 -0.26746 695.00 0.0014388 -62.647 83.434 -0.26746 1.4316 1.9736 1991.1 -0.0074405 911.23 0.20700 695.00 0.0014388 -62.647 83.434 -0.26746 1.4316 1.9736 1991.1 -0.0074405 911.23 0.20700
-104.62 15032. undefined -61.214 87.913 -0.25893 695.00 0.0014388 -61.214 87.913 -0.25893 1.4339 1.9743 1993.2 -0.0074377 905.28 0.20732 695.00 0.0014388 -61.214 87.913 -0.25893 1.4339 1.9743 1993.2 -0.0074377 905.28 0.20732
-103.62 15338. undefined -59.779 92.385 -0.25044 695.00 0.0014388 -59.779 92.385 -0.25044 1.4362 1.9751 1995.2 -0.0074349 899.44 0.20764 695.00 0.0014388 -59.779 92.385 -0.25044 1.4362 1.9751 1995.2 -0.0074349 899.44 0.20764
-102.62 15644. undefined -58.342 96.852 -0.24199 695.00 0.0014388 -58.342 96.852 -0.24199 1.4386 1.9759 1997.3 -0.0074320 893.72 0.20796 695.00 0.0014388 -58.342 96.852 -0.24199 1.4386 1.9759 1997.3 -0.0074320 893.72 0.20796
-101.62 15948. undefined -56.902 101.31 -0.23357 695.00 0.0014388 -56.902 101.31 -0.23357 1.4409 1.9767 1999.3 -0.0074291 888.10 0.20828 695.00 0.0014388 -56.902 101.31 -0.23357 1.4409 1.9767 1999.3 -0.0074291 888.10 0.20828
-100.62 16252. undefined -55.460 105.77 -0.22518 695.00 0.0014388 -55.460 105.77 -0.22518 1.4432 1.9776 2001.3 -0.0074260 882.59 0.20860 695.00 0.0014388 -55.460 105.77 -0.22518 1.4432 1.9776 2001.3 -0.0074260 882.59 0.20860
-99.625 16555. undefined -54.015 110.22 -0.21684 695.00 0.0014388 -54.015 110.22 -0.21684 1.4456 1.9785 2003.3 -0.0074228 877.18 0.20892 695.00 0.0014388 -54.015 110.22 -0.21684 1.4456 1.9785 2003.3 -0.0074228 877.18 0.20892
-98.625 16857. undefined -52.569 114.66 -0.20852 695.00 0.0014388 -52.569 114.66 -0.20852 1.4480 1.9794 2005.3 -0.0074196 871.87 0.20923 695.00 0.0014388 -52.569 114.66 -0.20852 1.4480 1.9794 2005.3 -0.0074196 871.87 0.20923
-97.625 17158. undefined -51.119 119.10 -0.20024 695.00 0.0014388 -51.119 119.10 -0.20024 1.4504 1.9803 2007.3 -0.0074163 866.66 0.20955 695.00 0.0014388 -51.119 119.10 -0.20024 1.4504 1.9803 2007.3 -0.0074163 866.66 0.20955
-96.625 17459. undefined -49.668 123.53 -0.19200 695.00 0.0014388 -49.668 123.53 -0.19200 1.4528 1.9813 2009.2 -0.0074128 861.54 0.20987 695.00 0.0014388 -49.668 123.53 -0.19200 1.4528 1.9813 2009.2 -0.0074128 861.54 0.20987
-95.625 17758. undefined -48.214 127.96 -0.18378 695.00 0.0014388 -48.214 127.96 -0.18378 1.4552 1.9822 2011.2 -0.0074093 856.51 0.21019 695.00 0.0014388 -48.214 127.96 -0.18378 1.4552 1.9822 2011.2 -0.0074093 856.51 0.21019
-94.625 18057. undefined -46.758 132.38 -0.17560 695.00 0.0014388 -46.758 132.38 -0.17560 1.4576 1.9832 2013.1 -0.0074057 851.58 0.21052 695.00 0.0014388 -46.758 132.38 -0.17560 1.4576 1.9832 2013.1 -0.0074057 851.58 0.21052
-93.625 18355. undefined -45.299 136.80 -0.16745 695.00 0.0014388 -45.299 136.80 -0.16745 1.4600 1.9843 2015.0 -0.0074021 846.73 0.21084 695.00 0.0014388 -45.299 136.80 -0.16745 1.4600 1.9843 2015.0 -0.0074021 846.73 0.21084
-92.625 18653. undefined -43.837 141.21 -0.15934 695.00 0.0014388 -43.837 141.21 -0.15934 1.4625 1.9853 2016.9 -0.0073983 841.97 0.21116 695.00 0.0014388 -43.837 141.21 -0.15934 1.4625 1.9853 2016.9 -0.0073983 841.97 0.21116
-91.625 18949. undefined -42.374 145.61 -0.15125 695.00 0.0014388 -42.374 145.61 -0.15125 1.4649 1.9864 2018.8 -0.0073944 837.29 0.21148 695.00 0.0014388 -42.374 145.61 -0.15125 1.4649 1.9864 2018.8 -0.0073944 837.29 0.21148
-90.625 19245. undefined -40.908 150.01 -0.14320 695.00 0.0014388 -40.908 150.01 -0.14320 1.4674 1.9875 2020.6 -0.0073905 832.69 0.21180 695.00 0.0014388 -40.908 150.01 -0.14320 1.4674 1.9875 2020.6 -0.0073905 832.69 0.21180
-89.625 19540. undefined -39.439 154.41 -0.13517 695.00 0.0014388 -39.439 154.41 -0.13517 1.4699 1.9886 2022.5 -0.0073864 828.17 0.21212 695.00 0.0014388 -39.439 154.41 -0.13517 1.4699 1.9886 2022.5 -0.0073864 828.17 0.21212
-88.625 19834. undefined -37.968 158.80 -0.12718 695.00 0.0014388 -37.968 158.80 -0.12718 1.4724 1.9897 2024.3 -0.0073823 823.73 0.21245 695.00 0.0014388 -37.968 158.80 -0.12718 1.4724 1.9897 2024.3 -0.0073823 823.73 0.21245
-87.625 20128. undefined -36.494 163.19 -0.11921 695.00 0.0014388 -36.494 163.19 -0.11921 1.4750 1.9909 2026.2 -0.0073781 819.36 0.21277 695.00 0.0014388 -36.494 163.19 -0.11921 1.4750 1.9909 2026.2 -0.0073781 819.36 0.21277
-86.625 20421. undefined -35.018 167.57 -0.11128 695.00 0.0014388 -35.018 167.57 -0.11128 1.4775 1.9921 2028.0 -0.0073738 815.07 0.21309 695.00 0.0014388 -35.018 167.57 -0.11128 1.4775 1.9921 2028.0 -0.0073738 815.07 0.21309
-85.625 20713. undefined -33.539 171.94 -0.10337 695.00 0.0014388 -33.539 171.94 -0.10337 1.4801 1.9933 2029.8 -0.0073694 810.85 0.21341 695.00 0.0014388 -33.539 171.94 -0.10337 1.4801 1.9933 2029.8 -0.0073694 810.85 0.21341
-84.625 21004. undefined -32.058 176.31 -0.095491 695.00 0.0014388 -32.058 176.31 -0.095491 1.4826 1.9946 2031.6 -0.0073649 806.70 0.21374 695.00 0.0014388 -32.058 176.31 -0.095491 1.4826 1.9946 2031.6 -0.0073649 806.70 0.21374
-83.625 21295. undefined -30.574 180.68 -0.087641 695.00 0.0014388 -30.574 180.68 -0.087641 1.4852 1.9958 2033.4 -0.0073604 802.62 0.21406 695.00 0.0014388 -30.574 180.68 -0.087641 1.4852 1.9958 2033.4 -0.0073604 802.62 0.21406
-82.625 21585. undefined -29.087 185.04 -0.079818 695.00 0.0014388 -29.087 185.04 -0.079818 1.4878 1.9971 2035.1 -0.0073557 798.61 0.21439 695.00 0.0014388 -29.087 185.04 -0.079818 1.4878 1.9971 2035.1 -0.0073557 798.61 0.21439
-81.625 21874. undefined -27.598 189.40 -0.072023 695.00 0.0014388 -27.598 189.40 -0.072023 1.4904 1.9984 2036.9 -0.0073510 794.66 0.21471 695.00 0.0014388 -27.598 189.40 -0.072023 1.4904 1.9984 2036.9 -0.0073510 794.66 0.21471
-80.625 22162. undefined -26.106 193.75 -0.064255 695.00 0.0014388 -26.106 193.75 -0.064255 1.4931 1.9998 2038.6 -0.0073462 790.78 0.21503 695.00 0.0014388 -26.106 193.75 -0.064255 1.4931 1.9998 2038.6 -0.0073462 790.78 0.21503
-79.625 22450. undefined -24.612 198.10 -0.056513 695.00 0.0014388 -24.612 198.10 -0.056513 1.4957 2.0011 2040.4 -0.0073412 786.96 0.21536 695.00 0.0014388 -24.612 198.10 -0.056513 1.4957 2.0011 2040.4 -0.0073412 786.96 0.21536
-78.625 22737. undefined -23.115 202.45 -0.048797 695.00 0.0014388 -23.115 202.45 -0.048797 1.4984 2.0025 2042.1 -0.0073362 783.20 0.21569 695.00 0.0014388 -23.115 202.45 -0.048797 1.4984 2.0025 2042.1 -0.0073362 783.20 0.21569
-77.625 23023. undefined -21.615 206.79 -0.041107 695.00 0.0014388 -21.615 206.79 -0.041107 1.5010 2.0040 2043.8 -0.0073312 779.50 0.21601 695.00 0.0014388 -21.615 206.79 -0.041107 1.5010 2.0040 2043.8 -0.0073312 779.50 0.21601
-76.625 23309. undefined -20.113 211.12 -0.033443 695.00 0.0014388 -20.113 211.12 -0.033443 1.5037 2.0054 2045.5 -0.0073260 775.86 0.21634 695.00 0.0014388 -20.113 211.12 -0.033443 1.5037 2.0054 2045.5 -0.0073260 775.86 0.21634
-75.625 23594. undefined -18.608 215.45 -0.025804 695.00 0.0014388 -18.608 215.45 -0.025804 1.5065 2.0069 2047.2 -0.0073207 772.28 0.21666 695.00 0.0014388 -18.608 215.45 -0.025804 1.5065 2.0069 2047.2 -0.0073207 772.28 0.21666
-74.625 23878. undefined -17.100 219.78 -0.018189 695.00 0.0014388 -17.100 219.78 -0.018189 1.5092 2.0084 2048.9 -0.0073154 768.76 0.21699 695.00 0.0014388 -17.100 219.78 -0.018189 1.5092 2.0084 2048.9 -0.0073154 768.76 0.21699
-73.625 24161. undefined -15.589 224.10 -0.010600 695.00 0.0014388 -15.589 224.10 -0.010600 1.5119 2.0099 2050.5 -0.0073100 765.28 0.21732 695.00 0.0014388 -15.589 224.10 -0.010600 1.5119 2.0099 2050.5 -0.0073100 765.28 0.21732
-72.625 24444. undefined -14.076 228.42 -0.0030341 695.00 0.0014388 -14.076 228.42 -0.0030341 1.5147 2.0114 2052.2 -0.0073044 761.87 0.21764 695.00 0.0014388 -14.076 228.42 -0.0030341 1.5147 2.0114 2052.2 -0.0073044 761.87 0.21764
-71.625 24726. undefined -12.560 232.74 0.0045077 695.00 0.0014388 -12.560 232.74 0.0045077 1.5175 2.0130 2053.8 -0.0072988 758.50 0.21797 695.00 0.0014388 -12.560 232.74 0.0045077 1.5175 2.0130 2053.8 -0.0072988 758.50 0.21797
-70.625 25008. undefined -11.041 237.05 0.012026 695.00 0.0014388 -11.041 237.05 0.012026 1.5203 2.0146 2055.4 -0.0072932 755.19 0.21830 695.00 0.0014388 -11.041 237.05 0.012026 1.5203 2.0146 2055.4 -0.0072932 755.19 0.21830
-69.625 25289. undefined -9.5196 241.36 0.019521 695.00 0.0014388 -9.5196 241.36 0.019521 1.5231 2.0162 2057.1 -0.0072874 751.93 0.21863 695.00 0.0014388 -9.5196 241.36 0.019521 1.5231 2.0162 2057.1 -0.0072874 751.93 0.21863
-68.625 25569. undefined -7.9951 245.66 0.026993 695.00 0.0014388 -7.9951 245.66 0.026993 1.5259 2.0178 2058.7 -0.0072816 748.71 0.21895 695.00 0.0014388 -7.9951 245.66 0.026993 1.5259 2.0178 2058.7 -0.0072816 748.71 0.21895
-67.625 25849. undefined -6.4677 249.96 0.034442 695.00 0.0014388 -6.4677 249.96 0.034442 1.5287 2.0195 2060.3 -0.0072756 745.55 0.21928 695.00 0.0014388 -6.4677 249.96 0.034442 1.5287 2.0195 2060.3 -0.0072756 745.55 0.21928
-66.625 26127. undefined -4.9376 254.26 0.041870 695.00 0.0014388 -4.9376 254.26 0.041870 1.5316 2.0212 2061.8 -0.0072696 742.43 0.21961 695.00 0.0014388 -4.9376 254.26 0.041870 1.5316 2.0212 2061.8 -0.0072696 742.43 0.21961
-65.625 26406. undefined -3.4045 258.55 0.049275 695.00 0.0014388 -3.4045 258.55 0.049275 1.5345 2.0229 2063.4 -0.0072635 739.36 0.21994 695.00 0.0014388 -3.4045 258.55 0.049275 1.5345 2.0229 2063.4 -0.0072635 739.36 0.21994
-64.625 26683. undefined -1.8686 262.84 0.056658 695.00 0.0014388 -1.8686 262.84 0.056658 1.5374 2.0247 2065.0 -0.0072573 736.34 0.22027 695.00 0.0014388 -1.8686 262.84 0.056658 1.5374 2.0247 2065.0 -0.0072573 736.34 0.22027
-63.625 26960. undefined -0.32974 267.13 0.064020 695.00 0.0014388 -0.32974 267.13 0.064020 1.5403 2.0264 2066.5 -0.0072511 733.36 0.22060 695.00 0.0014388 -0.32974 267.13 0.064020 1.5403 2.0264 2066.5 -0.0072511 733.36 0.22060
-62.625 27237. undefined 1.2120 271.41 0.071361 695.00 0.0014388 1.2120 271.41 0.071361 1.5432 2.0282 2068.1 -0.0072448 730.42 0.22093 695.00 0.0014388 1.2120 271.41 0.071361 1.5432 2.0282 2068.1 -0.0072448 730.42 0.22093
-61.625 27512. undefined 2.7567 275.69 0.078681 695.00 0.0014388 2.7567 275.69 0.078681 1.5462 2.0300 2069.6 -0.0072384 727.53 0.22126 695.00 0.0014388 2.7567 275.69 0.078681 1.5462 2.0300 2069.6 -0.0072384 727.53 0.22126
-60.625 27787. undefined 4.3044 279.97 0.085980 695.00 0.0014388 4.3044 279.97 0.085980 1.5491 2.0319 2071.2 -0.0072319 724.67 0.22159 695.00 0.0014388 4.3044 279.97 0.085980 1.5491 2.0319 2071.2 -0.0072319 724.67 0.22159
-59.625 28062. undefined 5.8550 284.24 0.093259 695.00 0.0014388 5.8550 284.24 0.093259 1.5521 2.0337 2072.7 -0.0072253 721.86 0.22192 695.00 0.0014388 5.8550 284.24 0.093259 1.5521 2.0337 2072.7 -0.0072253 721.86 0.22192
-58.625 28336. undefined 7.4086 288.51 0.10052 695.00 0.0014388 7.4086 288.51 0.10052 1.5551 2.0356 2074.2 -0.0072187 719.09 0.22225 695.00 0.0014388 7.4086 288.51 0.10052 1.5551 2.0356 2074.2 -0.0072187 719.09 0.22225
-57.625 28609. undefined 8.9652 292.78 0.10776 695.00 0.0014388 8.9652 292.78 0.10776 1.5581 2.0375 2075.7 -0.0072119 716.36 0.22258 695.00 0.0014388 8.9652 292.78 0.10776 1.5581 2.0375 2075.7 -0.0072119 716.36 0.22258
-56.625 28881. undefined 10.525 297.04 0.11498 695.00 0.0014388 10.525 297.04 0.11498 1.5612 2.0395 2077.2 -0.0072051 713.67 0.22292 695.00 0.0014388 10.525 297.04 0.11498 1.5612 2.0395 2077.2 -0.0072051 713.67 0.22292
-55.625 29153. undefined 12.088 301.30 0.12218 695.00 0.0014388 12.088 301.30 0.12218 1.5642 2.0414 2078.7 -0.0071983 711.01 0.22325 695.00 0.0014388 12.088 301.30 0.12218 1.5642 2.0414 2078.7 -0.0071983 711.01 0.22325
-54.625 29425. undefined 13.653 305.56 0.12936 695.00 0.0014388 13.653 305.56 0.12936 1.5673 2.0434 2080.1 -0.0071913 708.40 0.22358 695.00 0.0014388 13.653 305.56 0.12936 1.5673 2.0434 2080.1 -0.0071913 708.40 0.22358
-53.625 29695. undefined 15.222 309.82 0.13652 695.00 0.0014388 15.222 309.82 0.13652 1.5704 2.0454 2081.6 -0.0071843 705.82 0.22391 695.00 0.0014388 15.222 309.82 0.13652 1.5704 2.0454 2081.6 -0.0071843 705.82 0.22391
-52.625 29966. undefined 16.794 314.07 0.14367 695.00 0.0014388 16.794 314.07 0.14367 1.5735 2.0475 2083.0 -0.0071772 703.27 0.22425 695.00 0.0014388 16.794 314.07 0.14367 1.5735 2.0475 2083.0 -0.0071772 703.27 0.22425
-51.625 30235. undefined 18.369 318.32 0.15079 695.00 0.0014388 18.369 318.32 0.15079 1.5766 2.0495 2084.5 -0.0071701 700.76 0.22458 695.00 0.0014388 18.369 318.32 0.15079 1.5766 2.0495 2084.5 -0.0071701 700.76 0.22458
-50.625 30504. undefined 19.947 322.56 0.15790 695.00 0.0014388 19.947 322.56 0.15790 1.5797 2.0516 2085.9 -0.0071629 698.29 0.22491 695.00 0.0014388 19.947 322.56 0.15790 1.5797 2.0516 2085.9 -0.0071629 698.29 0.22491
-49.625 30773. undefined 21.528 326.81 0.16499 695.00 0.0014388 21.528 326.81 0.16499 1.5828 2.0537 2087.4 -0.0071556 695.85 0.22525 695.00 0.0014388 21.528 326.81 0.16499 1.5828 2.0537 2087.4 -0.0071556 695.85 0.22525
-48.625 31040. undefined 23.113 331.05 0.17206 695.00 0.0014388 23.113 331.05 0.17206 1.5860 2.0559 2088.8 -0.0071482 693.44 0.22558 695.00 0.0014388 23.113 331.05 0.17206 1.5860 2.0559 2088.8 -0.0071482 693.44 0.22558
-47.625 31308. undefined 24.700 335.29 0.17912 695.00 0.0014388 24.700 335.29 0.17912 1.5892 2.0580 2090.2 -0.0071408 691.07 0.22591 695.00 0.0014388 24.700 335.29 0.17912 1.5892 2.0580 2090.2 -0.0071408 691.07 0.22591
-46.625 31574. undefined 26.291 339.52 0.18616 695.00 0.0014388 26.291 339.52 0.18616 1.5924 2.0602 2091.6 -0.0071333 688.72 0.22625 695.00 0.0014388 26.291 339.52 0.18616 1.5924 2.0602 2091.6 -0.0071333 688.72 0.22625
-45.625 31840. undefined 27.885 343.76 0.19318 695.00 0.0014388 27.885 343.76 0.19318 1.5956 2.0624 2093.0 -0.0071257 686.41 0.22658 695.00 0.0014388 27.885 343.76 0.19318 1.5956 2.0624 2093.0 -0.0071257 686.41 0.22658
-44.625 32106. undefined 29.482 347.99 0.20018 695.00 0.0014388 29.482 347.99 0.20018 1.5988 2.0646 2094.4 -0.0071181 684.13 0.22692 695.00 0.0014388 29.482 347.99 0.20018 1.5988 2.0646 2094.4 -0.0071181 684.13 0.22692
-43.625 32371. undefined 31.083 352.22 0.20717 695.00 0.0014388 31.083 352.22 0.20717 1.6021 2.0668 2095.8 -0.0071104 681.88 0.22725 695.00 0.0014388 31.083 352.22 0.20717 1.6021 2.0668 2095.8 -0.0071104 681.88 0.22725
-42.625 32635. undefined 32.687 356.44 0.21414 695.00 0.0014388 32.687 356.44 0.21414 1.6053 2.0691 2097.1 -0.0071026 679.66 0.22759 695.00 0.0014388 32.687 356.44 0.21414 1.6053 2.0691 2097.1 -0.0071026 679.66 0.22759
-41.625 32899. undefined 34.294 360.67 0.22110 695.00 0.0014388 34.294 360.67 0.22110 1.6086 2.0714 2098.5 -0.0070948 677.47 0.22793 695.00 0.0014388 34.294 360.67 0.22110 1.6086 2.0714 2098.5 -0.0070948 677.47 0.22793
-40.625 33162. undefined 35.904 364.89 0.22804 695.00 0.0014388 35.904 364.89 0.22804 1.6119 2.0737 2099.9 -0.0070869 675.31 0.22826 695.00 0.0014388 35.904 364.89 0.22804 1.6119 2.0737 2099.9 -0.0070869 675.31 0.22826
-39.625 33425. undefined 37.517 369.11 0.23496 695.00 0.0014388 37.517 369.11 0.23496 1.6152 2.0761 2101.2 -0.0070790 673.18 0.22860 695.00 0.0014388 37.517 369.11 0.23496 1.6152 2.0761 2101.2 -0.0070790 673.18 0.22860
-38.625 33687. undefined 39.134 373.33 0.24187 695.00 0.0014388 39.134 373.33 0.24187 1.6185 2.0784 2102.6 -0.0070710 671.07 0.22894 695.00 0.0014388 39.134 373.33 0.24187 1.6185 2.0784 2102.6 -0.0070710 671.07 0.22894
-37.625 33949. undefined 40.754 377.54 0.24877 695.00 0.0014388 40.754 377.54 0.24877 1.6219 2.0808 2103.9 -0.0070629 668.99 0.22927 695.00 0.0014388 40.754 377.54 0.24877 1.6219 2.0808 2103.9 -0.0070629 668.99 0.22927
-36.625 34210. undefined 42.378 381.76 0.25564 695.00 0.0014388 42.378 381.76 0.25564 1.6252 2.0832 2105.2 -0.0070548 666.94 0.22961 695.00 0.0014388 42.378 381.76 0.25564 1.6252 2.0832 2105.2 -0.0070548 666.94 0.22961
-35.625 34470. undefined 44.005 385.97 0.26251 695.00 0.0014388 44.005 385.97 0.26251 1.6286 2.0856 2106.6 -0.0070466 664.92 0.22995 695.00 0.0014388 44.005 385.97 0.26251 1.6286 2.0856 2106.6 -0.0070466 664.92 0.22995
-34.625 34730. undefined 45.635 390.18 0.26936 695.00 0.0014388 45.635 390.18 0.26936 1.6320 2.0881 2107.9 -0.0070384 662.92 0.23029 695.00 0.0014388 45.635 390.18 0.26936 1.6320 2.0881 2107.9 -0.0070384 662.92 0.23029
-33.625 34990. undefined 47.269 394.39 0.27619 695.00 0.0014388 47.269 394.39 0.27619 1.6354 2.0905 2109.2 -0.0070301 660.94 0.23063 695.00 0.0014388 47.269 394.39 0.27619 1.6354 2.0905 2109.2 -0.0070301 660.94 0.23063
-32.625 35249. undefined 48.906 398.59 0.28301 695.00 0.0014388 48.906 398.59 0.28301 1.6388 2.0930 2110.5 -0.0070218 658.99 0.23096 695.00 0.0014388 48.906 398.59 0.28301 1.6388 2.0930 2110.5 -0.0070218 658.99 0.23096
-31.625 35507. undefined 50.547 402.80 0.28982 695.00 0.0014388 50.547 402.80 0.28982 1.6422 2.0955 2111.8 -0.0070134 657.07 0.23130 695.00 0.0014388 50.547 402.80 0.28982 1.6422 2.0955 2111.8 -0.0070134 657.07 0.23130
-30.625 35765. undefined 52.191 407.00 0.29661 695.00 0.0014388 52.191 407.00 0.29661 1.6457 2.0980 2113.1 -0.0070049 655.17 0.23164 695.00 0.0014388 52.191 407.00 0.29661 1.6457 2.0980 2113.1 -0.0070049 655.17 0.23164
-29.625 36023. undefined 53.838 411.20 0.30339 695.00 0.0014388 53.838 411.20 0.30339 1.6492 2.1006 2114.4 -0.0069964 653.29 0.23198 695.00 0.0014388 53.838 411.20 0.30339 1.6492 2.1006 2114.4 -0.0069964 653.29 0.23198
-28.625 36279. undefined 55.489 415.40 0.31016 695.00 0.0014388 55.489 415.40 0.31016 1.6526 2.1032 2115.7 -0.0069879 651.44 0.23232 695.00 0.0014388 55.489 415.40 0.31016 1.6526 2.1032 2115.7 -0.0069879 651.44 0.23232
-27.625 36536. undefined 57.143 419.60 0.31691 695.00 0.0014388 57.143 419.60 0.31691 1.6561 2.1057 2117.0 -0.0069793 649.61 0.23266 695.00 0.0014388 57.143 419.60 0.31691 1.6561 2.1057 2117.0 -0.0069793 649.61 0.23266
-26.625 36792. undefined 58.801 423.79 0.32365 695.00 0.0014388 58.801 423.79 0.32365 1.6596 2.1084 2118.2 -0.0069707 647.80 0.23300 695.00 0.0014388 58.801 423.79 0.32365 1.6596 2.1084 2118.2 -0.0069707 647.80 0.23300
-25.625 37047. undefined 60.462 427.99 0.33037 695.00 0.0014388 60.462 427.99 0.33037 1.6631 2.1110 2119.5 -0.0069620 646.02 0.23334 695.00 0.0014388 60.462 427.99 0.33037 1.6631 2.1110 2119.5 -0.0069620 646.02 0.23334
-24.625 37302. undefined 62.127 432.18 0.33708 695.00 0.0014388 62.127 432.18 0.33708 1.6667 2.1136 2120.7 -0.0069532 644.25 0.23368 695.00 0.0014388 62.127 432.18 0.33708 1.6667 2.1136 2120.7 -0.0069532 644.25 0.23368
-23.625 37556. undefined 63.796 436.37 0.34378 695.00 0.0014388 63.796 436.37 0.34378 1.6702 2.1163 2122.0 -0.0069445 642.51 0.23403 695.00 0.0014388 63.796 436.37 0.34378 1.6702 2.1163 2122.0 -0.0069445 642.51 0.23403
-22.625 37810. undefined 65.468 440.56 0.35047 695.00 0.0014388 65.468 440.56 0.35047 1.6738 2.1190 2123.2 -0.0069357 640.79 0.23437 695.00 0.0014388 65.468 440.56 0.35047 1.6738 2.1190 2123.2 -0.0069357 640.79 0.23437
-21.625 38063. undefined 67.143 444.75 0.35715 695.00 0.0014388 67.143 444.75 0.35715 1.6773 2.1217 2124.5 -0.0069268 639.09 0.23471 695.00 0.0014388 67.143 444.75 0.35715 1.6773 2.1217 2124.5 -0.0069268 639.09 0.23471
-20.625 38316. undefined 68.822 448.94 0.36381 695.00 0.0014388 68.822 448.94 0.36381 1.6809 2.1244 2125.7 -0.0069179 637.41 0.23505 695.00 0.0014388 68.822 448.94 0.36381 1.6809 2.1244 2125.7 -0.0069179 637.41 0.23505
-19.625 38568. undefined 70.505 453.12 0.37046 695.00 0.0014388 70.505 453.12 0.37046 1.6845 2.1272 2127.0 -0.0069090 635.75 0.23539 695.00 0.0014388 70.505 453.12 0.37046 1.6845 2.1272 2127.0 -0.0069090 635.75 0.23539
-18.625 38820. undefined 72.192 457.31 0.37710 695.00 0.0014388 72.192 457.31 0.37710 1.6881 2.1299 2128.2 -0.0069000 634.11 0.23574 695.00 0.0014388 72.192 457.31 0.37710 1.6881 2.1299 2128.2 -0.0069000 634.11 0.23574
-17.625 39072. undefined 73.881 461.49 0.38372 695.00 0.0014388 73.881 461.49 0.38372 1.6918 2.1327 2129.4 -0.0068910 632.49 0.23608 695.00 0.0014388 73.881 461.49 0.38372 1.6918 2.1327 2129.4 -0.0068910 632.49 0.23608
-16.625 39323. undefined 75.575 465.68 0.39034 695.00 0.0014388 75.575 465.68 0.39034 1.6954 2.1355 2130.6 -0.0068819 630.89 0.23642 695.00 0.0014388 75.575 465.68 0.39034 1.6954 2.1355 2130.6 -0.0068819 630.89 0.23642
-15.625 39573. undefined 77.272 469.86 0.39694 695.00 0.0014388 77.272 469.86 0.39694 1.6990 2.1383 2131.8 -0.0068728 629.31 0.23677 695.00 0.0014388 77.272 469.86 0.39694 1.6990 2.1383 2131.8 -0.0068728 629.31 0.23677
-14.625 39823. undefined 78.973 474.04 0.40353 695.00 0.0014388 78.973 474.04 0.40353 1.7027 2.1412 2133.1 -0.0068637 627.74 0.23711 695.00 0.0014388 78.973 474.04 0.40353 1.7027 2.1412 2133.1 -0.0068637 627.74 0.23711
-13.625 40072. undefined 80.678 478.22 0.41011 695.00 0.0014388 80.678 478.22 0.41011 1.7064 2.1440 2134.3 -0.0068545 626.20 0.23746 695.00 0.0014388 80.678 478.22 0.41011 1.7064 2.1440 2134.3 -0.0068545 626.20 0.23746
-12.625 40321. undefined 82.386 482.40 0.41668 695.00 0.0014388 82.386 482.40 0.41668 1.7101 2.1469 2135.5 -0.0068453 624.67 0.23780 695.00 0.0014388 82.386 482.40 0.41668 1.7101 2.1469 2135.5 -0.0068453 624.67 0.23780
-11.625 40570. undefined 84.098 486.57 0.42324 695.00 0.0014388 84.098 486.57 0.42324 1.7138 2.1498 2136.6 -0.0068361 623.16 0.23815 695.00 0.0014388 84.098 486.57 0.42324 1.7138 2.1498 2136.6 -0.0068361 623.16 0.23815
-10.625 40818. undefined 85.813 490.75 0.42979 695.00 0.0014388 85.813 490.75 0.42979 1.7175 2.1527 2137.8 -0.0068268 621.67 0.23849 695.00 0.0014388 85.813 490.75 0.42979 1.7175 2.1527 2137.8 -0.0068268 621.67 0.23849
-9.6250 41066. undefined 87.533 494.93 0.43633 695.00 0.0014388 87.533 494.93 0.43633 1.7212 2.1556 2139.0 -0.0068176 620.20 0.23884 695.00 0.0014388 87.533 494.93 0.43633 1.7212 2.1556 2139.0 -0.0068176 620.20 0.23884
-8.6250 41313. undefined 89.256 499.10 0.44285 695.00 0.0014388 89.256 499.10 0.44285 1.7249 2.1585 2140.2 -0.0068082 618.74 0.23918 695.00 0.0014388 89.256 499.10 0.44285 1.7249 2.1585 2140.2 -0.0068082 618.74 0.23918
-7.6250 41559. undefined 90.983 503.27 0.44937 695.00 0.0014388 90.983 503.27 0.44937 1.7287 2.1615 2141.4 -0.0067989 617.30 0.23953 695.00 0.0014388 90.983 503.27 0.44937 1.7287 2.1615 2141.4 -0.0067989 617.30 0.23953
-6.6250 41806. undefined 92.713 507.45 0.45587 695.00 0.0014388 92.713 507.45 0.45587 1.7324 2.1645 2142.5 -0.0067895 615.87 0.23987 695.00 0.0014388 92.713 507.45 0.45587 1.7324 2.1645 2142.5 -0.0067895 615.87 0.23987
-5.6250 42051. undefined 94.448 511.62 0.46237 695.00 0.0014388 94.448 511.62 0.46237 1.7362 2.1675 2143.7 -0.0067801 614.46 0.24022 695.00 0.0014388 94.448 511.62 0.46237 1.7362 2.1675 2143.7 -0.0067801 614.46 0.24022
-4.6250 42297. undefined 96.186 515.79 0.46885 695.00 0.0014388 96.186 515.79 0.46885 1.7400 2.1705 2144.9 -0.0067707 613.07 0.24057 695.00 0.0014388 96.186 515.79 0.46885 1.7400 2.1705 2144.9 -0.0067707 613.07 0.24057
-3.6250 42542. undefined 97.927 519.96 0.47533 695.00 0.0014388 97.927 519.96 0.47533 1.7438 2.1735 2146.0 -0.0067612 611.69 0.24091 695.00 0.0014388 97.927 519.96 0.47533 1.7438 2.1735 2146.0 -0.0067612 611.69 0.24091
-2.6250 42786. undefined 99.673 524.13 0.48179 695.00 0.0014388 99.673 524.13 0.48179 1.7476 2.1765 2147.2 -0.0067517 610.33 0.24126 695.00 0.0014388 99.673 524.13 0.48179 1.7476 2.1765 2147.2 -0.0067517 610.33 0.24126
-1.6250 43030. undefined 101.42 528.30 0.48825 695.00 0.0014388 101.42 528.30 0.48825 1.7514 2.1796 2148.3 -0.0067422 608.99 0.24161 695.00 0.0014388 101.42 528.30 0.48825 1.7514 2.1796 2148.3 -0.0067422 608.99 0.24161
-0.62500 43274. undefined 103.18 532.47 0.49469 695.00 0.0014388 103.18 532.47 0.49469 1.7552 2.1826 2149.5 -0.0067327 607.65 0.24196 695.00 0.0014388 103.18 532.47 0.49469 1.7552 2.1826 2149.5 -0.0067327 607.65 0.24196
0.37500 43517. undefined 104.93 536.64 0.50113 695.00 0.0014388 104.93 536.64 0.50113 1.7590 2.1857 2150.6 -0.0067232 606.34 0.24231 695.00 0.0014388 104.93 536.64 0.50113 1.7590 2.1857 2150.6 -0.0067232 606.34 0.24231
1.3750 43759. undefined 106.69 540.81 0.50756 695.00 0.0014388 106.69 540.81 0.50756 1.7629 2.1888 2151.8 -0.0067136 605.04 0.24266 695.00 0.0014388 106.69 540.81 0.50756 1.7629 2.1888 2151.8 -0.0067136 605.04 0.24266
2.3750 44002. undefined 108.46 544.98 0.51397 695.00 0.0014388 108.46 544.98 0.51397 1.7667 2.1919 2152.9 -0.0067040 603.75 0.24300 695.00 0.0014388 108.46 544.98 0.51397 1.7667 2.1919 2152.9 -0.0067040 603.75 0.24300
3.3750 44244. undefined 110.23 549.15 0.52038 695.00 0.0014388 110.23 549.15 0.52038 1.7706 2.1950 2154.1 -0.0066944 602.47 0.24335 695.00 0.0014388 110.23 549.15 0.52038 1.7706 2.1950 2154.1 -0.0066944 602.47 0.24335
4.3750 44485. undefined 112.00 553.31 0.52678 695.00 0.0014388 112.00 553.31 0.52678 1.7744 2.1982 2155.2 -0.0066848 601.22 0.24370 695.00 0.0014388 112.00 553.31 0.52678 1.7744 2.1982 2155.2 -0.0066848 601.22 0.24370
5.3750 44726. undefined 113.78 557.48 0.53317 695.00 0.0014388 113.78 557.48 0.53317 1.7783 2.2013 2156.3 -0.0066752 599.97 0.24405 695.00 0.0014388 113.78 557.48 0.53317 1.7783 2.2013 2156.3 -0.0066752 599.97 0.24405
6.3750 44966. undefined 115.56 561.65 0.53955 695.00 0.0014388 115.56 561.65 0.53955 1.7822 2.2045 2157.4 -0.0066655 598.74 0.24440 695.00 0.0014388 115.56 561.65 0.53955 1.7822 2.2045 2157.4 -0.0066655 598.74 0.24440
7.3750 45207. undefined 117.34 565.81 0.54592 695.00 0.0014388 117.34 565.81 0.54592 1.7861 2.2077 2158.6 -0.0066558 597.52 0.24475 695.00 0.0014388 117.34 565.81 0.54592 1.7861 2.2077 2158.6 -0.0066558 597.52 0.24475
8.3750 45446. undefined 119.13 569.98 0.55228 695.00 0.0014388 119.13 569.98 0.55228 1.7900 2.2109 2159.7 -0.0066462 596.31 0.24510 695.00 0.0014388 119.13 569.98 0.55228 1.7900 2.2109 2159.7 -0.0066462 596.31 0.24510
9.3750 45686. undefined 120.92 574.15 0.55864 695.00 0.0014388 120.92 574.15 0.55864 1.7939 2.2141 2160.8 -0.0066365 595.12 0.24546 695.00 0.0014388 120.92 574.15 0.55864 1.7939 2.2141 2160.8 -0.0066365 595.12 0.24546
10.375 45925. undefined 122.72 578.31 0.56498 695.00 0.0014388 122.72 578.31 0.56498 1.7978 2.2173 2161.9 -0.0066268 593.94 0.24581 695.00 0.0014388 122.72 578.31 0.56498 1.7978 2.2173 2161.9 -0.0066268 593.94 0.24581
11.375 46163. undefined 124.52 582.48 0.57132 695.00 0.0014388 124.52 582.48 0.57132 1.8018 2.2205 2163.0 -0.0066170 592.77 0.24616 695.00 0.0014388 124.52 582.48 0.57132 1.8018 2.2205 2163.0 -0.0066170 592.77 0.24616
12.375 46401. undefined 126.32 586.64 0.57765 695.00 0.0014388 126.32 586.64 0.57765 1.8057 2.2238 2164.1 -0.0066073 591.62 0.24651 695.00 0.0014388 126.32 586.64 0.57765 1.8057 2.2238 2164.1 -0.0066073 591.62 0.24651
13.375 46639. undefined 128.13 590.81 0.58397 695.00 0.0014388 128.13 590.81 0.58397 1.8097 2.2270 2165.2 -0.0065976 590.47 0.24686 695.00 0.0014388 128.13 590.81 0.58397 1.8097 2.2270 2165.2 -0.0065976 590.47 0.24686
14.375 46876. undefined 129.94 594.97 0.59028 695.00 0.0014388 129.94 594.97 0.59028 1.8136 2.2303 2166.3 -0.0065878 589.34 0.24721 695.00 0.0014388 129.94 594.97 0.59028 1.8136 2.2303 2166.3 -0.0065878 589.34 0.24721
15.375 47113. undefined 131.76 599.14 0.59658 695.00 0.0014388 131.76 599.14 0.59658 1.8176 2.2336 2167.4 -0.0065780 588.22 0.24757 695.00 0.0014388 131.76 599.14 0.59658 1.8176 2.2336 2167.4 -0.0065780 588.22 0.24757
16.375 47349. undefined 133.57 603.30 0.60288 695.00 0.0014388 133.57 603.30 0.60288 1.8216 2.2369 2168.5 -0.0065683 587.12 0.24792 695.00 0.0014388 133.57 603.30 0.60288 1.8216 2.2369 2168.5 -0.0065683 587.12 0.24792
17.375 47585. undefined 135.40 607.47 0.60917 695.00 0.0014388 135.40 607.47 0.60917 1.8255 2.2402 2169.6 -0.0065585 586.02 0.24827 695.00 0.0014388 135.40 607.47 0.60917 1.8255 2.2402 2169.6 -0.0065585 586.02 0.24827
18.375 47821. undefined 137.23 611.63 0.61544 695.00 0.0014388 137.23 611.63 0.61544 1.8295 2.2435 2170.7 -0.0065487 584.94 0.24863 695.00 0.0014388 137.23 611.63 0.61544 1.8295 2.2435 2170.7 -0.0065487 584.94 0.24863
19.375 48056. undefined 139.06 615.80 0.62172 695.00 0.0014388 139.06 615.80 0.62172 1.8335 2.2469 2171.7 -0.0065389 583.86 0.24898 695.00 0.0014388 139.06 615.80 0.62172 1.8335 2.2469 2171.7 -0.0065389 583.86 0.24898
20.375 48291. undefined 140.89 619.97 0.62798 695.00 0.0014388 140.89 619.97 0.62798 1.8375 2.2502 2172.8 -0.0065291 582.80 0.24934 695.00 0.0014388 140.89 619.97 0.62798 1.8375 2.2502 2172.8 -0.0065291 582.80 0.24934
21.375 48526. undefined 142.73 624.13 0.63424 695.00 0.0014388 142.73 624.13 0.63424 1.8415 2.2535 2173.9 -0.0065193 581.75 0.24969 695.00 0.0014388 142.73 624.13 0.63424 1.8415 2.2535 2173.9 -0.0065193 581.75 0.24969
22.375 48760. undefined 144.58 628.30 0.64049 695.00 0.0014388 144.58 628.30 0.64049 1.8456 2.2569 2175.0 -0.0065095 580.71 0.25004 695.00 0.0014388 144.58 628.30 0.64049 1.8456 2.2569 2175.0 -0.0065095 580.71 0.25004
23.375 48993. undefined 146.42 632.46 0.64673 695.00 0.0014388 146.42 632.46 0.64673 1.8496 2.2603 2176.0 -0.0064997 579.68 0.25040 695.00 0.0014388 146.42 632.46 0.64673 1.8496 2.2603 2176.0 -0.0064997 579.68 0.25040
24.375 49227. undefined 148.28 636.63 0.65296 695.00 0.0014388 148.28 636.63 0.65296 1.8536 2.2637 2177.1 -0.0064899 578.66 0.25076 695.00 0.0014388 148.28 636.63 0.65296 1.8536 2.2637 2177.1 -0.0064899 578.66 0.25076
25.375 49460. undefined 150.13 640.80 0.65919 695.00 0.0014388 150.13 640.80 0.65919 1.8576 2.2671 2178.2 -0.0064800 577.65 0.25111 695.00 0.0014388 150.13 640.80 0.65919 1.8576 2.2671 2178.2 -0.0064800 577.65 0.25111
26.375 49692. undefined 151.99 644.96 0.66541 695.00 0.0014388 151.99 644.96 0.66541 1.8617 2.2705 2179.2 -0.0064702 576.66 0.25147 695.00 0.0014388 151.99 644.96 0.66541 1.8617 2.2705 2179.2 -0.0064702 576.66 0.25147
27.375 49924. undefined 153.85 649.13 0.67162 695.00 0.0014388 153.85 649.13 0.67162 1.8657 2.2739 2180.3 -0.0064604 575.67 0.25182 695.00 0.0014388 153.85 649.13 0.67162 1.8657 2.2739 2180.3 -0.0064604 575.67 0.25182
28.375 50156. undefined 155.72 653.30 0.67782 695.00 0.0014388 155.72 653.30 0.67782 1.8698 2.2773 2181.4 -0.0064506 574.69 0.25218 695.00 0.0014388 155.72 653.30 0.67782 1.8698 2.2773 2181.4 -0.0064506 574.69 0.25218
29.375 50388. undefined 157.59 657.47 0.68402 695.00 0.0014388 157.59 657.47 0.68402 1.8739 2.2808 2182.4 -0.0064408 573.72 0.25254 695.00 0.0014388 157.59 657.47 0.68402 1.8739 2.2808 2182.4 -0.0064408 573.72 0.25254
30.375 50619. undefined 159.47 661.63 0.69021 695.00 0.0014388 159.47 661.63 0.69021 1.8779 2.2842 2183.5 -0.0064310 572.76 0.25289 695.00 0.0014388 159.47 661.63 0.69021 1.8779 2.2842 2183.5 -0.0064310 572.76 0.25289
31.375 50849. undefined 161.35 665.80 0.69639 695.00 0.0014388 161.35 665.80 0.69639 1.8820 2.2877 2184.5 -0.0064211 571.81 0.25325 695.00 0.0014388 161.35 665.80 0.69639 1.8820 2.2877 2184.5 -0.0064211 571.81 0.25325
32.375 51080. undefined 163.23 669.97 0.70257 695.00 0.0014388 163.23 669.97 0.70257 1.8861 2.2911 2185.6 -0.0064113 570.87 0.25361 695.00 0.0014388 163.23 669.97 0.70257 1.8861 2.2911 2185.6 -0.0064113 570.87 0.25361
33.375 51310. undefined 165.12 674.14 0.70874 695.00 0.0014388 165.12 674.14 0.70874 1.8902 2.2946 2186.6 -0.0064015 569.94 0.25397 695.00 0.0014388 165.12 674.14 0.70874 1.8902 2.2946 2186.6 -0.0064015 569.94 0.25397
34.375 51539. undefined 167.01 678.31 0.71490 695.00 0.0014388 167.01 678.31 0.71490 1.8943 2.2981 2187.7 -0.0063917 569.02 0.25433 695.00 0.0014388 167.01 678.31 0.71490 1.8943 2.2981 2187.7 -0.0063917 569.02 0.25433
35.375 51769. undefined 168.91 682.48 0.72106 695.00 0.0014388 168.91 682.48 0.72106 1.8983 2.3016 2188.7 -0.0063819 568.11 0.25468 695.00 0.0014388 168.91 682.48 0.72106 1.8983 2.3016 2188.7 -0.0063819 568.11 0.25468
36.375 51997. undefined 170.81 686.65 0.72721 695.00 0.0014388 170.81 686.65 0.72721 1.9024 2.3051 2189.7 -0.0063721 567.21 0.25504 695.00 0.0014388 170.81 686.65 0.72721 1.9024 2.3051 2189.7 -0.0063721 567.21 0.25504
37.375 52226. undefined 172.72 690.82 0.73335 695.00 0.0014388 172.72 690.82 0.73335 1.9066 2.3086 2190.8 -0.0063623 566.31 0.25540 695.00 0.0014388 172.72 690.82 0.73335 1.9066 2.3086 2190.8 -0.0063623 566.31 0.25540
38.375 52454. undefined 174.62 695.00 0.73949 695.00 0.0014388 174.62 695.00 0.73949 1.9107 2.3121 2191.8 -0.0063525 565.43 0.25576 695.00 0.0014388 174.62 695.00 0.73949 1.9107 2.3121 2191.8 -0.0063525 565.43 0.25576
39.375 52682. undefined 176.54 699.17 0.74562 695.00 0.0014388 176.54 699.17 0.74562 1.9148 2.3156 2192.9 -0.0063427 564.55 0.25612 695.00 0.0014388 176.54 699.17 0.74562 1.9148 2.3156 2192.9 -0.0063427 564.55 0.25612
40.375 52909. undefined 178.45 703.34 0.75174 695.00 0.0014388 178.45 703.34 0.75174 1.9189 2.3192 2193.9 -0.0063330 563.68 0.25648 695.00 0.0014388 178.45 703.34 0.75174 1.9189 2.3192 2193.9 -0.0063330 563.68 0.25648
41.375 53137. undefined 180.37 707.52 0.75786 695.00 0.0014388 180.37 707.52 0.75786 1.9230 2.3227 2194.9 -0.0063232 562.82 0.25684 695.00 0.0014388 180.37 707.52 0.75786 1.9230 2.3227 2194.9 -0.0063232 562.82 0.25684
42.375 53363. undefined 182.30 711.69 0.76397 695.00 0.0014388 182.30 711.69 0.76397 1.9272 2.3262 2195.9 -0.0063134 561.97 0.25720 695.00 0.0014388 182.30 711.69 0.76397 1.9272 2.3262 2195.9 -0.0063134 561.97 0.25720
43.375 53590. undefined 184.23 715.87 0.77008 695.00 0.0014388 184.23 715.87 0.77008 1.9313 2.3298 2197.0 -0.0063037 561.12 0.25756 695.00 0.0014388 184.23 715.87 0.77008 1.9313 2.3298 2197.0 -0.0063037 561.12 0.25756
44.375 53816. undefined 186.16 720.04 0.77617 695.00 0.0014388 186.16 720.04 0.77617 1.9354 2.3334 2198.0 -0.0062939 560.29 0.25792 695.00 0.0014388 186.16 720.04 0.77617 1.9354 2.3334 2198.0 -0.0062939 560.29 0.25792
45.375 54042. undefined 188.10 724.22 0.78227 695.00 0.0014388 188.10 724.22 0.78227 1.9396 2.3369 2199.0 -0.0062842 559.46 0.25829 695.00 0.0014388 188.10 724.22 0.78227 1.9396 2.3369 2199.0 -0.0062842 559.46 0.25829
46.375 54267. undefined 190.04 728.40 0.78835 695.00 0.0014388 190.04 728.40 0.78835 1.9437 2.3405 2200.0 -0.0062745 558.64 0.25865 695.00 0.0014388 190.04 728.40 0.78835 1.9437 2.3405 2200.0 -0.0062745 558.64 0.25865
47.375 54492. undefined 191.99 732.58 0.79443 695.00 0.0014388 191.99 732.58 0.79443 1.9479 2.3441 2201.0 -0.0062648 557.83 0.25901 695.00 0.0014388 191.99 732.58 0.79443 1.9479 2.3441 2201.0 -0.0062648 557.83 0.25901
48.375 54717. undefined 193.94 736.75 0.80051 695.00 0.0014388 193.94 736.75 0.80051 1.9520 2.3477 2202.1 -0.0062551 557.03 0.25937 695.00 0.0014388 193.94 736.75 0.80051 1.9520 2.3477 2202.1 -0.0062551 557.03 0.25937
49.375 54941. undefined 195.89 740.93 0.80658 695.00 0.0014388 195.89 740.93 0.80658 1.9562 2.3513 2203.1 -0.0062454 556.23 0.25973 695.00 0.0014388 195.89 740.93 0.80658 1.9562 2.3513 2203.1 -0.0062454 556.23 0.25973
50.375 55165. undefined 197.85 745.11 0.81264 695.00 0.0014388 197.85 745.11 0.81264 1.9603 2.3549 2204.1 -0.0062357 555.44 0.26010 695.00 0.0014388 197.85 745.11 0.81264 1.9603 2.3549 2204.1 -0.0062357 555.44 0.26010
51.375 55389. undefined 199.81 749.30 0.81869 695.00 0.0014388 199.81 749.30 0.81869 1.9645 2.3585 2205.1 -0.0062260 554.66 0.26046 695.00 0.0014388 199.81 749.30 0.81869 1.9645 2.3585 2205.1 -0.0062260 554.66 0.26046
52.375 55612. undefined 201.78 753.48 0.82474 695.00 0.0014388 201.78 753.48 0.82474 1.9686 2.3621 2206.1 -0.0062163 553.88 0.26082 695.00 0.0014388 201.78 753.48 0.82474 1.9686 2.3621 2206.1 -0.0062163 553.88 0.26082
53.375 55835. undefined 203.75 757.66 0.83079 695.00 0.0014388 203.75 757.66 0.83079 1.9728 2.3657 2207.1 -0.0062067 553.12 0.26119 695.00 0.0014388 203.75 757.66 0.83079 1.9728 2.3657 2207.1 -0.0062067 553.12 0.26119
54.375 56058. undefined 205.72 761.85 0.83683 695.00 0.0014388 205.72 761.85 0.83683 1.9770 2.3694 2208.1 -0.0061971 552.36 0.26155 695.00 0.0014388 205.72 761.85 0.83683 1.9770 2.3694 2208.1 -0.0061971 552.36 0.26155
55.375 56280. undefined 207.70 766.03 0.84286 695.00 0.0014388 207.70 766.03 0.84286 1.9812 2.3730 2209.1 -0.0061874 551.60 0.26192 695.00 0.0014388 207.70 766.03 0.84286 1.9812 2.3730 2209.1 -0.0061874 551.60 0.26192
56.375 56502. undefined 209.69 770.22 0.84889 695.00 0.0014388 209.69 770.22 0.84889 1.9853 2.3766 2210.1 -0.0061778 550.86 0.26228 695.00 0.0014388 209.69 770.22 0.84889 1.9853 2.3766 2210.1 -0.0061778 550.86 0.26228
57.375 56724. undefined 211.67 774.40 0.85491 695.00 0.0014388 211.67 774.40 0.85491 1.9895 2.3803 2211.1 -0.0061682 550.12 0.26265 695.00 0.0014388 211.67 774.40 0.85491 1.9895 2.3803 2211.1 -0.0061682 550.12 0.26265
58.375 56945. undefined 213.67 778.59 0.86093 695.00 0.0014388 213.67 778.59 0.86093 1.9937 2.3839 2212.1 -0.0061587 549.39 0.26301 695.00 0.0014388 213.67 778.59 0.86093 1.9937 2.3839 2212.1 -0.0061587 549.39 0.26301
59.375 57166. undefined 215.66 782.78 0.86694 695.00 0.0014388 215.66 782.78 0.86694 1.9979 2.3876 2213.1 -0.0061491 548.66 0.26338 695.00 0.0014388 215.66 782.78 0.86694 1.9979 2.3876 2213.1 -0.0061491 548.66 0.26338
60.375 57387. undefined 217.66 786.97 0.87294 695.00 0.0014388 217.66 786.97 0.87294 2.0021 2.3913 2214.1 -0.0061395 547.94 0.26374 695.00 0.0014388 217.66 786.97 0.87294 2.0021 2.3913 2214.1 -0.0061395 547.94 0.26374
61.375 57608. undefined 219.66 791.16 0.87894 695.00 0.0014388 219.66 791.16 0.87894 2.0063 2.3949 2215.1 -0.0061300 547.23 0.26411 695.00 0.0014388 219.66 791.16 0.87894 2.0063 2.3949 2215.1 -0.0061300 547.23 0.26411
62.375 57828. undefined 221.67 795.35 0.88494 695.00 0.0014388 221.67 795.35 0.88494 2.0105 2.3986 2216.1 -0.0061205 546.52 0.26448 695.00 0.0014388 221.67 795.35 0.88494 2.0105 2.3986 2216.1 -0.0061205 546.52 0.26448
63.375 58048. undefined 223.69 799.55 0.89093 695.00 0.0014388 223.69 799.55 0.89093 2.0146 2.4023 2217.1 -0.0061110 545.82 0.26484 695.00 0.0014388 223.69 799.55 0.89093 2.0146 2.4023 2217.1 -0.0061110 545.82 0.26484
64.375 58267. undefined 225.70 803.74 0.89691 695.00 0.0014388 225.70 803.74 0.89691 2.0188 2.4060 2218.0 -0.0061015 545.13 0.26521 695.00 0.0014388 225.70 803.74 0.89691 2.0188 2.4060 2218.0 -0.0061015 545.13 0.26521
65.375 58486. undefined 227.72 807.94 0.90289 695.00 0.0014388 227.72 807.94 0.90289 2.0230 2.4097 2219.0 -0.0060920 544.44 0.26558 695.00 0.0014388 227.72 807.94 0.90289 2.0230 2.4097 2219.0 -0.0060920 544.44 0.26558
66.375 58705. undefined 229.75 812.13 0.90886 695.00 0.0014388 229.75 812.13 0.90886 2.0272 2.4133 2220.0 -0.0060826 543.76 0.26595 695.00 0.0014388 229.75 812.13 0.90886 2.0272 2.4133 2220.0 -0.0060826 543.76 0.26595
67.375 58924. undefined 231.78 816.33 0.91483 695.00 0.0014388 231.78 816.33 0.91483 2.0314 2.4170 2221.0 -0.0060731 543.09 0.26631 695.00 0.0014388 231.78 816.33 0.91483 2.0314 2.4170 2221.0 -0.0060731 543.09 0.26631
68.375 59142. undefined 233.81 820.53 0.92080 695.00 0.0014388 233.81 820.53 0.92080 2.0356 2.4207 2222.0 -0.0060637 542.42 0.26668 695.00 0.0014388 233.81 820.53 0.92080 2.0356 2.4207 2222.0 -0.0060637 542.42 0.26668
69.375 59360. undefined 235.85 824.73 0.92675 695.00 0.0014388 235.85 824.73 0.92675 2.0398 2.4244 2222.9 -0.0060543 541.76 0.26705 695.00 0.0014388 235.85 824.73 0.92675 2.0398 2.4244 2222.9 -0.0060543 541.76 0.26705
70.375 59578. undefined 237.89 828.93 0.93271 695.00 0.0014388 237.89 828.93 0.93271 2.0440 2.4281 2223.9 -0.0060449 541.10 0.26742 695.00 0.0014388 237.89 828.93 0.93271 2.0440 2.4281 2223.9 -0.0060449 541.10 0.26742
71.375 59795. undefined 239.94 833.13 0.93865 695.00 0.0014388 239.94 833.13 0.93865 2.0482 2.4319 2224.9 -0.0060356 540.45 0.26779 695.00 0.0014388 239.94 833.13 0.93865 2.0482 2.4319 2224.9 -0.0060356 540.45 0.26779
72.375 60012. undefined 241.99 837.34 0.94460 695.00 0.0014388 241.99 837.34 0.94460 2.0525 2.4356 2225.9 -0.0060262 539.81 0.26816 695.00 0.0014388 241.99 837.34 0.94460 2.0525 2.4356 2225.9 -0.0060262 539.81 0.26816
73.375 60229. undefined 244.04 841.54 0.95053 695.00 0.0014388 244.04 841.54 0.95053 2.0567 2.4393 2226.8 -0.0060169 539.17 0.26853 695.00 0.0014388 244.04 841.54 0.95053 2.0567 2.4393 2226.8 -0.0060169 539.17 0.26853
74.375 60445. undefined 246.10 845.75 0.95647 695.00 0.0014388 246.10 845.75 0.95647 2.0609 2.4430 2227.8 -0.0060076 538.53 0.26890 695.00 0.0014388 246.10 845.75 0.95647 2.0609 2.4430 2227.8 -0.0060076 538.53 0.26890
75.375 60661. undefined 248.16 849.95 0.96239 695.00 0.0014388 248.16 849.95 0.96239 2.0651 2.4467 2228.8 -0.0059983 537.91 0.26927 695.00 0.0014388 248.16 849.95 0.96239 2.0651 2.4467 2228.8 -0.0059983 537.91 0.26927
76.375 60877. undefined 250.23 854.16 0.96832 695.00 0.0014388 250.23 854.16 0.96832 2.0693 2.4505 2229.7 -0.0059890 537.28 0.26964 695.00 0.0014388 250.23 854.16 0.96832 2.0693 2.4505 2229.7 -0.0059890 537.28 0.26964
77.375 61093. undefined 252.30 858.37 0.97423 695.00 0.0014388 252.30 858.37 0.97423 2.0735 2.4542 2230.7 -0.0059798 536.67 0.27001 695.00 0.0014388 252.30 858.37 0.97423 2.0735 2.4542 2230.7 -0.0059798 536.67 0.27001
78.375 61308. undefined 254.38 862.58 0.98015 695.00 0.0014388 254.38 862.58 0.98015 2.0777 2.4579 2231.7 -0.0059705 536.05 0.27038 695.00 0.0014388 254.38 862.58 0.98015 2.0777 2.4579 2231.7 -0.0059705 536.05 0.27038
79.375 61523. undefined 256.46 866.80 0.98606 695.00 0.0014388 256.46 866.80 0.98606 2.0819 2.4617 2232.6 -0.0059613 535.45 0.27075 695.00 0.0014388 256.46 866.80 0.98606 2.0819 2.4617 2232.6 -0.0059613 535.45 0.27075
80.375 61737. undefined 258.54 871.01 0.99196 695.00 0.0014388 258.54 871.01 0.99196 2.0861 2.4654 2233.6 -0.0059521 534.85 0.27112 695.00 0.0014388 258.54 871.01 0.99196 2.0861 2.4654 2233.6 -0.0059521 534.85 0.27112
81.375 61952. undefined 260.63 875.22 0.99786 695.00 0.0014388 260.63 875.22 0.99786 2.0903 2.4692 2234.6 -0.0059430 534.25 0.27150 695.00 0.0014388 260.63 875.22 0.99786 2.0903 2.4692 2234.6 -0.0059430 534.25 0.27150
82.375 62166. undefined 262.72 879.44 1.0038 695.00 0.0014388 262.72 879.44 1.0038 2.0946 2.4729 2235.5 -0.0059338 533.66 0.27187 695.00 0.0014388 262.72 879.44 1.0038 2.0946 2.4729 2235.5 -0.0059338 533.66 0.27187
83.375 62380. undefined 264.82 883.66 1.0096 695.00 0.0014388 264.82 883.66 1.0096 2.0988 2.4766 2236.5 -0.0059247 533.07 0.27224 695.00 0.0014388 264.82 883.66 1.0096 2.0988 2.4766 2236.5 -0.0059247 533.07 0.27224
84.375 62593. undefined 266.92 887.88 1.0155 695.00 0.0014388 266.92 887.88 1.0155 2.1030 2.4804 2237.4 -0.0059156 532.49 0.27261 695.00 0.0014388 266.92 887.88 1.0155 2.1030 2.4804 2237.4 -0.0059156 532.49 0.27261
85.375 62806. undefined 269.03 892.10 1.0214 695.00 0.0014388 269.03 892.10 1.0214 2.1072 2.4841 2238.4 -0.0059065 531.92 0.27299 695.00 0.0014388 269.03 892.10 1.0214 2.1072 2.4841 2238.4 -0.0059065 531.92 0.27299
86.375 63019. undefined 271.13 896.32 1.0273 695.00 0.0014388 271.13 896.32 1.0273 2.1114 2.4879 2239.3 -0.0058975 531.35 0.27336 695.00 0.0014388 271.13 896.32 1.0273 2.1114 2.4879 2239.3 -0.0058975 531.35 0.27336
87.375 63232. undefined 273.25 900.54 1.0332 695.00 0.0014388 273.25 900.54 1.0332 2.1156 2.4917 2240.3 -0.0058884 530.78 0.27373 695.00 0.0014388 273.25 900.54 1.0332 2.1156 2.4917 2240.3 -0.0058884 530.78 0.27373
88.375 63444. undefined 275.37 904.77 1.0390 695.00 0.0014388 275.37 904.77 1.0390 2.1198 2.4954 2241.2 -0.0058794 530.22 0.27411 695.00 0.0014388 275.37 904.77 1.0390 2.1198 2.4954 2241.2 -0.0058794 530.22 0.27411
89.375 63657. undefined 277.49 908.99 1.0449 695.00 0.0014388 277.49 908.99 1.0449 2.1240 2.4992 2242.2 -0.0058704 529.66 0.27448 695.00 0.0014388 277.49 908.99 1.0449 2.1240 2.4992 2242.2 -0.0058704 529.66 0.27448
90.375 63868. undefined 279.61 913.22 1.0507 695.00 0.0014388 279.61 913.22 1.0507 2.1283 2.5029 2243.1 -0.0058614 529.11 0.27486 695.00 0.0014388 279.61 913.22 1.0507 2.1283 2.5029 2243.1 -0.0058614 529.11 0.27486
91.375 64080. undefined 281.74 917.45 1.0566 695.00 0.0014388 281.74 917.45 1.0566 2.1325 2.5067 2244.1 -0.0058525 528.56 0.27523 695.00 0.0014388 281.74 917.45 1.0566 2.1325 2.5067 2244.1 -0.0058525 528.56 0.27523
92.375 64291. undefined 283.88 921.68 1.0624 695.00 0.0014388 283.88 921.68 1.0624 2.1367 2.5105 2245.0 -0.0058436 528.02 0.27561 695.00 0.0014388 283.88 921.68 1.0624 2.1367 2.5105 2245.0 -0.0058436 528.02 0.27561
93.375 64502. undefined 286.02 925.91 1.0683 695.00 0.0014388 286.02 925.91 1.0683 2.1409 2.5142 2246.0 -0.0058347 527.48 0.27598 695.00 0.0014388 286.02 925.91 1.0683 2.1409 2.5142 2246.0 -0.0058347 527.48 0.27598
94.375 64713. undefined 288.16 930.15 1.0741 695.00 0.0014388 288.16 930.15 1.0741 2.1451 2.5180 2246.9 -0.0058258 526.95 0.27636 695.00 0.0014388 288.16 930.15 1.0741 2.1451 2.5180 2246.9 -0.0058258 526.95 0.27636
95.375 64923. undefined 290.31 934.38 1.0800 695.00 0.0014388 290.31 934.38 1.0800 2.1493 2.5218 2247.9 -0.0058169 526.42 0.27673 695.00 0.0014388 290.31 934.38 1.0800 2.1493 2.5218 2247.9 -0.0058169 526.42 0.27673
96.375 65133. undefined 292.46 938.62 1.0858 695.00 0.0014388 292.46 938.62 1.0858 2.1535 2.5255 2248.8 -0.0058081 525.90 0.27711 695.00 0.0014388 292.46 938.62 1.0858 2.1535 2.5255 2248.8 -0.0058081 525.90 0.27711
97.375 65343. undefined 294.61 942.85 1.0916 695.00 0.0014388 294.61 942.85 1.0916 2.1577 2.5293 2249.7 -0.0057993 525.38 0.27749 695.00 0.0014388 294.61 942.85 1.0916 2.1577 2.5293 2249.7 -0.0057993 525.38 0.27749
98.375 65553. undefined 296.77 947.09 1.0974 695.00 0.0014388 296.77 947.09 1.0974 2.1619 2.5331 2250.7 -0.0057905 524.86 0.27786 695.00 0.0014388 296.77 947.09 1.0974 2.1619 2.5331 2250.7 -0.0057905 524.86 0.27786
99.375 65762. undefined 298.94 951.33 1.1032 695.00 0.0014388 298.94 951.33 1.1032 2.1661 2.5369 2251.6 -0.0057817 524.35 0.27824 695.00 0.0014388 298.94 951.33 1.1032 2.1661 2.5369 2251.6 -0.0057817 524.35 0.27824
100.38 65971. undefined 301.11 955.58 1.1091 695.00 0.0014388 301.11 955.58 1.1091 2.1703 2.5406 2252.6 -0.0057730 523.84 0.27862 695.00 0.0014388 301.11 955.58 1.1091 2.1703 2.5406 2252.6 -0.0057730 523.84 0.27862
101.38 66180. undefined 303.28 959.82 1.1149 695.00 0.0014388 303.28 959.82 1.1149 2.1745 2.5444 2253.5 -0.0057643 523.34 0.27900 695.00 0.0014388 303.28 959.82 1.1149 2.1745 2.5444 2253.5 -0.0057643 523.34 0.27900
102.38 66389. undefined 305.46 964.07 1.1207 695.00 0.0014388 305.46 964.07 1.1207 2.1787 2.5482 2254.4 -0.0057556 522.84 0.27938 695.00 0.0014388 305.46 964.07 1.1207 2.1787 2.5482 2254.4 -0.0057556 522.84 0.27938
103.38 66597. undefined 307.64 968.31 1.1265 695.00 0.0014388 307.64 968.31 1.1265 2.1829 2.5520 2255.4 -0.0057469 522.34 0.27975 695.00 0.0014388 307.64 968.31 1.1265 2.1829 2.5520 2255.4 -0.0057469 522.34 0.27975
104.38 66805. undefined 309.82 972.56 1.1323 695.00 0.0014388 309.82 972.56 1.1323 2.1871 2.5557 2256.3 -0.0057382 521.85 0.28013 695.00 0.0014388 309.82 972.56 1.1323 2.1871 2.5557 2256.3 -0.0057382 521.85 0.28013
105.38 67013. undefined 312.01 976.81 1.1381 695.00 0.0014388 312.01 976.81 1.1381 2.1913 2.5595 2257.2 -0.0057296 521.37 0.28051 695.00 0.0014388 312.01 976.81 1.1381 2.1913 2.5595 2257.2 -0.0057296 521.37 0.28051
106.38 67220. undefined 314.20 981.07 1.1438 695.00 0.0014388 314.20 981.07 1.1438 2.1955 2.5633 2258.1 -0.0057210 520.88 0.28089 695.00 0.0014388 314.20 981.07 1.1438 2.1955 2.5633 2258.1 -0.0057210 520.88 0.28089
107.38 67428. undefined 316.40 985.32 1.1496 695.00 0.0014388 316.40 985.32 1.1496 2.1997 2.5671 2259.1 -0.0057125 520.40 0.28127 695.00 0.0014388 316.40 985.32 1.1496 2.1997 2.5671 2259.1 -0.0057125 520.40 0.28127
108.38 67635. undefined 318.60 989.57 1.1554 695.00 0.0014388 318.60 989.57 1.1554 2.2039 2.5708 2260.0 -0.0057039 519.93 0.28165 695.00 0.0014388 318.60 989.57 1.1554 2.2039 2.5708 2260.0 -0.0057039 519.93 0.28165
109.38 67841. undefined 320.81 993.83 1.1612 695.00 0.0014388 320.81 993.83 1.1612 2.2081 2.5746 2260.9 -0.0056954 519.46 0.28203 695.00 0.0014388 320.81 993.83 1.1612 2.2081 2.5746 2260.9 -0.0056954 519.46 0.28203
110.38 68048. undefined 323.02 998.09 1.1669 695.00 0.0014388 323.02 998.09 1.1669 2.2122 2.5784 2261.8 -0.0056869 518.99 0.28241 695.00 0.0014388 323.02 998.09 1.1669 2.2122 2.5784 2261.8 -0.0056869 518.99 0.28241
111.38 68254. undefined 325.23 1002.3 1.1727 695.00 0.0014388 325.23 1002.3 1.1727 2.2164 2.5822 2262.8 -0.0056784 518.53 0.28279 695.00 0.0014388 325.23 1002.3 1.1727 2.2164 2.5822 2262.8 -0.0056784 518.53 0.28279
112.38 68460. undefined 327.45 1006.6 1.1785 695.00 0.0014388 327.45 1006.6 1.1785 2.2206 2.5859 2263.7 -0.0056700 518.07 0.28317 695.00 0.0014388 327.45 1006.6 1.1785 2.2206 2.5859 2263.7 -0.0056700 518.07 0.28317
113.38 68666. undefined 329.68 1010.9 1.1842 695.00 0.0014388 329.68 1010.9 1.1842 2.2248 2.5897 2264.6 -0.0056615 517.61 0.28355 695.00 0.0014388 329.68 1010.9 1.1842 2.2248 2.5897 2264.6 -0.0056615 517.61 0.28355
114.38 68871. undefined 331.90 1015.1 1.1900 695.00 0.0014388 331.90 1015.1 1.1900 2.2290 2.5935 2265.5 -0.0056531 517.16 0.28394 695.00 0.0014388 331.90 1015.1 1.1900 2.2290 2.5935 2265.5 -0.0056531 517.16 0.28394
115.38 69076. undefined 334.13 1019.4 1.1957 695.00 0.0014388 334.13 1019.4 1.1957 2.2331 2.5973 2266.4 -0.0056448 516.71 0.28432 695.00 0.0014388 334.13 1019.4 1.1957 2.2331 2.5973 2266.4 -0.0056448 516.71 0.28432
116.38 69281. undefined 336.37 1023.7 1.2015 695.00 0.0014388 336.37 1023.7 1.2015 2.2373 2.6010 2267.4 -0.0056364 516.26 0.28470 695.00 0.0014388 336.37 1023.7 1.2015 2.2373 2.6010 2267.4 -0.0056364 516.26 0.28470
117.38 69486. undefined 338.61 1027.9 1.2072 695.00 0.0014388 338.61 1027.9 1.2072 2.2415 2.6048 2268.3 -0.0056281 515.82 0.28508 695.00 0.0014388 338.61 1027.9 1.2072 2.2415 2.6048 2268.3 -0.0056281 515.82 0.28508
118.38 69691. undefined 340.85 1032.2 1.2130 695.00 0.0014388 340.85 1032.2 1.2130 2.2456 2.6086 2269.2 -0.0056198 515.38 0.28547 695.00 0.0014388 340.85 1032.2 1.2130 2.2456 2.6086 2269.2 -0.0056198 515.38 0.28547
119.38 69895. undefined 343.10 1036.5 1.2187 695.00 0.0014388 343.10 1036.5 1.2187 2.2498 2.6124 2270.1 -0.0056115 514.95 0.28585 695.00 0.0014388 343.10 1036.5 1.2187 2.2498 2.6124 2270.1 -0.0056115 514.95 0.28585
120.38 70099. undefined 345.35 1040.8 1.2244 695.00 0.0014388 345.35 1040.8 1.2244 2.2540 2.6161 2271.0 -0.0056033 514.52 0.28623 695.00 0.0014388 345.35 1040.8 1.2244 2.2540 2.6161 2271.0 -0.0056033 514.52 0.28623
121.38 70302. undefined 347.61 1045.0 1.2302 695.00 0.0014388 347.61 1045.0 1.2302 2.2581 2.6199 2271.9 -0.0055950 514.09 0.28662 695.00 0.0014388 347.61 1045.0 1.2302 2.2581 2.6199 2271.9 -0.0055950 514.09 0.28662
122.38 70506. undefined 349.87 1049.3 1.2359 695.00 0.0014388 349.87 1049.3 1.2359 2.2623 2.6237 2272.8 -0.0055868 513.66 0.28700 695.00 0.0014388 349.87 1049.3 1.2359 2.2623 2.6237 2272.8 -0.0055868 513.66 0.28700
123.38 70709. undefined 352.13 1053.6 1.2416 695.00 0.0014388 352.13 1053.6 1.2416 2.2665 2.6275 2273.8 -0.0055787 513.24 0.28738 695.00 0.0014388 352.13 1053.6 1.2416 2.2665 2.6275 2273.8 -0.0055787 513.24 0.28738
124.38 70912. undefined 354.40 1057.9 1.2473 695.00 0.0014388 354.40 1057.9 1.2473 2.2706 2.6312 2274.7 -0.0055705 512.82 0.28777 695.00 0.0014388 354.40 1057.9 1.2473 2.2706 2.6312 2274.7 -0.0055705 512.82 0.28777
125.38 71115. undefined 356.67 1062.2 1.2530 695.00 0.0014388 356.67 1062.2 1.2530 2.2748 2.6350 2275.6 -0.0055624 512.41 0.28815 695.00 0.0014388 356.67 1062.2 1.2530 2.2748 2.6350 2275.6 -0.0055624 512.41 0.28815
126.38 71317. undefined 358.95 1066.5 1.2587 695.00 0.0014388 358.95 1066.5 1.2587 2.2789 2.6388 2276.5 -0.0055543 512.00 0.28854 695.00 0.0014388 358.95 1066.5 1.2587 2.2789 2.6388 2276.5 -0.0055543 512.00 0.28854
127.38 71520. undefined 361.23 1070.7 1.2644 695.00 0.0014388 361.23 1070.7 1.2644 2.2830 2.6425 2277.4 -0.0055462 511.59 0.28892 695.00 0.0014388 361.23 1070.7 1.2644 2.2830 2.6425 2277.4 -0.0055462 511.59 0.28892
128.38 71722. undefined 363.52 1075.0 1.2701 695.00 0.0014388 363.52 1075.0 1.2701 2.2872 2.6463 2278.3 -0.0055382 511.18 0.28931 695.00 0.0014388 363.52 1075.0 1.2701 2.2872 2.6463 2278.3 -0.0055382 511.18 0.28931
129.38 71923. undefined 365.81 1079.3 1.2758 695.00 0.0014388 365.81 1079.3 1.2758 2.2913 2.6501 2279.2 -0.0055301 510.78 0.28970 695.00 0.0014388 365.81 1079.3 1.2758 2.2913 2.6501 2279.2 -0.0055301 510.78 0.28970
130.38 72125. undefined 368.10 1083.6 1.2815 695.00 0.0014388 368.10 1083.6 1.2815 2.2955 2.6538 2280.1 -0.0055221 510.38 0.29008 695.00 0.0014388 368.10 1083.6 1.2815 2.2955 2.6538 2280.1 -0.0055221 510.38 0.29008
131.38 72326. undefined 370.40 1087.9 1.2872 695.00 0.0014388 370.40 1087.9 1.2872 2.2996 2.6576 2281.0 -0.0055142 509.98 0.29047 695.00 0.0014388 370.40 1087.9 1.2872 2.2996 2.6576 2281.0 -0.0055142 509.98 0.29047
132.38 72527. undefined 372.70 1092.2 1.2929 695.00 0.0014388 372.70 1092.2 1.2929 2.3037 2.6613 2281.9 -0.0055062 509.59 0.29086 695.00 0.0014388 372.70 1092.2 1.2929 2.3037 2.6613 2281.9 -0.0055062 509.59 0.29086
133.38 72728. undefined 375.00 1096.5 1.2986 695.00 0.0014388 375.00 1096.5 1.2986 2.3078 2.6651 2282.8 -0.0054983 509.20 0.29124 695.00 0.0014388 375.00 1096.5 1.2986 2.3078 2.6651 2282.8 -0.0054983 509.20 0.29124
134.38 72929. undefined 377.31 1100.8 1.3042 695.00 0.0014388 377.31 1100.8 1.3042 2.3120 2.6688 2283.7 -0.0054904 508.81 0.29163 695.00 0.0014388 377.31 1100.8 1.3042 2.3120 2.6688 2283.7 -0.0054904 508.81 0.29163
135.38 73129. undefined 379.63 1105.1 1.3099 695.00 0.0014388 379.63 1105.1 1.3099 2.3161 2.6726 2284.6 -0.0054825 508.43 0.29202 695.00 0.0014388 379.63 1105.1 1.3099 2.3161 2.6726 2284.6 -0.0054825 508.43 0.29202
136.38 73329. undefined 381.95 1109.4 1.3156 695.00 0.0014388 381.95 1109.4 1.3156 2.3202 2.6763 2285.5 -0.0054747 508.05 0.29241 695.00 0.0014388 381.95 1109.4 1.3156 2.3202 2.6763 2285.5 -0.0054747 508.05 0.29241
137.38 73529. undefined 384.27 1113.7 1.3212 695.00 0.0014388 384.27 1113.7 1.3212 2.3243 2.6801 2286.4 -0.0054669 507.67 0.29280 695.00 0.0014388 384.27 1113.7 1.3212 2.3243 2.6801 2286.4 -0.0054669 507.67 0.29280
138.38 73729. undefined 386.59 1118.0 1.3269 695.00 0.0014388 386.59 1118.0 1.3269 2.3284 2.6838 2287.3 -0.0054591 507.29 0.29318 695.00 0.0014388 386.59 1118.0 1.3269 2.3284 2.6838 2287.3 -0.0054591 507.29 0.29318
139.38 73929. undefined 388.92 1122.3 1.3325 695.00 0.0014388 388.92 1122.3 1.3325 2.3325 2.6876 2288.2 -0.0054513 506.92 0.29357 695.00 0.0014388 388.92 1122.3 1.3325 2.3325 2.6876 2288.2 -0.0054513 506.92 0.29357
140.38 74128. undefined 391.26 1126.6 1.3382 695.00 0.0014388 391.26 1126.6 1.3382 2.3366 2.6913 2289.1 -0.0054436 506.55 0.29396 695.00 0.0014388 391.26 1126.6 1.3382 2.3366 2.6913 2289.1 -0.0054436 506.55 0.29396
141.38 74327. undefined 393.60 1131.0 1.3438 695.00 0.0014388 393.60 1131.0 1.3438 2.3407 2.6951 2290.0 -0.0054358 506.18 0.29435 695.00 0.0014388 393.60 1131.0 1.3438 2.3407 2.6951 2290.0 -0.0054358 506.18 0.29435
142.38 74526. undefined 395.94 1135.3 1.3495 695.00 0.0014388 395.94 1135.3 1.3495 2.3448 2.6988 2290.9 -0.0054281 505.82 0.29474 695.00 0.0014388 395.94 1135.3 1.3495 2.3448 2.6988 2290.9 -0.0054281 505.82 0.29474
143.38 74724. undefined 398.29 1139.6 1.3551 695.00 0.0014388 398.29 1139.6 1.3551 2.3489 2.7026 2291.7 -0.0054205 505.46 0.29513 695.00 0.0014388 398.29 1139.6 1.3551 2.3489 2.7026 2291.7 -0.0054205 505.46 0.29513
144.38 74922. undefined 400.64 1143.9 1.3608 695.00 0.0014388 400.64 1143.9 1.3608 2.3530 2.7063 2292.6 -0.0054128 505.10 0.29552 695.00 0.0014388 400.64 1143.9 1.3608 2.3530 2.7063 2292.6 -0.0054128 505.10 0.29552
145.38 75121. undefined 402.99 1148.2 1.3664 695.00 0.0014388 402.99 1148.2 1.3664 2.3571 2.7100 2293.5 -0.0054052 504.74 0.29591 695.00 0.0014388 402.99 1148.2 1.3664 2.3571 2.7100 2293.5 -0.0054052 504.74 0.29591
146.38 75318. undefined 405.35 1152.6 1.3720 695.00 0.0014388 405.35 1152.6 1.3720 2.3612 2.7138 2294.4 -0.0053976 504.39 0.29630 695.00 0.0014388 405.35 1152.6 1.3720 2.3612 2.7138 2294.4 -0.0053976 504.39 0.29630
147.38 75516. undefined 407.72 1156.9 1.3777 695.00 0.0014388 407.72 1156.9 1.3777 2.3652 2.7175 2295.3 -0.0053901 504.04 0.29670 695.00 0.0014388 407.72 1156.9 1.3777 2.3652 2.7175 2295.3 -0.0053901 504.04 0.29670
148.38 75714. undefined 410.08 1161.2 1.3833 695.00 0.0014388 410.08 1161.2 1.3833 2.3693 2.7212 2296.2 -0.0053825 503.69 0.29709 695.00 0.0014388 410.08 1161.2 1.3833 2.3693 2.7212 2296.2 -0.0053825 503.69 0.29709
149.38 75911. undefined 412.45 1165.5 1.3889 695.00 0.0014388 412.45 1165.5 1.3889 2.3734 2.7249 2297.1 -0.0053750 503.35 0.29748 695.00 0.0014388 412.45 1165.5 1.3889 2.3734 2.7249 2297.1 -0.0053750 503.35 0.29748
150.38 76108. undefined 414.83 1169.9 1.3945 695.00 0.0014388 414.83 1169.9 1.3945 2.3774 2.7287 2298.0 -0.0053675 503.00 0.29787 695.00 0.0014388 414.83 1169.9 1.3945 2.3774 2.7287 2298.0 -0.0053675 503.00 0.29787
151.38 76305. undefined 417.21 1174.2 1.4001 695.00 0.0014388 417.21 1174.2 1.4001 2.3815 2.7324 2298.8 -0.0053600 502.66 0.29826 695.00 0.0014388 417.21 1174.2 1.4001 2.3815 2.7324 2298.8 -0.0053600 502.66 0.29826
152.38 76501. undefined 419.59 1178.5 1.4057 695.00 0.0014388 419.59 1178.5 1.4057 2.3856 2.7361 2299.7 -0.0053526 502.32 0.29866 695.00 0.0014388 419.59 1178.5 1.4057 2.3856 2.7361 2299.7 -0.0053526 502.32 0.29866
153.38 76698. undefined 421.98 1182.9 1.4113 695.00 0.0014388 421.98 1182.9 1.4113 2.3896 2.7398 2300.6 -0.0053452 501.99 0.29905 695.00 0.0014388 421.98 1182.9 1.4113 2.3896 2.7398 2300.6 -0.0053452 501.99 0.29905
154.38 76894. undefined 424.37 1187.2 1.4169 695.00 0.0014388 424.37 1187.2 1.4169 2.3937 2.7435 2301.5 -0.0053378 501.66 0.29944 695.00 0.0014388 424.37 1187.2 1.4169 2.3937 2.7435 2301.5 -0.0053378 501.66 0.29944
155.38 77090. undefined 426.77 1191.5 1.4225 695.00 0.0014388 426.77 1191.5 1.4225 2.3977 2.7472 2302.4 -0.0053304 501.32 0.29984 695.00 0.0014388 426.77 1191.5 1.4225 2.3977 2.7472 2302.4 -0.0053304 501.32 0.29984
156.38 77285. undefined 429.17 1195.9 1.4281 695.00 0.0014388 429.17 1195.9 1.4281 2.4018 2.7509 2303.2 -0.0053231 501.00 0.30023 695.00 0.0014388 429.17 1195.9 1.4281 2.4018 2.7509 2303.2 -0.0053231 501.00 0.30023
157.38 77481. undefined 431.57 1200.2 1.4337 695.00 0.0014388 431.57 1200.2 1.4337 2.4058 2.7547 2304.1 -0.0053158 500.67 0.30062 695.00 0.0014388 431.57 1200.2 1.4337 2.4058 2.7547 2304.1 -0.0053158 500.67 0.30062
158.38 77676. undefined 433.98 1204.6 1.4393 695.00 0.0014388 433.98 1204.6 1.4393 2.4098 2.7584 2305.0 -0.0053085 500.35 0.30102 695.00 0.0014388 433.98 1204.6 1.4393 2.4098 2.7584 2305.0 -0.0053085 500.35 0.30102
159.38 77871. undefined 436.39 1208.9 1.4449 695.00 0.0014388 436.39 1208.9 1.4449 2.4139 2.7621 2305.9 -0.0053012 500.03 0.30141 695.00 0.0014388 436.39 1208.9 1.4449 2.4139 2.7621 2305.9 -0.0053012 500.03 0.30141
160.38 78066. undefined 438.81 1213.3 1.4505 695.00 0.0014388 438.81 1213.3 1.4505 2.4179 2.7657 2306.7 -0.0052940 499.71 0.30181 695.00 0.0014388 438.81 1213.3 1.4505 2.4179 2.7657 2306.7 -0.0052940 499.71 0.30181
161.38 78261. undefined 441.23 1217.6 1.4560 695.00 0.0014388 441.23 1217.6 1.4560 2.4219 2.7694 2307.6 -0.0052867 499.39 0.30220 695.00 0.0014388 441.23 1217.6 1.4560 2.4219 2.7694 2307.6 -0.0052867 499.39 0.30220
162.38 78455. undefined 443.65 1222.0 1.4616 695.00 0.0014388 443.65 1222.0 1.4616 2.4259 2.7731 2308.5 -0.0052795 499.08 0.30260 695.00 0.0014388 443.65 1222.0 1.4616 2.4259 2.7731 2308.5 -0.0052795 499.08 0.30260
163.38 78649. undefined 446.08 1226.3 1.4672 695.00 0.0014388 446.08 1226.3 1.4672 2.4299 2.7768 2309.4 -0.0052724 498.76 0.30300 695.00 0.0014388 446.08 1226.3 1.4672 2.4299 2.7768 2309.4 -0.0052724 498.76 0.30300
164.38 78843. undefined 448.51 1230.7 1.4728 695.00 0.0014388 448.51 1230.7 1.4728 2.4339 2.7805 2310.2 -0.0052652 498.45 0.30339 695.00 0.0014388 448.51 1230.7 1.4728 2.4339 2.7805 2310.2 -0.0052652 498.45 0.30339
165.38 79037. undefined 450.95 1235.0 1.4783 695.00 0.0014388 450.95 1235.0 1.4783 2.4379 2.7842 2311.1 -0.0052581 498.15 0.30379 695.00 0.0014388 450.95 1235.0 1.4783 2.4379 2.7842 2311.1 -0.0052581 498.15 0.30379
166.38 79231. undefined 453.39 1239.4 1.4839 695.00 0.0014388 453.39 1239.4 1.4839 2.4419 2.7879 2312.0 -0.0052510 497.84 0.30419 695.00 0.0014388 453.39 1239.4 1.4839 2.4419 2.7879 2312.0 -0.0052510 497.84 0.30419
167.38 79424. undefined 455.83 1243.8 1.4894 695.00 0.0014388 455.83 1243.8 1.4894 2.4459 2.7915 2312.8 -0.0052439 497.54 0.30458 695.00 0.0014388 455.83 1243.8 1.4894 2.4459 2.7915 2312.8 -0.0052439 497.54 0.30458
168.38 79617. undefined 458.28 1248.1 1.4950 695.00 0.0014388 458.28 1248.1 1.4950 2.4499 2.7952 2313.7 -0.0052369 497.24 0.30498 695.00 0.0014388 458.28 1248.1 1.4950 2.4499 2.7952 2313.7 -0.0052369 497.24 0.30498
169.38 79810. undefined 460.73 1252.5 1.5005 695.00 0.0014388 460.73 1252.5 1.5005 2.4539 2.7989 2314.6 -0.0052299 496.94 0.30538 695.00 0.0014388 460.73 1252.5 1.5005 2.4539 2.7989 2314.6 -0.0052299 496.94 0.30538
170.38 80003. undefined 463.19 1256.9 1.5061 695.00 0.0014388 463.19 1256.9 1.5061 2.4579 2.8025 2315.4 -0.0052229 496.64 0.30578 695.00 0.0014388 463.19 1256.9 1.5061 2.4579 2.8025 2315.4 -0.0052229 496.64 0.30578
171.38 80196. undefined 465.65 1261.2 1.5116 695.00 0.0014388 465.65 1261.2 1.5116 2.4619 2.8062 2316.3 -0.0052159 496.35 0.30617 695.00 0.0014388 465.65 1261.2 1.5116 2.4619 2.8062 2316.3 -0.0052159 496.35 0.30617
172.38 80388. undefined 468.11 1265.6 1.5171 695.00 0.0014388 468.11 1265.6 1.5171 2.4659 2.8099 2317.2 -0.0052089 496.05 0.30657 695.00 0.0014388 468.11 1265.6 1.5171 2.4659 2.8099 2317.2 -0.0052089 496.05 0.30657
173.38 80580. undefined 470.58 1270.0 1.5227 695.00 0.0014388 470.58 1270.0 1.5227 2.4698 2.8135 2318.0 -0.0052020 495.76 0.30697 695.00 0.0014388 470.58 1270.0 1.5227 2.4698 2.8135 2318.0 -0.0052020 495.76 0.30697
174.38 80772. undefined 473.05 1274.4 1.5282 695.00 0.0014388 473.05 1274.4 1.5282 2.4738 2.8172 2318.9 -0.0051951 495.48 0.30737 695.00 0.0014388 473.05 1274.4 1.5282 2.4738 2.8172 2318.9 -0.0051951 495.48 0.30737
175.38 80964. undefined 475.53 1278.7 1.5337 695.00 0.0014388 475.53 1278.7 1.5337 2.4777 2.8208 2319.8 -0.0051882 495.19 0.30777 695.00 0.0014388 475.53 1278.7 1.5337 2.4777 2.8208 2319.8 -0.0051882 495.19 0.30777
176.38 81155. undefined 478.01 1283.1 1.5393 695.00 0.0014388 478.01 1283.1 1.5393 2.4817 2.8245 2320.6 -0.0051814 494.91 0.30817 695.00 0.0014388 478.01 1283.1 1.5393 2.4817 2.8245 2320.6 -0.0051814 494.91 0.30817
177.38 81347. undefined 480.49 1287.5 1.5448 695.00 0.0014388 480.49 1287.5 1.5448 2.4856 2.8281 2321.5 -0.0051745 494.62 0.30857 695.00 0.0014388 480.49 1287.5 1.5448 2.4856 2.8281 2321.5 -0.0051745 494.62 0.30857
178.38 81538. undefined 482.98 1291.9 1.5503 695.00 0.0014388 482.98 1291.9 1.5503 2.4896 2.8317 2322.3 -0.0051677 494.34 0.30897 695.00 0.0014388 482.98 1291.9 1.5503 2.4896 2.8317 2322.3 -0.0051677 494.34 0.30897
179.38 81729. undefined 485.47 1296.3 1.5558 695.00 0.0014388 485.47 1296.3 1.5558 2.4935 2.8354 2323.2 -0.0051609 494.06 0.30937 695.00 0.0014388 485.47 1296.3 1.5558 2.4935 2.8354 2323.2 -0.0051609 494.06 0.30937
180.38 81920. undefined 487.96 1300.6 1.5613 695.00 0.0014388 487.96 1300.6 1.5613 2.4975 2.8390 2324.1 -0.0051542 493.79 0.30977 695.00 0.0014388 487.96 1300.6 1.5613 2.4975 2.8390 2324.1 -0.0051542 493.79 0.30977
181.38 82110. undefined 490.46 1305.0 1.5668 695.00 0.0014388 490.46 1305.0 1.5668 2.5014 2.8426 2324.9 -0.0051474 493.51 0.31017 695.00 0.0014388 490.46 1305.0 1.5668 2.5014 2.8426 2324.9 -0.0051474 493.51 0.31017
182.38 82301. undefined 492.97 1309.4 1.5723 695.00 0.0014388 492.97 1309.4 1.5723 2.5053 2.8463 2325.8 -0.0051407 493.24 0.31057 695.00 0.0014388 492.97 1309.4 1.5723 2.5053 2.8463 2325.8 -0.0051407 493.24 0.31057
183.38 82491. undefined 495.47 1313.8 1.5778 695.00 0.0014388 495.47 1313.8 1.5778 2.5093 2.8499 2326.6 -0.0051340 492.97 0.31098 695.00 0.0014388 495.47 1313.8 1.5778 2.5093 2.8499 2326.6 -0.0051340 492.97 0.31098
184.38 82681. undefined 497.98 1318.2 1.5833 695.00 0.0014388 497.98 1318.2 1.5833 2.5132 2.8535 2327.5 -0.0051274 492.70 0.31138 695.00 0.0014388 497.98 1318.2 1.5833 2.5132 2.8535 2327.5 -0.0051274 492.70 0.31138
185.38 82871. undefined 500.50 1322.6 1.5888 695.00 0.0014388 500.50 1322.6 1.5888 2.5171 2.8571 2328.3 -0.0051207 492.43 0.31178 695.00 0.0014388 500.50 1322.6 1.5888 2.5171 2.8571 2328.3 -0.0051207 492.43 0.31178
186.38 83060. undefined 503.02 1327.0 1.5943 695.00 0.0014388 503.02 1327.0 1.5943 2.5210 2.8607 2329.2 -0.0051141 492.17 0.31218 695.00 0.0014388 503.02 1327.0 1.5943 2.5210 2.8607 2329.2 -0.0051141 492.17 0.31218
187.38 83250. undefined 505.54 1331.4 1.5998 695.00 0.0014388 505.54 1331.4 1.5998 2.5249 2.8643 2330.0 -0.0051075 491.91 0.31259 695.00 0.0014388 505.54 1331.4 1.5998 2.5249 2.8643 2330.0 -0.0051075 491.91 0.31259
188.38 83439. undefined 508.07 1335.8 1.6053 695.00 0.0014388 508.07 1335.8 1.6053 2.5288 2.8679 2330.9 -0.0051009 491.64 0.31299 695.00 0.0014388 508.07 1335.8 1.6053 2.5288 2.8679 2330.9 -0.0051009 491.64 0.31299
189.38 83628. undefined 510.60 1340.2 1.6107 695.00 0.0014388 510.60 1340.2 1.6107 2.5327 2.8715 2331.7 -0.0050944 491.38 0.31339 695.00 0.0014388 510.60 1340.2 1.6107 2.5327 2.8715 2331.7 -0.0050944 491.38 0.31339
190.38 83817. undefined 513.13 1344.6 1.6162 695.00 0.0014388 513.13 1344.6 1.6162 2.5366 2.8751 2332.6 -0.0050878 491.13 0.31380 695.00 0.0014388 513.13 1344.6 1.6162 2.5366 2.8751 2332.6 -0.0050878 491.13 0.31380
191.38 84005. undefined 515.67 1349.0 1.6217 695.00 0.0014388 515.67 1349.0 1.6217 2.5405 2.8787 2333.4 -0.0050813 490.87 0.31420 695.00 0.0014388 515.67 1349.0 1.6217 2.5405 2.8787 2333.4 -0.0050813 490.87 0.31420
192.38 84194. undefined 518.22 1353.5 1.6271 695.00 0.0014388 518.22 1353.5 1.6271 2.5443 2.8823 2334.3 -0.0050748 490.62 0.31461 695.00 0.0014388 518.22 1353.5 1.6271 2.5443 2.8823 2334.3 -0.0050748 490.62 0.31461
193.38 84382. undefined 520.76 1357.9 1.6326 695.00 0.0014388 520.76 1357.9 1.6326 2.5482 2.8859 2335.1 -0.0050684 490.36 0.31501 695.00 0.0014388 520.76 1357.9 1.6326 2.5482 2.8859 2335.1 -0.0050684 490.36 0.31501
194.38 84570. undefined 523.31 1362.3 1.6381 695.00 0.0014388 523.31 1362.3 1.6381 2.5521 2.8895 2336.0 -0.0050619 490.11 0.31542 695.00 0.0014388 523.31 1362.3 1.6381 2.5521 2.8895 2336.0 -0.0050619 490.11 0.31542
195.38 84758. undefined 525.87 1366.7 1.6435 695.00 0.0014388 525.87 1366.7 1.6435 2.5560 2.8931 2336.8 -0.0050555 489.86 0.31582 695.00 0.0014388 525.87 1366.7 1.6435 2.5560 2.8931 2336.8 -0.0050555 489.86 0.31582
196.38 84946. undefined 528.42 1371.1 1.6490 695.00 0.0014388 528.42 1371.1 1.6490 2.5598 2.8966 2337.7 -0.0050491 489.62 0.31623 695.00 0.0014388 528.42 1371.1 1.6490 2.5598 2.8966 2337.7 -0.0050491 489.62 0.31623
197.38 85133. undefined 530.99 1375.6 1.6544 695.00 0.0014388 530.99 1375.6 1.6544 2.5637 2.9002 2338.5 -0.0050428 489.37 0.31663 695.00 0.0014388 530.99 1375.6 1.6544 2.5637 2.9002 2338.5 -0.0050428 489.37 0.31663
198.38 85321. undefined 533.55 1380.0 1.6599 695.00 0.0014388 533.55 1380.0 1.6599 2.5675 2.9038 2339.4 -0.0050364 489.13 0.31704 695.00 0.0014388 533.55 1380.0 1.6599 2.5675 2.9038 2339.4 -0.0050364 489.13 0.31704
199.38 85508. undefined 536.12 1384.4 1.6653 695.00 0.0014388 536.12 1384.4 1.6653 2.5714 2.9073 2340.2 -0.0050301 488.88 0.31745 695.00 0.0014388 536.12 1384.4 1.6653 2.5714 2.9073 2340.2 -0.0050301 488.88 0.31745
200.38 85695. undefined 538.69 1388.8 1.6708 695.00 0.0014388 538.69 1388.8 1.6708 2.5752 2.9109 2341.0 -0.0050238 488.64 0.31785 695.00 0.0014388 538.69 1388.8 1.6708 2.5752 2.9109 2341.0 -0.0050238 488.64 0.31785
201.38 85882. undefined 541.27 1393.3 1.6762 695.00 0.0014388 541.27 1393.3 1.6762 2.5790 2.9144 2341.9 -0.0050175 488.40 0.31826 695.00 0.0014388 541.27 1393.3 1.6762 2.5790 2.9144 2341.9 -0.0050175 488.40 0.31826
202.38 86068. undefined 543.85 1397.7 1.6816 695.00 0.0014388 543.85 1397.7 1.6816 2.5829 2.9180 2342.7 -0.0050112 488.16 0.31867 695.00 0.0014388 543.85 1397.7 1.6816 2.5829 2.9180 2342.7 -0.0050112 488.16 0.31867
203.38 86255. undefined 546.44 1402.1 1.6871 695.00 0.0014388 546.44 1402.1 1.6871 2.5867 2.9215 2343.6 -0.0050050 487.93 0.31907 695.00 0.0014388 546.44 1402.1 1.6871 2.5867 2.9215 2343.6 -0.0050050 487.93 0.31907
204.38 86441. undefined 549.02 1406.6 1.6925 695.00 0.0014388 549.02 1406.6 1.6925 2.5905 2.9251 2344.4 -0.0049988 487.69 0.31948 695.00 0.0014388 549.02 1406.6 1.6925 2.5905 2.9251 2344.4 -0.0049988 487.69 0.31948
205.38 86627. undefined 551.62 1411.0 1.6979 695.00 0.0014388 551.62 1411.0 1.6979 2.5943 2.9286 2345.2 -0.0049926 487.46 0.31989 695.00 0.0014388 551.62 1411.0 1.6979 2.5943 2.9286 2345.2 -0.0049926 487.46 0.31989
206.38 86813. undefined 554.21 1415.4 1.7033 695.00 0.0014388 554.21 1415.4 1.7033 2.5981 2.9322 2346.1 -0.0049864 487.23 0.32030 695.00 0.0014388 554.21 1415.4 1.7033 2.5981 2.9322 2346.1 -0.0049864 487.23 0.32030
207.38 86999. undefined 556.81 1419.9 1.7087 695.00 0.0014388 556.81 1419.9 1.7087 2.6020 2.9357 2346.9 -0.0049803 487.00 0.32071 695.00 0.0014388 556.81 1419.9 1.7087 2.6020 2.9357 2346.9 -0.0049803 487.00 0.32071
208.38 87184. undefined 559.42 1424.3 1.7142 695.00 0.0014388 559.42 1424.3 1.7142 2.6058 2.9392 2347.7 -0.0049741 486.77 0.32112 695.00 0.0014388 559.42 1424.3 1.7142 2.6058 2.9392 2347.7 -0.0049741 486.77 0.32112
209.38 87369. undefined 562.03 1428.8 1.7196 695.00 0.0014388 562.03 1428.8 1.7196 2.6095 2.9427 2348.6 -0.0049680 486.54 0.32153 695.00 0.0014388 562.03 1428.8 1.7196 2.6095 2.9427 2348.6 -0.0049680 486.54 0.32153
210.38 87555. undefined 564.64 1433.2 1.7250 695.00 0.0014388 564.64 1433.2 1.7250 2.6133 2.9463 2349.4 -0.0049619 486.32 0.32194 695.00 0.0014388 564.64 1433.2 1.7250 2.6133 2.9463 2349.4 -0.0049619 486.32 0.32194
211.38 87740. undefined 567.25 1437.7 1.7304 695.00 0.0014388 567.25 1437.7 1.7304 2.6171 2.9498 2350.2 -0.0049559 486.10 0.32235 695.00 0.0014388 567.25 1437.7 1.7304 2.6171 2.9498 2350.2 -0.0049559 486.10 0.32235
212.38 87924. undefined 569.87 1442.1 1.7358 695.00 0.0014388 569.87 1442.1 1.7358 2.6209 2.9533 2351.1 -0.0049498 485.87 0.32276 695.00 0.0014388 569.87 1442.1 1.7358 2.6209 2.9533 2351.1 -0.0049498 485.87 0.32276
213.38 88109. undefined 572.49 1446.6 1.7412 695.00 0.0014388 572.49 1446.6 1.7412 2.6247 2.9568 2351.9 -0.0049438 485.65 0.32317 695.00 0.0014388 572.49 1446.6 1.7412 2.6247 2.9568 2351.9 -0.0049438 485.65 0.32317
214.38 88293. undefined 575.12 1451.0 1.7466 695.00 0.0014388 575.12 1451.0 1.7466 2.6285 2.9603 2352.7 -0.0049378 485.43 0.32358 695.00 0.0014388 575.12 1451.0 1.7466 2.6285 2.9603 2352.7 -0.0049378 485.43 0.32358
215.38 88478. undefined 577.75 1455.5 1.7520 695.00 0.0014388 577.75 1455.5 1.7520 2.6322 2.9638 2353.6 -0.0049318 485.21 0.32399 695.00 0.0014388 577.75 1455.5 1.7520 2.6322 2.9638 2353.6 -0.0049318 485.21 0.32399
216.38 88662. undefined 580.38 1460.0 1.7573 695.00 0.0014388 580.38 1460.0 1.7573 2.6360 2.9673 2354.4 -0.0049258 485.00 0.32440 695.00 0.0014388 580.38 1460.0 1.7573 2.6360 2.9673 2354.4 -0.0049258 485.00 0.32440
217.38 88846. undefined 583.02 1464.4 1.7627 695.00 0.0014388 583.02 1464.4 1.7627 2.6397 2.9708 2355.2 -0.0049199 484.78 0.32481 695.00 0.0014388 583.02 1464.4 1.7627 2.6397 2.9708 2355.2 -0.0049199 484.78 0.32481
218.38 89030. undefined 585.66 1468.9 1.7681 695.00 0.0014388 585.66 1468.9 1.7681 2.6435 2.9742 2356.1 -0.0049140 484.57 0.32522 695.00 0.0014388 585.66 1468.9 1.7681 2.6435 2.9742 2356.1 -0.0049140 484.57 0.32522
219.38 89213. undefined 588.31 1473.3 1.7735 695.00 0.0014388 588.31 1473.3 1.7735 2.6472 2.9777 2356.9 -0.0049081 484.36 0.32564 695.00 0.0014388 588.31 1473.3 1.7735 2.6472 2.9777 2356.9 -0.0049081 484.36 0.32564
220.38 89397. undefined 590.96 1477.8 1.7789 695.00 0.0014388 590.96 1477.8 1.7789 2.6510 2.9812 2357.7 -0.0049022 484.15 0.32605 695.00 0.0014388 590.96 1477.8 1.7789 2.6510 2.9812 2357.7 -0.0049022 484.15 0.32605
221.38 89580. undefined 593.61 1482.3 1.7842 695.00 0.0014388 593.61 1482.3 1.7842 2.6547 2.9847 2358.5 -0.0048963 483.94 0.32646 695.00 0.0014388 593.61 1482.3 1.7842 2.6547 2.9847 2358.5 -0.0048963 483.94 0.32646
222.38 89763. undefined 596.27 1486.8 1.7896 695.00 0.0014388 596.27 1486.8 1.7896 2.6584 2.9881 2359.4 -0.0048905 483.73 0.32687 695.00 0.0014388 596.27 1486.8 1.7896 2.6584 2.9881 2359.4 -0.0048905 483.73 0.32687
223.38 89946. undefined 598.93 1491.2 1.7950 695.00 0.0014388 598.93 1491.2 1.7950 2.6622 2.9916 2360.2 -0.0048847 483.52 0.32729 695.00 0.0014388 598.93 1491.2 1.7950 2.6622 2.9916 2360.2 -0.0048847 483.52 0.32729
224.38 90128. undefined 601.59 1495.7 1.8003 695.00 0.0014388 601.59 1495.7 1.8003 2.6659 2.9951 2361.0 -0.0048789 483.32 0.32770 695.00 0.0014388 601.59 1495.7 1.8003 2.6659 2.9951 2361.0 -0.0048789 483.32 0.32770
225.38 90311. undefined 604.26 1500.2 1.8057 695.00 0.0014388 604.26 1500.2 1.8057 2.6696 2.9985 2361.8 -0.0048731 483.11 0.32812 695.00 0.0014388 604.26 1500.2 1.8057 2.6696 2.9985 2361.8 -0.0048731 483.11 0.32812
226.38 90493. undefined 606.93 1504.7 1.8110 695.00 0.0014388 606.93 1504.7 1.8110 2.6733 3.0020 2362.7 -0.0048673 482.91 0.32853 695.00 0.0014388 606.93 1504.7 1.8110 2.6733 3.0020 2362.7 -0.0048673 482.91 0.32853
227.38 90676. undefined 609.61 1509.2 1.8164 695.00 0.0014388 609.61 1509.2 1.8164 2.6770 3.0054 2363.5 -0.0048616 482.71 0.32895 695.00 0.0014388 609.61 1509.2 1.8164 2.6770 3.0054 2363.5 -0.0048616 482.71 0.32895
228.38 90858. undefined 612.29 1513.6 1.8217 695.00 0.0014388 612.29 1513.6 1.8217 2.6807 3.0089 2364.3 -0.0048559 482.51 0.32936 695.00 0.0014388 612.29 1513.6 1.8217 2.6807 3.0089 2364.3 -0.0048559 482.51 0.32936
229.38 91040. undefined 614.97 1518.1 1.8271 695.00 0.0014388 614.97 1518.1 1.8271 2.6844 3.0123 2365.1 -0.0048502 482.31 0.32978 695.00 0.0014388 614.97 1518.1 1.8271 2.6844 3.0123 2365.1 -0.0048502 482.31 0.32978
230.38 91221. undefined 617.65 1522.6 1.8324 695.00 0.0014388 617.65 1522.6 1.8324 2.6881 3.0158 2365.9 -0.0048445 482.11 0.33019 695.00 0.0014388 617.65 1522.6 1.8324 2.6881 3.0158 2365.9 -0.0048445 482.11 0.33019
231.38 91403. undefined 620.34 1527.1 1.8377 695.00 0.0014388 620.34 1527.1 1.8377 2.6918 3.0192 2366.7 -0.0048388 481.91 0.33061 695.00 0.0014388 620.34 1527.1 1.8377 2.6918 3.0192 2366.7 -0.0048388 481.91 0.33061
232.38 91584. undefined 623.04 1531.6 1.8431 695.00 0.0014388 623.04 1531.6 1.8431 2.6955 3.0226 2367.6 -0.0048332 481.72 0.33102 695.00 0.0014388 623.04 1531.6 1.8431 2.6955 3.0226 2367.6 -0.0048332 481.72 0.33102
233.38 91765. undefined 625.74 1536.1 1.8484 695.00 0.0014388 625.74 1536.1 1.8484 2.6991 3.0260 2368.4 -0.0048276 481.53 0.33144 695.00 0.0014388 625.74 1536.1 1.8484 2.6991 3.0260 2368.4 -0.0048276 481.53 0.33144
234.38 91946. undefined 628.44 1540.6 1.8537 695.00 0.0014388 628.44 1540.6 1.8537 2.7028 3.0294 2369.2 -0.0048220 481.33 0.33186 695.00 0.0014388 628.44 1540.6 1.8537 2.7028 3.0294 2369.2 -0.0048220 481.33 0.33186
235.38 92127. undefined 631.14 1545.1 1.8591 695.00 0.0014388 631.14 1545.1 1.8591 2.7065 3.0329 2370.0 -0.0048164 481.14 0.33227 695.00 0.0014388 631.14 1545.1 1.8591 2.7065 3.0329 2370.0 -0.0048164 481.14 0.33227
236.38 92308. undefined 633.85 1549.6 1.8644 695.00 0.0014388 633.85 1549.6 1.8644 2.7101 3.0363 2370.8 -0.0048108 480.95 0.33269 695.00 0.0014388 633.85 1549.6 1.8644 2.7101 3.0363 2370.8 -0.0048108 480.95 0.33269
237.38 92489. undefined 636.56 1554.1 1.8697 695.00 0.0014388 636.56 1554.1 1.8697 2.7138 3.0397 2371.6 -0.0048053 480.76 0.33311 695.00 0.0014388 636.56 1554.1 1.8697 2.7138 3.0397 2371.6 -0.0048053 480.76 0.33311
238.38 92669. undefined 639.28 1558.6 1.8750 695.00 0.0014388 639.28 1558.6 1.8750 2.7174 3.0431 2372.5 -0.0047998 480.57 0.33353 695.00 0.0014388 639.28 1558.6 1.8750 2.7174 3.0431 2372.5 -0.0047998 480.57 0.33353
239.38 92849. undefined 642.00 1563.1 1.8803 695.00 0.0014388 642.00 1563.1 1.8803 2.7211 3.0465 2373.3 -0.0047943 480.39 0.33394 695.00 0.0014388 642.00 1563.1 1.8803 2.7211 3.0465 2373.3 -0.0047943 480.39 0.33394
240.38 93029. undefined 644.72 1567.6 1.8856 695.00 0.0014388 644.72 1567.6 1.8856 2.7247 3.0499 2374.1 -0.0047888 480.20 0.33436 695.00 0.0014388 644.72 1567.6 1.8856 2.7247 3.0499 2374.1 -0.0047888 480.20 0.33436
241.38 93209. undefined 647.45 1572.1 1.8909 695.00 0.0014388 647.45 1572.1 1.8909 2.7283 3.0533 2374.9 -0.0047833 480.02 0.33478 695.00 0.0014388 647.45 1572.1 1.8909 2.7283 3.0533 2374.9 -0.0047833 480.02 0.33478
242.38 93389. undefined 650.18 1576.6 1.8962 695.00 0.0014388 650.18 1576.6 1.8962 2.7320 3.0566 2375.7 -0.0047779 479.83 0.33520 695.00 0.0014388 650.18 1576.6 1.8962 2.7320 3.0566 2375.7 -0.0047779 479.83 0.33520
243.38 93569. undefined 652.91 1581.2 1.9015 695.00 0.0014388 652.91 1581.2 1.9015 2.7356 3.0600 2376.5 -0.0047724 479.65 0.33562 695.00 0.0014388 652.91 1581.2 1.9015 2.7356 3.0600 2376.5 -0.0047724 479.65 0.33562
244.38 93748. undefined 655.65 1585.7 1.9068 695.00 0.0014388 655.65 1585.7 1.9068 2.7392 3.0634 2377.3 -0.0047670 479.47 0.33604 695.00 0.0014388 655.65 1585.7 1.9068 2.7392 3.0634 2377.3 -0.0047670 479.47 0.33604
245.38 93927. undefined 658.39 1590.2 1.9121 695.00 0.0014388 658.39 1590.2 1.9121 2.7428 3.0668 2378.1 -0.0047616 479.29 0.33646 695.00 0.0014388 658.39 1590.2 1.9121 2.7428 3.0668 2378.1 -0.0047616 479.29 0.33646
246.38 94106. undefined 661.13 1594.7 1.9174 695.00 0.0014388 661.13 1594.7 1.9174 2.7464 3.0701 2378.9 -0.0047563 479.11 0.33688 695.00 0.0014388 661.13 1594.7 1.9174 2.7464 3.0701 2378.9 -0.0047563 479.11 0.33688
247.38 94285. undefined 663.88 1599.2 1.9227 695.00 0.0014388 663.88 1599.2 1.9227 2.7500 3.0735 2379.7 -0.0047509 478.94 0.33730 695.00 0.0014388 663.88 1599.2 1.9227 2.7500 3.0735 2379.7 -0.0047509 478.94 0.33730
248.38 94464. undefined 666.63 1603.8 1.9280 695.00 0.0014388 666.63 1603.8 1.9280 2.7536 3.0769 2380.5 -0.0047456 478.76 0.33772 695.00 0.0014388 666.63 1603.8 1.9280 2.7536 3.0769 2380.5 -0.0047456 478.76 0.33772
249.38 94643. undefined 669.39 1608.3 1.9332 695.00 0.0014388 669.39 1608.3 1.9332 2.7572 3.0802 2381.3 -0.0047402 478.58 0.33814 695.00 0.0014388 669.39 1608.3 1.9332 2.7572 3.0802 2381.3 -0.0047402 478.58 0.33814
250.38 94821. undefined 672.15 1612.8 1.9385 695.00 0.0014388 672.15 1612.8 1.9385 2.7608 3.0836 2382.2 -0.0047349 478.41 0.33856 695.00 0.0014388 672.15 1612.8 1.9385 2.7608 3.0836 2382.2 -0.0047349 478.41 0.33856
251.38 95000. undefined 674.91 1617.4 1.9438 695.00 0.0014388 674.91 1617.4 1.9438 2.7644 3.0869 2383.0 -0.0047297 478.24 0.33898 695.00 0.0014388 674.91 1617.4 1.9438 2.7644 3.0869 2383.0 -0.0047297 478.24 0.33898
252.38 95178. undefined 677.68 1621.9 1.9491 695.00 0.0014388 677.68 1621.9 1.9491 2.7680 3.0903 2383.8 -0.0047244 478.07 0.33941 695.00 0.0014388 677.68 1621.9 1.9491 2.7680 3.0903 2383.8 -0.0047244 478.07 0.33941
253.38 95356. undefined 680.45 1626.4 1.9543 695.00 0.0014388 680.45 1626.4 1.9543 2.7716 3.0936 2384.6 -0.0047191 477.89 0.33983 695.00 0.0014388 680.45 1626.4 1.9543 2.7716 3.0936 2384.6 -0.0047191 477.89 0.33983
254.38 95534. undefined 683.22 1631.0 1.9596 695.00 0.0014388 683.22 1631.0 1.9596 2.7751 3.0969 2385.4 -0.0047139 477.72 0.34025 695.00 0.0014388 683.22 1631.0 1.9596 2.7751 3.0969 2385.4 -0.0047139 477.72 0.34025
255.38 95711. undefined 686.00 1635.5 1.9649 695.00 0.0014388 686.00 1635.5 1.9649 2.7787 3.1002 2386.2 -0.0047087 477.56 0.34067 695.00 0.0014388 686.00 1635.5 1.9649 2.7787 3.1002 2386.2 -0.0047087 477.56 0.34067
256.38 95889. undefined 688.78 1640.0 1.9701 695.00 0.0014388 688.78 1640.0 1.9701 2.7822 3.1036 2387.0 -0.0047035 477.39 0.34110 695.00 0.0014388 688.78 1640.0 1.9701 2.7822 3.1036 2387.0 -0.0047035 477.39 0.34110
257.38 96066. undefined 691.56 1644.6 1.9754 695.00 0.0014388 691.56 1644.6 1.9754 2.7858 3.1069 2387.8 -0.0046983 477.22 0.34152 695.00 0.0014388 691.56 1644.6 1.9754 2.7858 3.1069 2387.8 -0.0046983 477.22 0.34152
258.38 96243. undefined 694.35 1649.1 1.9806 695.00 0.0014388 694.35 1649.1 1.9806 2.7893 3.1102 2388.6 -0.0046932 477.06 0.34194 695.00 0.0014388 694.35 1649.1 1.9806 2.7893 3.1102 2388.6 -0.0046932 477.06 0.34194
259.38 96420. undefined 697.14 1653.7 1.9859 695.00 0.0014388 697.14 1653.7 1.9859 2.7929 3.1135 2389.4 -0.0046880 476.89 0.34237 695.00 0.0014388 697.14 1653.7 1.9859 2.7929 3.1135 2389.4 -0.0046880 476.89 0.34237
260.38 96597. undefined 699.93 1658.2 1.9911 695.00 0.0014388 699.93 1658.2 1.9911 2.7964 3.1168 2390.2 -0.0046829 476.73 0.34279 695.00 0.0014388 699.93 1658.2 1.9911 2.7964 3.1168 2390.2 -0.0046829 476.73 0.34279
261.38 96774. undefined 702.73 1662.8 1.9963 695.00 0.0014388 702.73 1662.8 1.9963 2.8000 3.1201 2391.0 -0.0046778 476.56 0.34322 695.00 0.0014388 702.73 1662.8 1.9963 2.8000 3.1201 2391.0 -0.0046778 476.56 0.34322
262.38 96951. undefined 705.53 1667.3 2.0016 695.00 0.0014388 705.53 1667.3 2.0016 2.8035 3.1234 2391.7 -0.0046727 476.40 0.34364 695.00 0.0014388 705.53 1667.3 2.0016 2.8035 3.1234 2391.7 -0.0046727 476.40 0.34364
263.38 97127. undefined 708.34 1671.9 2.0068 695.00 0.0014388 708.34 1671.9 2.0068 2.8070 3.1267 2392.5 -0.0046676 476.24 0.34407 695.00 0.0014388 708.34 1671.9 2.0068 2.8070 3.1267 2392.5 -0.0046676 476.24 0.34407
264.38 97304. undefined 711.15 1676.4 2.0120 695.00 0.0014388 711.15 1676.4 2.0120 2.8105 3.1300 2393.3 -0.0046626 476.08 0.34449 695.00 0.0014388 711.15 1676.4 2.0120 2.8105 3.1300 2393.3 -0.0046626 476.08 0.34449
265.38 97480. undefined 713.96 1681.0 2.0173 695.00 0.0014388 713.96 1681.0 2.0173 2.8140 3.1333 2394.1 -0.0046576 475.92 0.34492 695.00 0.0014388 713.96 1681.0 2.0173 2.8140 3.1333 2394.1 -0.0046576 475.92 0.34492
266.38 97656. undefined 716.78 1685.6 2.0225 695.00 0.0014388 716.78 1685.6 2.0225 2.8175 3.1366 2394.9 -0.0046525 475.77 0.34534 695.00 0.0014388 716.78 1685.6 2.0225 2.8175 3.1366 2394.9 -0.0046525 475.77 0.34534
267.38 97832. undefined 719.59 1690.1 2.0277 695.00 0.0014388 719.59 1690.1 2.0277 2.8210 3.1399 2395.7 -0.0046475 475.61 0.34577 695.00 0.0014388 719.59 1690.1 2.0277 2.8210 3.1399 2395.7 -0.0046475 475.61 0.34577
268.38 98007. undefined 722.42 1694.7 2.0329 695.00 0.0014388 722.42 1694.7 2.0329 2.8245 3.1431 2396.5 -0.0046425 475.45 0.34620 695.00 0.0014388 722.42 1694.7 2.0329 2.8245 3.1431 2396.5 -0.0046425 475.45 0.34620
269.38 98183. undefined 725.24 1699.3 2.0381 695.00 0.0014388 725.24 1699.3 2.0381 2.8280 3.1464 2397.3 -0.0046376 475.30 0.34662 695.00 0.0014388 725.24 1699.3 2.0381 2.8280 3.1464 2397.3 -0.0046376 475.30 0.34662
270.38 98358. undefined 728.07 1703.8 2.0434 695.00 0.0014388 728.07 1703.8 2.0434 2.8315 3.1497 2398.1 -0.0046326 475.15 0.34705 695.00 0.0014388 728.07 1703.8 2.0434 2.8315 3.1497 2398.1 -0.0046326 475.15 0.34705
271.38 98534. undefined 730.91 1708.4 2.0486 695.00 0.0014388 730.91 1708.4 2.0486 2.8350 3.1529 2398.9 -0.0046277 474.99 0.34748 695.00 0.0014388 730.91 1708.4 2.0486 2.8350 3.1529 2398.9 -0.0046277 474.99 0.34748
272.38 98709. undefined 733.74 1713.0 2.0538 695.00 0.0014388 733.74 1713.0 2.0538 2.8385 3.1562 2399.7 -0.0046228 474.84 0.34791 695.00 0.0014388 733.74 1713.0 2.0538 2.8385 3.1562 2399.7 -0.0046228 474.84 0.34791
273.38 98884. undefined 736.58 1717.6 2.0590 695.00 0.0014388 736.58 1717.6 2.0590 2.8419 3.1594 2400.5 -0.0046179 474.69 0.34833 695.00 0.0014388 736.58 1717.6 2.0590 2.8419 3.1594 2400.5 -0.0046179 474.69 0.34833
274.38 99059. undefined 739.43 1722.1 2.0642 695.00 0.0014388 739.43 1722.1 2.0642 2.8454 3.1627 2401.2 -0.0046130 474.54 0.34876 695.00 0.0014388 739.43 1722.1 2.0642 2.8454 3.1627 2401.2 -0.0046130 474.54 0.34876
275.38 99233. undefined 742.27 1726.7 2.0694 695.00 0.0014388 742.27 1726.7 2.0694 2.8489 3.1659 2402.0 -0.0046081 474.39 0.34919 695.00 0.0014388 742.27 1726.7 2.0694 2.8489 3.1659 2402.0 -0.0046081 474.39 0.34919
276.38 99408. undefined 745.13 1731.3 2.0746 695.00 0.0014388 745.13 1731.3 2.0746 2.8523 3.1691 2402.8 -0.0046032 474.24 0.34962 695.00 0.0014388 745.13 1731.3 2.0746 2.8523 3.1691 2402.8 -0.0046032 474.24 0.34962
277.38 99582. undefined 747.98 1735.9 2.0797 695.00 0.0014388 747.98 1735.9 2.0797 2.8558 3.1724 2403.6 -0.0045984 474.09 0.35005 695.00 0.0014388 747.98 1735.9 2.0797 2.8558 3.1724 2403.6 -0.0045984 474.09 0.35005
278.38 99757. undefined 750.84 1740.5 2.0849 695.00 0.0014388 750.84 1740.5 2.0849 2.8592 3.1756 2404.4 -0.0045936 473.95 0.35048 695.00 0.0014388 750.84 1740.5 2.0849 2.8592 3.1756 2404.4 -0.0045936 473.95 0.35048
279.38 99931. undefined 753.70 1745.1 2.0901 695.00 0.0014388 753.70 1745.1 2.0901 2.8627 3.1788 2405.2 -0.0045888 473.80 0.35091 695.00 0.0014388 753.70 1745.1 2.0901 2.8627 3.1788 2405.2 -0.0045888 473.80 0.35091
280.38 1.0010e+05 undefined 756.56 1749.7 2.0953 695.00 0.0014388 756.56 1749.7 2.0953 2.8661 3.1821 2406.0 -0.0045840 473.66 0.35134 695.00 0.0014388 756.56 1749.7 2.0953 2.8661 3.1821 2406.0 -0.0045840 473.66 0.35134
281.38 1.0028e+05 undefined 759.43 1754.2 2.1005 695.00 0.0014388 759.43 1754.2 2.1005 2.8695 3.1853 2406.7 -0.0045792 473.51 0.35177 695.00 0.0014388 759.43 1754.2 2.1005 2.8695 3.1853 2406.7 -0.0045792 473.51 0.35177
282.38 1.0045e+05 undefined 762.30 1758.8 2.1056 695.00 0.0014388 762.30 1758.8 2.1056 2.8730 3.1885 2407.5 -0.0045744 473.37 0.35210 695.00 0.0014388 762.30 1758.8 2.1056 2.8730 3.1885 2407.5 -0.0045744 473.37 0.35210
283.38 1.0063e+05 undefined 765.18 1763.4 2.1108 695.00 0.0014388 765.18 1763.4 2.1108 2.8764 3.1917 2408.3 -0.0045697 473.23 0.35253 695.00 0.0014388 765.18 1763.4 2.1108 2.8764 3.1917 2408.3 -0.0045697 473.23 0.35253
284.38 1.0080e+05 undefined 768.05 1768.0 2.1160 695.00 0.0014388 768.05 1768.0 2.1160 2.8798 3.1949 2409.1 -0.0045650 473.09 0.35296 695.00 0.0014388 768.05 1768.0 2.1160 2.8798 3.1949 2409.1 -0.0045650 473.09 0.35296
285.38 1.0097e+05 undefined 770.94 1772.6 2.1211 695.00 0.0014388 770.94 1772.6 2.1211 2.8832 3.1981 2409.9 -0.0045603 472.94 0.35339 695.00 0.0014388 770.94 1772.6 2.1211 2.8832 3.1981 2409.9 -0.0045603 472.94 0.35339
286.38 1.0115e+05 undefined 773.82 1777.2 2.1263 695.00 0.0014388 773.82 1777.2 2.1263 2.8866 3.2013 2410.6 -0.0045556 472.80 0.35383 695.00 0.0014388 773.82 1777.2 2.1263 2.8866 3.2013 2410.6 -0.0045556 472.80 0.35383
287.38 1.0132e+05 undefined 776.71 1781.8 2.1315 695.00 0.0014388 776.71 1781.8 2.1315 2.8900 3.2045 2411.4 -0.0045509 472.67 0.35426 695.00 0.0014388 776.71 1781.8 2.1315 2.8900 3.2045 2411.4 -0.0045509 472.67 0.35426
288.38 1.0149e+05 undefined 779.60 1786.4 2.1366 695.00 0.0014388 779.60 1786.4 2.1366 2.8934 3.2077 2412.2 -0.0045462 472.53 0.35469 695.00 0.0014388 779.60 1786.4 2.1366 2.8934 3.2077 2412.2 -0.0045462 472.53 0.35469
289.38 1.0166e+05 undefined 782.50 1791.1 2.1418 695.00 0.0014388 782.50 1791.1 2.1418 2.8968 3.2109 2413.0 -0.0045416 472.39 0.35512 695.00 0.0014388 782.50 1791.1 2.1418 2.8968 3.2109 2413.0 -0.0045416 472.39 0.35512
290.38 1.0184e+05 undefined 785.39 1795.7 2.1469 695.00 0.0014388 785.39 1795.7 2.1469 2.9002 3.2140 2413.7 -0.0045369 472.25 0.35555 695.00 0.0014388 785.39 1795.7 2.1469 2.9002 3.2140 2413.7 -0.0045369 472.25 0.35555
291.38 1.0201e+05 undefined 788.30 1800.3 2.1521 695.00 0.0014388 788.30 1800.3 2.1521 2.9036 3.2172 2414.5 -0.0045323 472.12 0.35599 695.00 0.0014388 788.30 1800.3 2.1521 2.9036 3.2172 2414.5 -0.0045323 472.12 0.35599
292.38 1.0218e+05 undefined 791.20 1804.9 2.1572 695.00 0.0014388 791.20 1804.9 2.1572 2.9070 3.2204 2415.3 -0.0045277 471.98 0.35642 695.00 0.0014388 791.20 1804.9 2.1572 2.9070 3.2204 2415.3 -0.0045277 471.98 0.35642
293.38 1.0235e+05 undefined 794.11 1809.5 2.1623 695.00 0.0014388 794.11 1809.5 2.1623 2.9103 3.2235 2416.1 -0.0045231 471.85 0.35685 695.00 0.0014388 794.11 1809.5 2.1623 2.9103 3.2235 2416.1 -0.0045231 471.85 0.35685
294.38 1.0253e+05 undefined 797.02 1814.1 2.1675 695.00 0.0014388 797.02 1814.1 2.1675 2.9137 3.2267 2416.8 -0.0045185 471.72 0.35729 695.00 0.0014388 797.02 1814.1 2.1675 2.9137 3.2267 2416.8 -0.0045185 471.72 0.35729
295.38 1.0270e+05 undefined 799.94 1818.7 2.1726 695.00 0.0014388 799.94 1818.7 2.1726 2.9171 3.2299 2417.6 -0.0045140 471.58 0.35772 695.00 0.0014388 799.94 1818.7 2.1726 2.9171 3.2299 2417.6 -0.0045140 471.58 0.35772
296.38 1.0287e+05 undefined 802.86 1823.4 2.1777 695.00 0.0014388 802.86 1823.4 2.1777 2.9204 3.2330 2418.4 -0.0045094 471.45 0.35816 695.00 0.0014388 802.86 1823.4 2.1777 2.9204 3.2330 2418.4 -0.0045094 471.45 0.35816
297.38 1.0304e+05 undefined 805.78 1828.0 2.1829 695.00 0.0014388 805.78 1828.0 2.1829 2.9238 3.2362 2419.2 -0.0045049 471.32 0.35859 695.00 0.0014388 805.78 1828.0 2.1829 2.9238 3.2362 2419.2 -0.0045049 471.32 0.35859
298.38 1.0321e+05 undefined 808.70 1832.6 2.1880 695.00 0.0014388 808.70 1832.6 2.1880 2.9271 3.2393 2419.9 -0.0045004 471.19 0.35903 695.00 0.0014388 808.70 1832.6 2.1880 2.9271 3.2393 2419.9 -0.0045004 471.19 0.35903
299.38 1.0338e+05 undefined 811.63 1837.2 2.1931 695.00 0.0014388 811.63 1837.2 2.1931 2.9305 3.2424 2420.7 -0.0044959 471.06 0.35946 695.00 0.0014388 811.63 1837.2 2.1931 2.9305 3.2424 2420.7 -0.0044959 471.06 0.35946
300.38 1.0355e+05 undefined 814.56 1841.9 2.1982 695.00 0.0014388 814.56 1841.9 2.1982 2.9338 3.2456 2421.5 -0.0044914 470.93 0.35990 695.00 0.0014388 814.56 1841.9 2.1982 2.9338 3.2456 2421.5 -0.0044914 470.93 0.35990