Temperature (C) Pressure (psia) Quality (l+v) Internal Energy (l+v, kJ/kg) Enthalpy (l+v, kJ/kg) Entropy (l+v, J/g*K) Density (l, kg/m3) Volume (l, m3/kg) Internal Energy (l, kJ/kg) Enthalpy (l, kJ/kg) Entropy (l, J/g*K) Cv (l, J/g*K) Cp (l, J/g*K) Sound Spd. (l, m/s) Joule-Thomson (l, F/psia) Viscosity (l, uPa*s) Therm. Cond. (l, W/m*K) Density (v, kg/m3) Volume (v, m3/kg) Internal Energy (v, kJ/kg) Enthalpy (v, kJ/kg) Entropy (v, J/g*K) Cv (v, J/g*K) Cp (v, J/g*K) Sound Spd. (v, m/s) Joule-Thomson (v, F/psia) Viscosity (v, uPa*s) Therm. Cond. (v, W/m*K)
-187.62 2.4953e-08 6.8864e-13 -196.64 -196.64 -1.3959 733.13 0.0013640 -196.64 -196.64 -1.3959 1.3553 1.9158 2136.4 -0.0077592 10960. 0.20792 1.0669e-08 9.3732e+07 350.13 366.26 5.1858 0.69067 0.87923 143.28 6.1051 2.3259 0.0017061
-186.62 3.7339e-08 9.8788e-13 -194.73 -194.73 -1.3736 732.08 0.0013660 -194.73 -194.73 -1.3736 1.3539 1.9166 2129.6 -0.0077546 10073. 0.20765 1.5780e-08 6.3371e+07 350.82 367.14 5.1200 0.69462 0.88317 144.03 5.9178 2.3534 0.0017533
-185.62 5.5322e-08 1.4019e-12 -192.81 -192.81 -1.3516 731.04 0.0013679 -192.81 -192.81 -1.3516 1.3525 1.9174 2122.9 -0.0077498 9276.1 0.20737 2.3112e-08 4.3267e+07 351.52 368.02 5.0561 0.69857 0.88713 144.77 5.7383 2.3808 0.0018007
-184.62 8.1182e-08 1.9686e-12 -190.89 -190.89 -1.3298 730.00 0.0013699 -190.89 -190.89 -1.3298 1.3513 1.9182 2116.1 -0.0077448 8557.8 0.20708 3.3533e-08 2.9821e+07 352.22 368.91 4.9939 0.70253 0.89108 145.51 5.5662 2.4083 0.0018485
-183.62 1.1803e-07 2.7360e-12 -188.97 -188.97 -1.3083 728.96 0.0013718 -188.97 -188.97 -1.3083 1.3501 1.9191 2109.3 -0.0077395 7909.8 0.20678 4.8211e-08 2.0742e+07 352.92 369.81 4.9333 0.70648 0.89504 146.24 5.4011 2.4357 0.0018965
-182.62 1.7009e-07 3.7647e-12 -187.05 -187.05 -1.2869 727.92 0.0013738 -187.05 -187.05 -1.2869 1.3490 1.9201 2102.5 -0.0077340 7324.3 0.20647 6.8704e-08 1.4555e+07 353.63 370.70 4.8744 0.71043 0.89899 146.97 5.2426 2.4632 0.0019448
-181.62 2.4299e-07 5.1293e-12 -185.13 -185.13 -1.2658 726.88 0.0013757 -185.13 -185.13 -1.2658 1.3480 1.9210 2095.7 -0.0077283 6794.5 0.20616 9.7079e-08 1.0301e+07 354.35 371.60 4.8170 0.71438 0.90294 147.69 5.0904 2.4906 0.0019934
-180.62 3.4425e-07 6.9212e-12 -183.21 -183.21 -1.2450 725.85 0.0013777 -183.21 -183.21 -1.2450 1.3470 1.9220 2088.9 -0.0077225 6314.4 0.20584 1.3605e-07 7.3504e+06 355.06 372.51 4.7612 0.71833 0.90688 148.41 4.9442 2.5181 0.0020423
-179.62 4.8378e-07 9.2509e-12 -181.29 -181.29 -1.2243 724.81 0.0013797 -181.29 -181.29 -1.2243 1.3461 1.9231 2082.0 -0.0077164 5878.8 0.20551 1.8915e-07 5.2868e+06 355.78 373.42 4.7068 0.72227 0.91082 149.13 4.8038 2.5456 0.0020915
-178.62 6.7459e-07 1.2249e-11 -179.37 -179.37 -1.2038 723.78 0.0013816 -179.37 -179.37 -1.2038 1.3453 1.9241 2075.2 -0.0077102 5482.9 0.20517 2.6096e-07 3.8320e+06 356.51 374.33 4.6538 0.72620 0.91475 149.84 4.6688 2.5731 0.0021410
-177.62 9.3358e-07 1.6070e-11 -177.44 -177.44 -1.1836 722.75 0.0013836 -177.44 -177.44 -1.1836 1.3445 1.9252 2068.4 -0.0077039 5122.6 0.20483 3.5737e-07 2.7982e+06 357.23 375.25 4.6022 0.73012 0.91867 150.54 4.5390 2.6005 0.0021907
-176.62 1.2826e-06 2.0889e-11 -175.52 -175.52 -1.1635 721.72 0.0013856 -175.52 -175.52 -1.1635 1.3437 1.9263 2061.5 -0.0076973 4794.1 0.20447 4.8588e-07 2.0581e+06 357.97 376.17 4.5519 0.73403 0.92258 151.25 4.4142 2.6280 0.0022408
-175.62 1.7496e-06 2.6905e-11 -173.59 -173.59 -1.1437 720.69 0.0013876 -173.59 -173.59 -1.1437 1.3430 1.9274 2054.7 -0.0076907 4494.3 0.20411 6.5601e-07 1.5244e+06 358.70 377.09 4.5029 0.73792 0.92648 151.95 4.2941 2.6555 0.0022912
-174.62 2.3705e-06 3.4338e-11 -171.66 -171.66 -1.1240 719.66 0.0013895 -171.66 -171.66 -1.1240 1.3423 1.9286 2047.9 -0.0076838 4220.2 0.20375 8.7976e-07 1.1367e+06 359.44 378.02 4.4551 0.74181 0.93036 152.64 4.1784 2.6830 0.0023418
-173.62 3.1903e-06 4.3422e-11 -169.73 -169.73 -1.1045 718.64 0.0013915 -169.73 -169.73 -1.1045 1.3417 1.9298 2041.0 -0.0076769 3969.3 0.20338 1.1721e-06 8.5314e+05 360.19 378.95 4.4085 0.74568 0.93423 153.33 4.0671 2.7105 0.0023928
-172.62 4.2661e-06 5.4400e-11 -167.80 -167.80 -1.0852 717.61 0.0013935 -167.80 -167.80 -1.0852 1.3411 1.9310 2034.2 -0.0076698 3739.3 0.20300 1.5518e-06 6.4441e+05 360.93 379.89 4.3631 0.74953 0.93809 154.02 3.9599 2.7379 0.0024440
-171.62 5.6692e-06 6.7510e-11 -165.87 -165.87 -1.0661 716.58 0.0013955 -165.87 -165.87 -1.0661 1.3405 1.9322 2027.3 -0.0076625 3528.0 0.20261 2.0419e-06 4.8974e+05 361.69 380.83 4.3188 0.75337 0.94193 154.71 3.8566 2.7654 0.0024955
-170.62 7.4884e-06 8.2970e-11 -163.94 -163.94 -1.0472 715.56 0.0013975 -163.94 -163.94 -1.0472 1.3400 1.9334 2020.5 -0.0076552 3333.8 0.20222 2.6708e-06 3.7442e+05 362.44 381.77 4.2755 0.75720 0.94575 155.39 3.7570 2.7929 0.0025473
-169.62 9.8334e-06 1.0095e-10 -162.00 -162.00 -1.0284 714.54 0.0013995 -162.00 -162.00 -1.0284 1.3395 1.9347 2013.6 -0.0076477 3154.9 0.20182 3.4733e-06 2.8791e+05 363.20 382.72 4.2334 0.76100 0.94956 156.07 3.6609 2.8204 0.0025994
-168.62 1.2839e-05 1.2155e-10 -160.07 -160.07 -1.0098 713.52 0.0014015 -160.07 -160.07 -1.0098 1.3390 1.9359 2006.8 -0.0076401 2989.9 0.20141 4.4917e-06 2.2263e+05 363.96 383.67 4.1922 0.76479 0.95335 156.74 3.5683 2.8479 0.0026518
-167.62 1.6672e-05 1.4473e-10 -158.13 -158.13 -0.99134 712.49 0.0014035 -158.13 -158.13 -0.99134 1.3386 1.9372 2000.0 -0.0076323 2837.5 0.20100 5.7771e-06 1.7310e+05 364.73 384.63 4.1521 0.76856 0.95712 157.41 3.4790 2.8754 0.0027045
-166.62 2.1533e-05 1.7029e-10 -156.19 -156.19 -0.97306 711.47 0.0014055 -156.19 -156.19 -0.97306 1.3382 1.9385 1993.1 -0.0076245 2696.5 0.20058 7.3914e-06 1.3529e+05 365.50 385.59 4.1129 0.77232 0.96087 158.08 3.3927 2.9029 0.0027575
-165.62 2.7666e-05 1.9778e-10 -154.25 -154.25 -0.95494 710.45 0.0014075 -154.25 -154.25 -0.95494 1.3378 1.9398 1986.3 -0.0076165 2566.0 0.20016 9.4084e-06 1.0629e+05 366.27 386.55 4.0746 0.77605 0.96460 158.75 3.3095 2.9304 0.0028108
-164.62 3.5367e-05 2.2642e-10 -152.31 -152.31 -0.93698 709.44 0.0014096 -152.31 -152.31 -0.93698 1.3375 1.9411 1979.4 -0.0076084 2444.9 0.19973 1.1916e-05 83918. 367.05 387.52 4.0372 0.77976 0.96832 159.41 3.2291 2.9579 0.0028643
-163.62 4.4989e-05 2.5498e-10 -150.37 -150.37 -0.91917 708.42 0.0014116 -150.37 -150.37 -0.91917 1.3371 1.9424 1972.6 -0.0076002 2332.3 0.19930 1.5020e-05 66577. 367.83 388.49 4.0008 0.78346 0.97201 160.07 3.1514 2.9854 0.0029182
-162.62 5.6956e-05 2.8163e-10 -148.43 -148.43 -0.90151 707.40 0.0014136 -148.43 -148.43 -0.90151 1.3368 1.9437 1965.8 -0.0075919 2227.7 0.19886 1.8844e-05 53068. 368.62 389.46 3.9651 0.78713 0.97569 160.72 3.0764 3.0129 0.0029723
-161.62 7.1773e-05 3.0384e-10 -146.48 -146.48 -0.88400 706.38 0.0014157 -146.48 -146.48 -0.88400 1.3365 1.9451 1959.0 -0.0075834 2130.2 0.19841 2.3533e-05 42494. 369.41 390.44 3.9304 0.79079 0.97935 161.38 3.0038 3.0404 0.0030268
-160.62 9.0036e-05 3.1812e-10 -144.54 -144.54 -0.86663 705.37 0.0014177 -144.54 -144.54 -0.86663 1.3363 1.9465 1952.1 -0.0075748 2039.2 0.19796 2.9258e-05 34178. 370.20 391.42 3.8964 0.79443 0.98298 162.03 2.9337 3.0679 0.0030815
-159.62 0.00011245 3.1981e-10 -142.59 -142.59 -0.84940 704.35 0.0014197 -142.59 -142.59 -0.84940 1.3360 1.9478 1945.3 -0.0075661 1954.2 0.19751 3.6221e-05 27609. 371.00 392.40 3.8632 0.79805 0.98660 162.68 2.8658 3.0955 0.0031365
-158.62 0.00013985 3.0280e-10 -140.64 -140.64 -0.83231 703.34 0.0014218 -140.64 -140.64 -0.83231 1.3358 1.9492 1938.5 -0.0075573 1874.8 0.19705 4.4652e-05 22395. 371.80 393.39 3.8307 0.80164 0.99020 163.32 2.8002 3.1230 0.0031918
-157.62 0.00017320 2.5922e-10 -138.69 -138.69 -0.81536 702.32 0.0014238 -138.69 -138.69 -0.81536 1.3356 1.9506 1931.7 -0.0075484 1800.3 0.19658 5.4822e-05 18241. 372.60 394.38 3.7990 0.80522 0.99378 163.96 2.7367 3.1505 0.0032474
-156.62 0.00021364 1.7904e-10 -136.74 -136.74 -0.79854 701.31 0.0014259 -136.74 -136.74 -0.79854 1.3354 1.9520 1924.9 -0.0075393 1730.5 0.19611 6.7040e-05 14916. 373.41 395.38 3.7680 0.80878 0.99734 164.60 2.6752 3.1780 0.0033033
-155.62 0.00026248 4.9642e-11 -134.79 -134.79 -0.78185 700.30 0.0014280 -134.79 -134.79 -0.78185 1.3352 1.9534 1918.1 -0.0075302 1664.9 0.19564 8.1666e-05 12245. 374.22 396.38 3.7377 0.81232 1.0009 165.24 2.6157 3.2055 0.0033595
-154.62 259.74 undefined -133.27 -130.71 -0.76899 700.00 0.0014286 -133.27 -130.71 -0.76899 1.3367 1.9538 1918.1 -0.0075276 1628.6 0.19572 700.00 0.0014286 -133.27 -130.71 -0.76899 1.3367 1.9538 1918.1 -0.0075276 1628.6 0.19572
-153.62 626.57 undefined -131.93 -125.76 -0.75775 700.00 0.0014286 -131.93 -125.76 -0.75775 1.3389 1.9537 1920.8 -0.0075277 1604.2 0.19604 700.00 0.0014286 -131.93 -125.76 -0.75775 1.3389 1.9537 1920.8 -0.0075277 1604.2 0.19604
-152.62 992.03 undefined -130.59 -120.82 -0.74659 700.00 0.0014286 -130.59 -120.82 -0.74659 1.3410 1.9536 1923.5 -0.0075277 1580.6 0.19636 700.00 0.0014286 -130.59 -120.82 -0.74659 1.3410 1.9536 1923.5 -0.0075277 1580.6 0.19636
-151.62 1356.1 undefined -129.25 -115.89 -0.73550 700.00 0.0014286 -129.25 -115.89 -0.73550 1.3432 1.9536 1926.3 -0.0075277 1557.8 0.19669 700.00 0.0014286 -129.25 -115.89 -0.73550 1.3432 1.9536 1926.3 -0.0075277 1557.8 0.19669
-150.62 1718.9 undefined -127.91 -110.98 -0.72448 700.00 0.0014286 -127.91 -110.98 -0.72448 1.3454 1.9536 1929.0 -0.0075275 1535.8 0.19701 700.00 0.0014286 -127.91 -110.98 -0.72448 1.3454 1.9536 1929.0 -0.0075275 1535.8 0.19701
-149.62 2080.3 undefined -126.56 -106.07 -0.71354 700.00 0.0014286 -126.56 -106.07 -0.71354 1.3475 1.9536 1931.7 -0.0075274 1514.5 0.19733 700.00 0.0014286 -126.56 -106.07 -0.71354 1.3475 1.9536 1931.7 -0.0075274 1514.5 0.19733
-148.62 2440.5 undefined -125.21 -101.17 -0.70266 700.00 0.0014286 -125.21 -101.17 -0.70266 1.3496 1.9536 1934.4 -0.0075271 1493.9 0.19765 700.00 0.0014286 -125.21 -101.17 -0.70266 1.3496 1.9536 1934.4 -0.0075271 1493.9 0.19765
-147.62 2799.3 undefined -123.86 -96.288 -0.69186 700.00 0.0014286 -123.86 -96.288 -0.69186 1.3518 1.9537 1937.1 -0.0075268 1473.9 0.19797 700.00 0.0014286 -123.86 -96.288 -0.69186 1.3518 1.9537 1937.1 -0.0075268 1473.9 0.19797
-146.62 3156.9 undefined -122.51 -91.413 -0.68113 700.00 0.0014286 -122.51 -91.413 -0.68113 1.3539 1.9537 1939.8 -0.0075264 1454.6 0.19829 700.00 0.0014286 -122.51 -91.413 -0.68113 1.3539 1.9537 1939.8 -0.0075264 1454.6 0.19829
-145.62 3513.3 undefined -121.15 -86.549 -0.67046 700.00 0.0014286 -121.15 -86.549 -0.67046 1.3560 1.9538 1942.4 -0.0075259 1435.9 0.19862 700.00 0.0014286 -121.15 -86.549 -0.67046 1.3560 1.9538 1942.4 -0.0075259 1435.9 0.19862
-144.62 3868.4 undefined -119.80 -81.694 -0.65986 700.00 0.0014286 -119.80 -81.694 -0.65986 1.3581 1.9539 1945.1 -0.0075254 1417.7 0.19894 700.00 0.0014286 -119.80 -81.694 -0.65986 1.3581 1.9539 1945.1 -0.0075254 1417.7 0.19894
-143.62 4222.2 undefined -118.44 -76.849 -0.64932 700.00 0.0014286 -118.44 -76.849 -0.64932 1.3603 1.9540 1947.8 -0.0075249 1400.2 0.19926 700.00 0.0014286 -118.44 -76.849 -0.64932 1.3603 1.9540 1947.8 -0.0075249 1400.2 0.19926
-142.62 4574.9 undefined -117.08 -72.015 -0.63885 700.00 0.0014286 -117.08 -72.015 -0.63885 1.3624 1.9542 1950.4 -0.0075242 1383.1 0.19959 700.00 0.0014286 -117.08 -72.015 -0.63885 1.3624 1.9542 1950.4 -0.0075242 1383.1 0.19959
-141.62 4926.3 undefined -115.71 -67.189 -0.62845 700.00 0.0014286 -115.71 -67.189 -0.62845 1.3645 1.9543 1953.0 -0.0075235 1366.5 0.19991 700.00 0.0014286 -115.71 -67.189 -0.62845 1.3645 1.9543 1953.0 -0.0075235 1366.5 0.19991
-140.62 5276.6 undefined -114.35 -62.374 -0.61811 700.00 0.0014286 -114.35 -62.374 -0.61811 1.3666 1.9545 1955.6 -0.0075227 1350.5 0.20023 700.00 0.0014286 -114.35 -62.374 -0.61811 1.3666 1.9545 1955.6 -0.0075227 1350.5 0.20023
-139.62 5625.7 undefined -112.98 -57.568 -0.60782 700.00 0.0014286 -112.98 -57.568 -0.60782 1.3687 1.9547 1958.2 -0.0075219 1334.9 0.20056 700.00 0.0014286 -112.98 -57.568 -0.60782 1.3687 1.9547 1958.2 -0.0075219 1334.9 0.20056
-138.62 5973.6 undefined -111.61 -52.771 -0.59760 700.00 0.0014286 -111.61 -52.771 -0.59760 1.3708 1.9549 1960.8 -0.0075210 1319.7 0.20088 700.00 0.0014286 -111.61 -52.771 -0.59760 1.3708 1.9549 1960.8 -0.0075210 1319.7 0.20088
-137.62 6320.4 undefined -110.24 -47.984 -0.58744 700.00 0.0014286 -110.24 -47.984 -0.58744 1.3728 1.9551 1963.3 -0.0075201 1304.9 0.20121 700.00 0.0014286 -110.24 -47.984 -0.58744 1.3728 1.9551 1963.3 -0.0075201 1304.9 0.20121
-136.62 6666.1 undefined -108.86 -43.205 -0.57734 700.00 0.0014286 -108.86 -43.205 -0.57734 1.3749 1.9553 1965.9 -0.0075191 1290.6 0.20153 700.00 0.0014286 -108.86 -43.205 -0.57734 1.3749 1.9553 1965.9 -0.0075191 1290.6 0.20153
-135.62 7010.6 undefined -107.49 -38.436 -0.56730 700.00 0.0014286 -107.49 -38.436 -0.56730 1.3770 1.9555 1968.4 -0.0075180 1276.7 0.20186 700.00 0.0014286 -107.49 -38.436 -0.56730 1.3770 1.9555 1968.4 -0.0075180 1276.7 0.20186
-134.62 7354.0 undefined -106.11 -33.676 -0.55732 700.00 0.0014286 -106.11 -33.676 -0.55732 1.3791 1.9558 1970.9 -0.0075169 1263.1 0.20218 700.00 0.0014286 -106.11 -33.676 -0.55732 1.3791 1.9558 1970.9 -0.0075169 1263.1 0.20218
-133.62 7696.2 undefined -104.73 -28.924 -0.54739 700.00 0.0014286 -104.73 -28.924 -0.54739 1.3812 1.9561 1973.4 -0.0075157 1249.9 0.20251 700.00 0.0014286 -104.73 -28.924 -0.54739 1.3812 1.9561 1973.4 -0.0075157 1249.9 0.20251
-132.62 8037.4 undefined -103.35 -24.181 -0.53752 700.00 0.0014286 -103.35 -24.181 -0.53752 1.3833 1.9564 1975.9 -0.0075144 1237.0 0.20283 700.00 0.0014286 -103.35 -24.181 -0.53752 1.3833 1.9564 1975.9 -0.0075144 1237.0 0.20283
-131.62 8377.5 undefined -101.96 -19.447 -0.52770 700.00 0.0014286 -101.96 -19.447 -0.52770 1.3854 1.9567 1978.3 -0.0075131 1224.5 0.20316 700.00 0.0014286 -101.96 -19.447 -0.52770 1.3854 1.9567 1978.3 -0.0075131 1224.5 0.20316
-130.62 8716.6 undefined -100.58 -14.721 -0.51794 700.00 0.0014286 -100.58 -14.721 -0.51794 1.3875 1.9570 1980.8 -0.0075117 1212.3 0.20349 700.00 0.0014286 -100.58 -14.721 -0.51794 1.3875 1.9570 1980.8 -0.0075117 1212.3 0.20349
-129.62 9054.5 undefined -99.188 -10.004 -0.50823 700.00 0.0014286 -99.188 -10.004 -0.50823 1.3896 1.9574 1983.2 -0.0075103 1200.4 0.20381 700.00 0.0014286 -99.188 -10.004 -0.50823 1.3896 1.9574 1983.2 -0.0075103 1200.4 0.20381
-128.62 9391.4 undefined -97.797 -5.2950 -0.49858 700.00 0.0014286 -97.797 -5.2950 -0.49858 1.3917 1.9578 1985.6 -0.0075088 1188.8 0.20414 700.00 0.0014286 -97.797 -5.2950 -0.49858 1.3917 1.9578 1985.6 -0.0075088 1188.8 0.20414
-127.62 9727.3 undefined -96.404 -0.59417 -0.48897 700.00 0.0014286 -96.404 -0.59417 -0.48897 1.3938 1.9581 1988.0 -0.0075072 1177.5 0.20447 700.00 0.0014286 -96.404 -0.59417 -0.48897 1.3938 1.9581 1988.0 -0.0075072 1177.5 0.20447
-126.62 10062. undefined -95.009 4.0985 -0.47942 700.00 0.0014286 -95.009 4.0985 -0.47942 1.3959 1.9585 1990.4 -0.0075056 1166.5 0.20480 700.00 0.0014286 -95.009 4.0985 -0.47942 1.3959 1.9585 1990.4 -0.0075056 1166.5 0.20480
-125.62 10396. undefined -93.612 8.7831 -0.46992 700.00 0.0014286 -93.612 8.7831 -0.46992 1.3981 1.9590 1992.7 -0.0075039 1155.8 0.20513 700.00 0.0014286 -93.612 8.7831 -0.46992 1.3981 1.9590 1992.7 -0.0075039 1155.8 0.20513
-124.62 10729. undefined -92.213 13.460 -0.46047 700.00 0.0014286 -92.213 13.460 -0.46047 1.4002 1.9594 1995.1 -0.0075021 1145.3 0.20545 700.00 0.0014286 -92.213 13.460 -0.46047 1.4002 1.9594 1995.1 -0.0075021 1145.3 0.20545
-123.62 11060. undefined -90.812 18.129 -0.45106 700.00 0.0014286 -90.812 18.129 -0.45106 1.4023 1.9599 1997.4 -0.0075003 1135.0 0.20578 700.00 0.0014286 -90.812 18.129 -0.45106 1.4023 1.9599 1997.4 -0.0075003 1135.0 0.20578
-122.62 11391. undefined -89.409 22.790 -0.44171 700.00 0.0014286 -89.409 22.790 -0.44171 1.4044 1.9603 1999.7 -0.0074984 1125.0 0.20611 700.00 0.0014286 -89.409 22.790 -0.44171 1.4044 1.9603 1999.7 -0.0074984 1125.0 0.20611
-121.62 11721. undefined -88.003 27.443 -0.43240 700.00 0.0014286 -88.003 27.443 -0.43240 1.4066 1.9608 2002.0 -0.0074964 1115.2 0.20644 700.00 0.0014286 -88.003 27.443 -0.43240 1.4066 1.9608 2002.0 -0.0074964 1115.2 0.20644
-120.62 12050. undefined -86.596 32.089 -0.42314 700.00 0.0014286 -86.596 32.089 -0.42314 1.4087 1.9613 2004.3 -0.0074944 1105.7 0.20677 700.00 0.0014286 -86.596 32.089 -0.42314 1.4087 1.9613 2004.3 -0.0074944 1105.7 0.20677
-119.62 12377. undefined -85.186 36.727 -0.41393 700.00 0.0014286 -85.186 36.727 -0.41393 1.4109 1.9619 2006.5 -0.0074923 1096.4 0.20710 700.00 0.0014286 -85.186 36.727 -0.41393 1.4109 1.9619 2006.5 -0.0074923 1096.4 0.20710
-118.62 12704. undefined -83.774 41.358 -0.40476 700.00 0.0014286 -83.774 41.358 -0.40476 1.4130 1.9624 2008.8 -0.0074901 1087.2 0.20743 700.00 0.0014286 -83.774 41.358 -0.40476 1.4130 1.9624 2008.8 -0.0074901 1087.2 0.20743
-117.62 13030. undefined -82.360 45.981 -0.39564 700.00 0.0014286 -82.360 45.981 -0.39564 1.4152 1.9630 2011.0 -0.0074878 1078.3 0.20776 700.00 0.0014286 -82.360 45.981 -0.39564 1.4152 1.9630 2011.0 -0.0074878 1078.3 0.20776
-116.62 13355. undefined -80.943 50.597 -0.38656 700.00 0.0014286 -80.943 50.597 -0.38656 1.4174 1.9636 2013.2 -0.0074855 1069.6 0.20809 700.00 0.0014286 -80.943 50.597 -0.38656 1.4174 1.9636 2013.2 -0.0074855 1069.6 0.20809
-115.62 13679. undefined -79.525 55.206 -0.37753 700.00 0.0014286 -79.525 55.206 -0.37753 1.4195 1.9642 2015.4 -0.0074831 1061.1 0.20843 700.00 0.0014286 -79.525 55.206 -0.37753 1.4195 1.9642 2015.4 -0.0074831 1061.1 0.20843
-114.62 14002. undefined -78.104 59.808 -0.36854 700.00 0.0014286 -78.104 59.808 -0.36854 1.4217 1.9648 2017.6 -0.0074807 1052.8 0.20876 700.00 0.0014286 -78.104 59.808 -0.36854 1.4217 1.9648 2017.6 -0.0074807 1052.8 0.20876
-113.62 14324. undefined -76.682 64.403 -0.35959 700.00 0.0014286 -76.682 64.403 -0.35959 1.4239 1.9655 2019.7 -0.0074781 1044.6 0.20909 700.00 0.0014286 -76.682 64.403 -0.35959 1.4239 1.9655 2019.7 -0.0074781 1044.6 0.20909
-112.62 14645. undefined -75.257 68.991 -0.35069 700.00 0.0014286 -75.257 68.991 -0.35069 1.4261 1.9661 2021.9 -0.0074755 1036.6 0.20942 700.00 0.0014286 -75.257 68.991 -0.35069 1.4261 1.9661 2021.9 -0.0074755 1036.6 0.20942
-111.62 14965. undefined -73.829 73.572 -0.34183 700.00 0.0014286 -73.829 73.572 -0.34183 1.4283 1.9668 2024.0 -0.0074728 1028.8 0.20975 700.00 0.0014286 -73.829 73.572 -0.34183 1.4283 1.9668 2024.0 -0.0074728 1028.8 0.20975
-110.62 15284. undefined -72.400 78.147 -0.33300 700.00 0.0014286 -72.400 78.147 -0.33300 1.4306 1.9675 2026.1 -0.0074701 1021.1 0.21009 700.00 0.0014286 -72.400 78.147 -0.33300 1.4306 1.9675 2026.1 -0.0074701 1021.1 0.21009
-109.62 15603. undefined -70.968 82.714 -0.32422 700.00 0.0014286 -70.968 82.714 -0.32422 1.4328 1.9683 2028.2 -0.0074672 1013.7 0.21042 700.00 0.0014286 -70.968 82.714 -0.32422 1.4328 1.9683 2028.2 -0.0074672 1013.7 0.21042
-108.62 15920. undefined -69.534 87.275 -0.31548 700.00 0.0014286 -69.534 87.275 -0.31548 1.4350 1.9690 2030.3 -0.0074643 1006.3 0.21075 700.00 0.0014286 -69.534 87.275 -0.31548 1.4350 1.9690 2030.3 -0.0074643 1006.3 0.21075
-107.62 16237. undefined -68.098 91.829 -0.30678 700.00 0.0014286 -68.098 91.829 -0.30678 1.4373 1.9698 2032.4 -0.0074613 999.12 0.21109 700.00 0.0014286 -68.098 91.829 -0.30678 1.4373 1.9698 2032.4 -0.0074613 999.12 0.21109
-106.62 16553. undefined -66.660 96.377 -0.29811 700.00 0.0014286 -66.660 96.377 -0.29811 1.4396 1.9706 2034.4 -0.0074583 992.08 0.21142 700.00 0.0014286 -66.660 96.377 -0.29811 1.4396 1.9706 2034.4 -0.0074583 992.08 0.21142
-105.62 16867. undefined -65.219 100.92 -0.28949 700.00 0.0014286 -65.219 100.92 -0.28949 1.4418 1.9714 2036.5 -0.0074551 985.18 0.21175 700.00 0.0014286 -65.219 100.92 -0.28949 1.4418 1.9714 2036.5 -0.0074551 985.18 0.21175
-104.62 17181. undefined -63.776 105.45 -0.28090 700.00 0.0014286 -63.776 105.45 -0.28090 1.4441 1.9723 2038.5 -0.0074519 978.41 0.21209 700.00 0.0014286 -63.776 105.45 -0.28090 1.4441 1.9723 2038.5 -0.0074519 978.41 0.21209
-103.62 17494. undefined -62.331 109.98 -0.27235 700.00 0.0014286 -62.331 109.98 -0.27235 1.4464 1.9731 2040.5 -0.0074486 971.78 0.21242 700.00 0.0014286 -62.331 109.98 -0.27235 1.4464 1.9731 2040.5 -0.0074486 971.78 0.21242
-102.62 17807. undefined -60.883 114.51 -0.26384 700.00 0.0014286 -60.883 114.51 -0.26384 1.4487 1.9740 2042.5 -0.0074452 965.27 0.21276 700.00 0.0014286 -60.883 114.51 -0.26384 1.4487 1.9740 2042.5 -0.0074452 965.27 0.21276
-101.62 18118. undefined -59.433 119.02 -0.25536 700.00 0.0014286 -59.433 119.02 -0.25536 1.4510 1.9749 2044.5 -0.0074418 958.90 0.21309 700.00 0.0014286 -59.433 119.02 -0.25536 1.4510 1.9749 2044.5 -0.0074418 958.90 0.21309
-100.62 18428. undefined -57.981 123.53 -0.24692 700.00 0.0014286 -57.981 123.53 -0.24692 1.4534 1.9758 2046.4 -0.0074382 952.64 0.21343 700.00 0.0014286 -57.981 123.53 -0.24692 1.4534 1.9758 2046.4 -0.0074382 952.64 0.21343
-99.625 18738. undefined -56.527 128.04 -0.23851 700.00 0.0014286 -56.527 128.04 -0.23851 1.4557 1.9768 2048.4 -0.0074346 946.51 0.21376 700.00 0.0014286 -56.527 128.04 -0.23851 1.4557 1.9768 2048.4 -0.0074346 946.51 0.21376
-98.625 19047. undefined -55.070 132.54 -0.23014 700.00 0.0014286 -55.070 132.54 -0.23014 1.4581 1.9777 2050.3 -0.0074309 940.49 0.21410 700.00 0.0014286 -55.070 132.54 -0.23014 1.4581 1.9777 2050.3 -0.0074309 940.49 0.21410
-97.625 19355. undefined -53.610 137.03 -0.22180 700.00 0.0014286 -53.610 137.03 -0.22180 1.4604 1.9787 2052.2 -0.0074271 934.58 0.21444 700.00 0.0014286 -53.610 137.03 -0.22180 1.4604 1.9787 2052.2 -0.0074271 934.58 0.21444
-96.625 19662. undefined -52.149 141.52 -0.21350 700.00 0.0014286 -52.149 141.52 -0.21350 1.4628 1.9798 2054.1 -0.0074233 928.79 0.21477 700.00 0.0014286 -52.149 141.52 -0.21350 1.4628 1.9798 2054.1 -0.0074233 928.79 0.21477
-95.625 19969. undefined -50.685 146.00 -0.20523 700.00 0.0014286 -50.685 146.00 -0.20523 1.4652 1.9808 2056.0 -0.0074193 923.10 0.21511 700.00 0.0014286 -50.685 146.00 -0.20523 1.4652 1.9808 2056.0 -0.0074193 923.10 0.21511
-94.625 20274. undefined -49.218 150.47 -0.19699 700.00 0.0014286 -49.218 150.47 -0.19699 1.4676 1.9819 2057.9 -0.0074153 917.51 0.21545 700.00 0.0014286 -49.218 150.47 -0.19699 1.4676 1.9819 2057.9 -0.0074153 917.51 0.21545
-93.625 20579. undefined -47.750 154.94 -0.18878 700.00 0.0014286 -47.750 154.94 -0.18878 1.4701 1.9829 2059.8 -0.0074112 912.03 0.21579 700.00 0.0014286 -47.750 154.94 -0.18878 1.4701 1.9829 2059.8 -0.0074112 912.03 0.21579
-92.625 20883. undefined -46.278 159.41 -0.18061 700.00 0.0014286 -46.278 159.41 -0.18061 1.4725 1.9841 2061.6 -0.0074070 906.65 0.21612 700.00 0.0014286 -46.278 159.41 -0.18061 1.4725 1.9841 2061.6 -0.0074070 906.65 0.21612
-91.625 21186. undefined -44.805 163.87 -0.17247 700.00 0.0014286 -44.805 163.87 -0.17247 1.4750 1.9852 2063.5 -0.0074027 901.36 0.21646 700.00 0.0014286 -44.805 163.87 -0.17247 1.4750 1.9852 2063.5 -0.0074027 901.36 0.21646
-90.625 21488. undefined -43.328 168.32 -0.16436 700.00 0.0014286 -43.328 168.32 -0.16436 1.4774 1.9863 2065.3 -0.0073984 896.17 0.21680 700.00 0.0014286 -43.328 168.32 -0.16436 1.4774 1.9863 2065.3 -0.0073984 896.17 0.21680
-89.625 21790. undefined -41.850 172.77 -0.15628 700.00 0.0014286 -41.850 172.77 -0.15628 1.4799 1.9875 2067.1 -0.0073939 891.07 0.21714 700.00 0.0014286 -41.850 172.77 -0.15628 1.4799 1.9875 2067.1 -0.0073939 891.07 0.21714
-88.625 22091. undefined -40.369 177.22 -0.14823 700.00 0.0014286 -40.369 177.22 -0.14823 1.4824 1.9887 2068.9 -0.0073894 886.05 0.21748 700.00 0.0014286 -40.369 177.22 -0.14823 1.4824 1.9887 2068.9 -0.0073894 886.05 0.21748
-87.625 22391. undefined -38.885 181.65 -0.14021 700.00 0.0014286 -38.885 181.65 -0.14021 1.4849 1.9899 2070.7 -0.0073848 881.13 0.21782 700.00 0.0014286 -38.885 181.65 -0.14021 1.4849 1.9899 2070.7 -0.0073848 881.13 0.21782
-86.625 22690. undefined -37.399 186.09 -0.13223 700.00 0.0014286 -37.399 186.09 -0.13223 1.4874 1.9912 2072.4 -0.0073801 876.29 0.21816 700.00 0.0014286 -37.399 186.09 -0.13223 1.4874 1.9912 2072.4 -0.0073801 876.29 0.21816
-85.625 22988. undefined -35.910 190.52 -0.12427 700.00 0.0014286 -35.910 190.52 -0.12427 1.4900 1.9925 2074.2 -0.0073754 871.53 0.21850 700.00 0.0014286 -35.910 190.52 -0.12427 1.4900 1.9925 2074.2 -0.0073754 871.53 0.21850
-84.625 23286. undefined -34.419 194.94 -0.11633 700.00 0.0014286 -34.419 194.94 -0.11633 1.4925 1.9938 2076.0 -0.0073705 866.86 0.21884 700.00 0.0014286 -34.419 194.94 -0.11633 1.4925 1.9938 2076.0 -0.0073705 866.86 0.21884
-83.625 23583. undefined -32.925 199.36 -0.10843 700.00 0.0014286 -32.925 199.36 -0.10843 1.4951 1.9951 2077.7 -0.0073656 862.26 0.21918 700.00 0.0014286 -32.925 199.36 -0.10843 1.4951 1.9951 2077.7 -0.0073656 862.26 0.21918
-82.625 23879. undefined -31.429 203.77 -0.10056 700.00 0.0014286 -31.429 203.77 -0.10056 1.4977 1.9964 2079.4 -0.0073606 857.74 0.21952 700.00 0.0014286 -31.429 203.77 -0.10056 1.4977 1.9964 2079.4 -0.0073606 857.74 0.21952
-81.625 24175. undefined -29.930 208.18 -0.092710 700.00 0.0014286 -29.930 208.18 -0.092710 1.5003 1.9978 2081.1 -0.0073555 853.30 0.21986 700.00 0.0014286 -29.930 208.18 -0.092710 1.5003 1.9978 2081.1 -0.0073555 853.30 0.21986
-80.625 24469. undefined -28.428 212.59 -0.084890 700.00 0.0014286 -28.428 212.59 -0.084890 1.5029 1.9992 2082.8 -0.0073503 848.93 0.22020 700.00 0.0014286 -28.428 212.59 -0.084890 1.5029 1.9992 2082.8 -0.0073503 848.93 0.22020
-79.625 24763. undefined -26.924 216.99 -0.077097 700.00 0.0014286 -26.924 216.99 -0.077097 1.5055 2.0006 2084.5 -0.0073451 844.63 0.22054 700.00 0.0014286 -26.924 216.99 -0.077097 1.5055 2.0006 2084.5 -0.0073451 844.63 0.22054
-78.625 25057. undefined -25.417 221.38 -0.069331 700.00 0.0014286 -25.417 221.38 -0.069331 1.5082 2.0021 2086.2 -0.0073397 840.41 0.22089 700.00 0.0014286 -25.417 221.38 -0.069331 1.5082 2.0021 2086.2 -0.0073397 840.41 0.22089
-77.625 25349. undefined -23.907 225.77 -0.061591 700.00 0.0014286 -23.907 225.77 -0.061591 1.5109 2.0035 2087.9 -0.0073343 836.25 0.22123 700.00 0.0014286 -23.907 225.77 -0.061591 1.5109 2.0035 2087.9 -0.0073343 836.25 0.22123
-76.625 25641. undefined -22.395 230.16 -0.053876 700.00 0.0014286 -22.395 230.16 -0.053876 1.5135 2.0050 2089.5 -0.0073288 832.16 0.22157 700.00 0.0014286 -22.395 230.16 -0.053876 1.5135 2.0050 2089.5 -0.0073288 832.16 0.22157
-75.625 25932. undefined -20.880 234.54 -0.046187 700.00 0.0014286 -20.880 234.54 -0.046187 1.5162 2.0065 2091.2 -0.0073232 828.13 0.22191 700.00 0.0014286 -20.880 234.54 -0.046187 1.5162 2.0065 2091.2 -0.0073232 828.13 0.22191
-74.625 26223. undefined -19.363 238.92 -0.038524 700.00 0.0014286 -19.363 238.92 -0.038524 1.5189 2.0081 2092.8 -0.0073176 824.17 0.22226 700.00 0.0014286 -19.363 238.92 -0.038524 1.5189 2.0081 2092.8 -0.0073176 824.17 0.22226
-73.625 26512. undefined -17.842 243.30 -0.030885 700.00 0.0014286 -17.842 243.30 -0.030885 1.5217 2.0096 2094.4 -0.0073118 820.28 0.22260 700.00 0.0014286 -17.842 243.30 -0.030885 1.5217 2.0096 2094.4 -0.0073118 820.28 0.22260
-72.625 26801. undefined -16.319 247.66 -0.023271 700.00 0.0014286 -16.319 247.66 -0.023271 1.5244 2.0112 2096.0 -0.0073060 816.44 0.22294 700.00 0.0014286 -16.319 247.66 -0.023271 1.5244 2.0112 2096.0 -0.0073060 816.44 0.22294
-71.625 27090. undefined -14.794 252.03 -0.015681 700.00 0.0014286 -14.794 252.03 -0.015681 1.5272 2.0128 2097.6 -0.0073001 812.66 0.22329 700.00 0.0014286 -14.794 252.03 -0.015681 1.5272 2.0128 2097.6 -0.0073001 812.66 0.22329
-70.625 27377. undefined -13.265 256.39 -0.0081144 700.00 0.0014286 -13.265 256.39 -0.0081144 1.5300 2.0145 2099.2 -0.0072941 808.95 0.22363 700.00 0.0014286 -13.265 256.39 -0.0081144 1.5300 2.0145 2099.2 -0.0072941 808.95 0.22363
-69.625 27664. undefined -11.734 260.75 -0.00057168 700.00 0.0014286 -11.734 260.75 -0.00057168 1.5328 2.0161 2100.8 -0.0072880 805.29 0.22398 700.00 0.0014286 -11.734 260.75 -0.00057168 1.5328 2.0161 2100.8 -0.0072880 805.29 0.22398
-68.625 27950. undefined -10.199 265.10 0.0069478 700.00 0.0014286 -10.199 265.10 0.0069478 1.5356 2.0178 2102.3 -0.0072819 801.68 0.22432 700.00 0.0014286 -10.199 265.10 0.0069478 1.5356 2.0178 2102.3 -0.0072819 801.68 0.22432
-67.625 28236. undefined -8.6625 269.45 0.014444 700.00 0.0014286 -8.6625 269.45 0.014444 1.5384 2.0195 2103.9 -0.0072757 798.14 0.22467 700.00 0.0014286 -8.6625 269.45 0.014444 1.5384 2.0195 2103.9 -0.0072757 798.14 0.22467
-66.625 28521. undefined -7.1226 273.80 0.021918 700.00 0.0014286 -7.1226 273.80 0.021918 1.5413 2.0212 2105.4 -0.0072694 794.64 0.22501 700.00 0.0014286 -7.1226 273.80 0.021918 1.5413 2.0212 2105.4 -0.0072694 794.64 0.22501
-65.625 28805. undefined -5.5800 278.14 0.029370 700.00 0.0014286 -5.5800 278.14 0.029370 1.5441 2.0230 2107.0 -0.0072630 791.20 0.22536 700.00 0.0014286 -5.5800 278.14 0.029370 1.5441 2.0230 2107.0 -0.0072630 791.20 0.22536
-64.625 29089. undefined -4.0344 282.48 0.036800 700.00 0.0014286 -4.0344 282.48 0.036800 1.5470 2.0248 2108.5 -0.0072566 787.81 0.22570 700.00 0.0014286 -4.0344 282.48 0.036800 1.5470 2.0248 2108.5 -0.0072566 787.81 0.22570
-63.625 29372. undefined -2.4860 286.81 0.044208 700.00 0.0014286 -2.4860 286.81 0.044208 1.5499 2.0266 2110.0 -0.0072501 784.47 0.22605 700.00 0.0014286 -2.4860 286.81 0.044208 1.5499 2.0266 2110.0 -0.0072501 784.47 0.22605
-62.625 29654. undefined -0.93462 291.15 0.051594 700.00 0.0014286 -0.93462 291.15 0.051594 1.5528 2.0284 2111.5 -0.0072435 781.18 0.22640 700.00 0.0014286 -0.93462 291.15 0.051594 1.5528 2.0284 2111.5 -0.0072435 781.18 0.22640
-61.625 29936. undefined 0.61965 295.47 0.058960 700.00 0.0014286 0.61965 295.47 0.058960 1.5557 2.0303 2113.0 -0.0072368 777.94 0.22674 700.00 0.0014286 0.61965 295.47 0.058960 1.5557 2.0303 2113.0 -0.0072368 777.94 0.22674
-60.625 30216. undefined 2.1769 299.80 0.066304 700.00 0.0014286 2.1769 299.80 0.066304 1.5587 2.0321 2114.5 -0.0072300 774.75 0.22709 700.00 0.0014286 2.1769 299.80 0.066304 1.5587 2.0321 2114.5 -0.0072300 774.75 0.22709
-59.625 30497. undefined 3.7370 304.12 0.073628 700.00 0.0014286 3.7370 304.12 0.073628 1.5617 2.0340 2116.0 -0.0072232 771.60 0.22744 700.00 0.0014286 3.7370 304.12 0.073628 1.5617 2.0340 2116.0 -0.0072232 771.60 0.22744
-58.625 30776. undefined 5.3002 308.44 0.080931 700.00 0.0014286 5.3002 308.44 0.080931 1.5646 2.0360 2117.5 -0.0072163 768.50 0.22779 700.00 0.0014286 5.3002 308.44 0.080931 1.5646 2.0360 2117.5 -0.0072163 768.50 0.22779
-57.625 31055. undefined 6.8663 312.75 0.088215 700.00 0.0014286 6.8663 312.75 0.088215 1.5676 2.0379 2118.9 -0.0072094 765.45 0.22814 700.00 0.0014286 6.8663 312.75 0.088215 1.5676 2.0379 2118.9 -0.0072094 765.45 0.22814
-56.625 31334. undefined 8.4354 317.06 0.095479 700.00 0.0014286 8.4354 317.06 0.095479 1.5706 2.0399 2120.4 -0.0072023 762.44 0.22848 700.00 0.0014286 8.4354 317.06 0.095479 1.5706 2.0399 2120.4 -0.0072023 762.44 0.22848
-55.625 31612. undefined 10.008 321.37 0.10272 700.00 0.0014286 10.008 321.37 0.10272 1.5737 2.0419 2121.8 -0.0071952 759.47 0.22883 700.00 0.0014286 10.008 321.37 0.10272 1.5737 2.0419 2121.8 -0.0071952 759.47 0.22883
-54.625 31889. undefined 11.583 325.68 0.10995 700.00 0.0014286 11.583 325.68 0.10995 1.5767 2.0439 2123.3 -0.0071881 756.54 0.22918 700.00 0.0014286 11.583 325.68 0.10995 1.5767 2.0439 2123.3 -0.0071881 756.54 0.22918
-53.625 32165. undefined 13.161 329.98 0.11715 700.00 0.0014286 13.161 329.98 0.11715 1.5798 2.0460 2124.7 -0.0071808 753.66 0.22953 700.00 0.0014286 13.161 329.98 0.11715 1.5798 2.0460 2124.7 -0.0071808 753.66 0.22953
-52.625 32441. undefined 14.742 334.28 0.12434 700.00 0.0014286 14.742 334.28 0.12434 1.5829 2.0480 2126.1 -0.0071735 750.81 0.22988 700.00 0.0014286 14.742 334.28 0.12434 1.5829 2.0480 2126.1 -0.0071735 750.81 0.22988
-51.625 32717. undefined 16.327 338.57 0.13151 700.00 0.0014286 16.327 338.57 0.13151 1.5860 2.0501 2127.5 -0.0071661 748.01 0.23023 700.00 0.0014286 16.327 338.57 0.13151 1.5860 2.0501 2127.5 -0.0071661 748.01 0.23023
-50.625 32991. undefined 17.914 342.87 0.13866 700.00 0.0014286 17.914 342.87 0.13866 1.5891 2.0522 2128.9 -0.0071587 745.25 0.23058 700.00 0.0014286 17.914 342.87 0.13866 1.5891 2.0522 2128.9 -0.0071587 745.25 0.23058
-49.625 33265. undefined 19.505 347.16 0.14579 700.00 0.0014286 19.505 347.16 0.14579 1.5922 2.0544 2130.3 -0.0071512 742.52 0.23093 700.00 0.0014286 19.505 347.16 0.14579 1.5922 2.0544 2130.3 -0.0071512 742.52 0.23093
-48.625 33539. undefined 21.099 351.44 0.15291 700.00 0.0014286 21.099 351.44 0.15291 1.5954 2.0565 2131.7 -0.0071436 739.83 0.23128 700.00 0.0014286 21.099 351.44 0.15291 1.5954 2.0565 2131.7 -0.0071436 739.83 0.23128
-47.625 33812. undefined 22.696 355.73 0.16000 700.00 0.0014286 22.696 355.73 0.16000 1.5985 2.0587 2133.1 -0.0071359 737.18 0.23163 700.00 0.0014286 22.696 355.73 0.16000 1.5985 2.0587 2133.1 -0.0071359 737.18 0.23163
-46.625 34084. undefined 24.296 360.01 0.16708 700.00 0.0014286 24.296 360.01 0.16708 1.6017 2.0609 2134.5 -0.0071282 734.56 0.23198 700.00 0.0014286 24.296 360.01 0.16708 1.6017 2.0609 2134.5 -0.0071282 734.56 0.23198
-45.625 34356. undefined 25.899 364.29 0.17414 700.00 0.0014286 25.899 364.29 0.17414 1.6049 2.0631 2135.8 -0.0071205 731.98 0.23234 700.00 0.0014286 25.899 364.29 0.17414 1.6049 2.0631 2135.8 -0.0071205 731.98 0.23234
-44.625 34627. undefined 27.506 368.57 0.18119 700.00 0.0014286 27.506 368.57 0.18119 1.6081 2.0654 2137.2 -0.0071126 729.44 0.23269 700.00 0.0014286 27.506 368.57 0.18119 1.6081 2.0654 2137.2 -0.0071126 729.44 0.23269
-43.625 34897. undefined 29.115 372.84 0.18822 700.00 0.0014286 29.115 372.84 0.18822 1.6114 2.0677 2138.5 -0.0071047 726.93 0.23304 700.00 0.0014286 29.115 372.84 0.18822 1.6114 2.0677 2138.5 -0.0071047 726.93 0.23304
-42.625 35167. undefined 30.728 377.11 0.19523 700.00 0.0014286 30.728 377.11 0.19523 1.6146 2.0700 2139.9 -0.0070968 724.45 0.23339 700.00 0.0014286 30.728 377.11 0.19523 1.6146 2.0700 2139.9 -0.0070968 724.45 0.23339
-41.625 35437. undefined 32.345 381.38 0.20223 700.00 0.0014286 32.345 381.38 0.20223 1.6179 2.0723 2141.2 -0.0070888 722.00 0.23375 700.00 0.0014286 32.345 381.38 0.20223 1.6179 2.0723 2141.2 -0.0070888 722.00 0.23375
-40.625 35705. undefined 33.964 385.65 0.20921 700.00 0.0014286 33.964 385.65 0.20921 1.6211 2.0746 2142.5 -0.0070807 719.59 0.23410 700.00 0.0014286 33.964 385.65 0.20921 1.6211 2.0746 2142.5 -0.0070807 719.59 0.23410
-39.625 35974. undefined 35.587 389.92 0.21617 700.00 0.0014286 35.587 389.92 0.21617 1.6244 2.0770 2143.9 -0.0070726 717.21 0.23445 700.00 0.0014286 35.587 389.92 0.21617 1.6244 2.0770 2143.9 -0.0070726 717.21 0.23445
-38.625 36241. undefined 37.213 394.18 0.22312 700.00 0.0014286 37.213 394.18 0.22312 1.6277 2.0793 2145.2 -0.0070644 714.86 0.23481 700.00 0.0014286 37.213 394.18 0.22312 1.6277 2.0793 2145.2 -0.0070644 714.86 0.23481
-37.625 36509. undefined 38.842 398.44 0.23005 700.00 0.0014286 38.842 398.44 0.23005 1.6311 2.0818 2146.5 -0.0070561 712.54 0.23516 700.00 0.0014286 38.842 398.44 0.23005 1.6311 2.0818 2146.5 -0.0070561 712.54 0.23516
-36.625 36775. undefined 40.475 402.70 0.23697 700.00 0.0014286 40.475 402.70 0.23697 1.6344 2.0842 2147.8 -0.0070479 710.26 0.23551 700.00 0.0014286 40.475 402.70 0.23697 1.6344 2.0842 2147.8 -0.0070479 710.26 0.23551
-35.625 37041. undefined 42.111 406.95 0.24387 700.00 0.0014286 42.111 406.95 0.24387 1.6378 2.0866 2149.1 -0.0070395 708.00 0.23587 700.00 0.0014286 42.111 406.95 0.24387 1.6378 2.0866 2149.1 -0.0070395 708.00 0.23587
-34.625 37307. undefined 43.751 411.21 0.25076 700.00 0.0014286 43.751 411.21 0.25076 1.6411 2.0891 2150.4 -0.0070311 705.77 0.23622 700.00 0.0014286 43.751 411.21 0.25076 1.6411 2.0891 2150.4 -0.0070311 705.77 0.23622
-33.625 37571. undefined 45.393 415.46 0.25763 700.00 0.0014286 45.393 415.46 0.25763 1.6445 2.0916 2151.6 -0.0070227 703.57 0.23658 700.00 0.0014286 45.393 415.46 0.25763 1.6445 2.0916 2151.6 -0.0070227 703.57 0.23658
-32.625 37836. undefined 47.040 419.71 0.26449 700.00 0.0014286 47.040 419.71 0.26449 1.6479 2.0941 2152.9 -0.0070142 701.40 0.23693 700.00 0.0014286 47.040 419.71 0.26449 1.6479 2.0941 2152.9 -0.0070142 701.40 0.23693
-31.625 38100. undefined 48.689 423.96 0.27134 700.00 0.0014286 48.689 423.96 0.27134 1.6513 2.0966 2154.2 -0.0070056 699.25 0.23729 700.00 0.0014286 48.689 423.96 0.27134 1.6513 2.0966 2154.2 -0.0070056 699.25 0.23729
-30.625 38363. undefined 50.342 428.20 0.27817 700.00 0.0014286 50.342 428.20 0.27817 1.6548 2.0992 2155.4 -0.0069970 697.13 0.23765 700.00 0.0014286 50.342 428.20 0.27817 1.6548 2.0992 2155.4 -0.0069970 697.13 0.23765
-29.625 38626. undefined 51.999 432.45 0.28498 700.00 0.0014286 51.999 432.45 0.28498 1.6582 2.1017 2156.7 -0.0069884 695.04 0.23800 700.00 0.0014286 51.999 432.45 0.28498 1.6582 2.1017 2156.7 -0.0069884 695.04 0.23800
-28.625 38888. undefined 53.659 436.69 0.29178 700.00 0.0014286 53.659 436.69 0.29178 1.6617 2.1043 2158.0 -0.0069797 692.98 0.23836 700.00 0.0014286 53.659 436.69 0.29178 1.6617 2.1043 2158.0 -0.0069797 692.98 0.23836
-27.625 39150. undefined 55.322 440.93 0.29857 700.00 0.0014286 55.322 440.93 0.29857 1.6651 2.1069 2159.2 -0.0069709 690.94 0.23872 700.00 0.0014286 55.322 440.93 0.29857 1.6651 2.1069 2159.2 -0.0069709 690.94 0.23872
-26.625 39411. undefined 56.989 445.17 0.30535 700.00 0.0014286 56.989 445.17 0.30535 1.6686 2.1096 2160.4 -0.0069621 688.93 0.23907 700.00 0.0014286 56.989 445.17 0.30535 1.6686 2.1096 2160.4 -0.0069621 688.93 0.23907
-25.625 39671. undefined 58.659 449.41 0.31211 700.00 0.0014286 58.659 449.41 0.31211 1.6721 2.1122 2161.7 -0.0069533 686.94 0.23943 700.00 0.0014286 58.659 449.41 0.31211 1.6721 2.1122 2161.7 -0.0069533 686.94 0.23943
-24.625 39931. undefined 60.333 453.64 0.31886 700.00 0.0014286 60.333 453.64 0.31886 1.6756 2.1149 2162.9 -0.0069444 684.97 0.23979 700.00 0.0014286 60.333 453.64 0.31886 1.6756 2.1149 2162.9 -0.0069444 684.97 0.23979
-23.625 40191. undefined 62.011 457.88 0.32559 700.00 0.0014286 62.011 457.88 0.32559 1.6792 2.1176 2164.1 -0.0069355 683.03 0.24015 700.00 0.0014286 62.011 457.88 0.32559 1.6792 2.1176 2164.1 -0.0069355 683.03 0.24015
-22.625 40450. undefined 63.692 462.11 0.33232 700.00 0.0014286 63.692 462.11 0.33232 1.6827 2.1203 2165.3 -0.0069266 681.12 0.24050 700.00 0.0014286 63.692 462.11 0.33232 1.6827 2.1203 2165.3 -0.0069266 681.12 0.24050
-21.625 40709. undefined 65.376 466.34 0.33903 700.00 0.0014286 65.376 466.34 0.33903 1.6863 2.1230 2166.6 -0.0069176 679.22 0.24086 700.00 0.0014286 65.376 466.34 0.33903 1.6863 2.1230 2166.6 -0.0069176 679.22 0.24086
-20.625 40967. undefined 67.064 470.57 0.34573 700.00 0.0014286 67.064 470.57 0.34573 1.6898 2.1257 2167.8 -0.0069085 677.35 0.24122 700.00 0.0014286 67.064 470.57 0.34573 1.6898 2.1257 2167.8 -0.0069085 677.35 0.24122
-19.625 41224. undefined 68.756 474.80 0.35241 700.00 0.0014286 68.756 474.80 0.35241 1.6934 2.1285 2169.0 -0.0068995 675.51 0.24158 700.00 0.0014286 68.756 474.80 0.35241 1.6934 2.1285 2169.0 -0.0068995 675.51 0.24158
-18.625 41481. undefined 70.451 479.03 0.35908 700.00 0.0014286 70.451 479.03 0.35908 1.6970 2.1313 2170.2 -0.0068904 673.68 0.24194 700.00 0.0014286 70.451 479.03 0.35908 1.6970 2.1313 2170.2 -0.0068904 673.68 0.24194
-17.625 41738. undefined 72.150 483.25 0.36575 700.00 0.0014286 72.150 483.25 0.36575 1.7006 2.1341 2171.4 -0.0068812 671.88 0.24230 700.00 0.0014286 72.150 483.25 0.36575 1.7006 2.1341 2171.4 -0.0068812 671.88 0.24230
-16.625 41994. undefined 73.852 487.48 0.37239 700.00 0.0014286 73.852 487.48 0.37239 1.7042 2.1369 2172.6 -0.0068720 670.10 0.24266 700.00 0.0014286 73.852 487.48 0.37239 1.7042 2.1369 2172.6 -0.0068720 670.10 0.24266
-15.625 42250. undefined 75.558 491.70 0.37903 700.00 0.0014286 75.558 491.70 0.37903 1.7079 2.1397 2173.7 -0.0068628 668.34 0.24302 700.00 0.0014286 75.558 491.70 0.37903 1.7079 2.1397 2173.7 -0.0068628 668.34 0.24302
-14.625 42505. undefined 77.268 495.92 0.38566 700.00 0.0014286 77.268 495.92 0.38566 1.7115 2.1426 2174.9 -0.0068536 666.60 0.24338 700.00 0.0014286 77.268 495.92 0.38566 1.7115 2.1426 2174.9 -0.0068536 666.60 0.24338
-13.625 42759. undefined 78.981 500.15 0.39227 700.00 0.0014286 78.981 500.15 0.39227 1.7152 2.1455 2176.1 -0.0068443 664.88 0.24374 700.00 0.0014286 78.981 500.15 0.39227 1.7152 2.1455 2176.1 -0.0068443 664.88 0.24374
-12.625 43013. undefined 80.698 504.37 0.39888 700.00 0.0014286 80.698 504.37 0.39888 1.7188 2.1484 2177.3 -0.0068350 663.18 0.24410 700.00 0.0014286 80.698 504.37 0.39888 1.7188 2.1484 2177.3 -0.0068350 663.18 0.24410
-11.625 43267. undefined 82.419 508.58 0.40547 700.00 0.0014286 82.419 508.58 0.40547 1.7225 2.1513 2178.4 -0.0068256 661.50 0.24447 700.00 0.0014286 82.419 508.58 0.40547 1.7225 2.1513 2178.4 -0.0068256 661.50 0.24447
-10.625 43520. undefined 84.143 512.80 0.41205 700.00 0.0014286 84.143 512.80 0.41205 1.7262 2.1542 2179.6 -0.0068163 659.84 0.24483 700.00 0.0014286 84.143 512.80 0.41205 1.7262 2.1542 2179.6 -0.0068163 659.84 0.24483
-9.6250 43773. undefined 85.871 517.02 0.41862 700.00 0.0014286 85.871 517.02 0.41862 1.7299 2.1571 2180.7 -0.0068069 658.20 0.24519 700.00 0.0014286 85.871 517.02 0.41862 1.7299 2.1571 2180.7 -0.0068069 658.20 0.24519
-8.6250 44025. undefined 87.603 521.24 0.42518 700.00 0.0014286 87.603 521.24 0.42518 1.7336 2.1601 2181.9 -0.0067975 656.58 0.24555 700.00 0.0014286 87.603 521.24 0.42518 1.7336 2.1601 2181.9 -0.0067975 656.58 0.24555
-7.6250 44277. undefined 89.338 525.45 0.43173 700.00 0.0014286 89.338 525.45 0.43173 1.7373 2.1630 2183.1 -0.0067880 654.97 0.24591 700.00 0.0014286 89.338 525.45 0.43173 1.7373 2.1630 2183.1 -0.0067880 654.97 0.24591
-6.6250 44528. undefined 91.078 529.66 0.43826 700.00 0.0014286 91.078 529.66 0.43826 1.7411 2.1660 2184.2 -0.0067785 653.39 0.24628 700.00 0.0014286 91.078 529.66 0.43826 1.7411 2.1660 2184.2 -0.0067785 653.39 0.24628
-5.6250 44779. undefined 92.821 533.88 0.44479 700.00 0.0014286 92.821 533.88 0.44479 1.7448 2.1690 2185.3 -0.0067690 651.82 0.24664 700.00 0.0014286 92.821 533.88 0.44479 1.7448 2.1690 2185.3 -0.0067690 651.82 0.24664
-4.6250 45029. undefined 94.567 538.09 0.45131 700.00 0.0014286 94.567 538.09 0.45131 1.7486 2.1720 2186.5 -0.0067595 650.27 0.24701 700.00 0.0014286 94.567 538.09 0.45131 1.7486 2.1720 2186.5 -0.0067595 650.27 0.24701
-3.6250 45279. undefined 96.318 542.30 0.45782 700.00 0.0014286 96.318 542.30 0.45782 1.7524 2.1751 2187.6 -0.0067499 648.74 0.24737 700.00 0.0014286 96.318 542.30 0.45782 1.7524 2.1751 2187.6 -0.0067499 648.74 0.24737
-2.6250 45529. undefined 98.072 546.51 0.46431 700.00 0.0014286 98.072 546.51 0.46431 1.7561 2.1781 2188.7 -0.0067404 647.23 0.24773 700.00 0.0014286 98.072 546.51 0.46431 1.7561 2.1781 2188.7 -0.0067404 647.23 0.24773
-1.6250 45778. undefined 99.830 550.72 0.47080 700.00 0.0014286 99.830 550.72 0.47080 1.7599 2.1812 2189.9 -0.0067308 645.73 0.24810 700.00 0.0014286 99.830 550.72 0.47080 1.7599 2.1812 2189.9 -0.0067308 645.73 0.24810
-0.62500 46026. undefined 101.59 554.93 0.47728 700.00 0.0014286 101.59 554.93 0.47728 1.7637 2.1843 2191.0 -0.0067212 644.25 0.24846 700.00 0.0014286 101.59 554.93 0.47728 1.7637 2.1843 2191.0 -0.0067212 644.25 0.24846
0.37500 46274. undefined 103.36 559.14 0.48374 700.00 0.0014286 103.36 559.14 0.48374 1.7676 2.1874 2192.1 -0.0067115 642.79 0.24883 700.00 0.0014286 103.36 559.14 0.48374 1.7676 2.1874 2192.1 -0.0067115 642.79 0.24883
1.3750 46522. undefined 105.13 563.35 0.49020 700.00 0.0014286 105.13 563.35 0.49020 1.7714 2.1905 2193.2 -0.0067019 641.34 0.24919 700.00 0.0014286 105.13 563.35 0.49020 1.7714 2.1905 2193.2 -0.0067019 641.34 0.24919
2.3750 46769. undefined 106.90 567.56 0.49665 700.00 0.0014286 106.90 567.56 0.49665 1.7752 2.1936 2194.3 -0.0066922 639.91 0.24956 700.00 0.0014286 106.90 567.56 0.49665 1.7752 2.1936 2194.3 -0.0066922 639.91 0.24956
3.3750 47016. undefined 108.68 571.77 0.50309 700.00 0.0014286 108.68 571.77 0.50309 1.7791 2.1967 2195.4 -0.0066825 638.49 0.24992 700.00 0.0014286 108.68 571.77 0.50309 1.7791 2.1967 2195.4 -0.0066825 638.49 0.24992
4.3750 47262. undefined 110.46 575.97 0.50951 700.00 0.0014286 110.46 575.97 0.50951 1.7829 2.1999 2196.5 -0.0066728 637.09 0.25029 700.00 0.0014286 110.46 575.97 0.50951 1.7829 2.1999 2196.5 -0.0066728 637.09 0.25029
5.3750 47508. undefined 112.24 580.18 0.51593 700.00 0.0014286 112.24 580.18 0.51593 1.7868 2.2031 2197.6 -0.0066631 635.71 0.25066 700.00 0.0014286 112.24 580.18 0.51593 1.7868 2.2031 2197.6 -0.0066631 635.71 0.25066
6.3750 47753. undefined 114.03 584.39 0.52234 700.00 0.0014286 114.03 584.39 0.52234 1.7906 2.2062 2198.7 -0.0066533 634.34 0.25102 700.00 0.0014286 114.03 584.39 0.52234 1.7906 2.2062 2198.7 -0.0066533 634.34 0.25102
7.3750 47998. undefined 115.82 588.59 0.52875 700.00 0.0014286 115.82 588.59 0.52875 1.7945 2.2094 2199.8 -0.0066436 632.98 0.25139 700.00 0.0014286 115.82 588.59 0.52875 1.7945 2.2094 2199.8 -0.0066436 632.98 0.25139
8.3750 48243. undefined 117.62 592.80 0.53514 700.00 0.0014286 117.62 592.80 0.53514 1.7984 2.2126 2200.9 -0.0066338 631.64 0.25176 700.00 0.0014286 117.62 592.80 0.53514 1.7984 2.2126 2200.9 -0.0066338 631.64 0.25176
9.3750 48487. undefined 119.42 597.00 0.54152 700.00 0.0014286 119.42 597.00 0.54152 1.8023 2.2158 2202.0 -0.0066241 630.32 0.25213 700.00 0.0014286 119.42 597.00 0.54152 1.8023 2.2158 2202.0 -0.0066241 630.32 0.25213
10.375 48731. undefined 121.23 601.21 0.54790 700.00 0.0014286 121.23 601.21 0.54790 1.8062 2.2191 2203.1 -0.0066143 629.01 0.25249 700.00 0.0014286 121.23 601.21 0.54790 1.8062 2.2191 2203.1 -0.0066143 629.01 0.25249
11.375 48974. undefined 123.03 605.41 0.55426 700.00 0.0014286 123.03 605.41 0.55426 1.8101 2.2223 2204.2 -0.0066045 627.71 0.25286 700.00 0.0014286 123.03 605.41 0.55426 1.8101 2.2223 2204.2 -0.0066045 627.71 0.25286
12.375 49217. undefined 124.85 609.62 0.56062 700.00 0.0014286 124.85 609.62 0.56062 1.8141 2.2256 2205.3 -0.0065947 626.43 0.25323 700.00 0.0014286 124.85 609.62 0.56062 1.8141 2.2256 2205.3 -0.0065947 626.43 0.25323
13.375 49459. undefined 126.66 613.82 0.56697 700.00 0.0014286 126.66 613.82 0.56697 1.8180 2.2288 2206.3 -0.0065848 625.16 0.25360 700.00 0.0014286 126.66 613.82 0.56697 1.8180 2.2288 2206.3 -0.0065848 625.16 0.25360
14.375 49701. undefined 128.48 618.02 0.57331 700.00 0.0014286 128.48 618.02 0.57331 1.8219 2.2321 2207.4 -0.0065750 623.90 0.25397 700.00 0.0014286 128.48 618.02 0.57331 1.8219 2.2321 2207.4 -0.0065750 623.90 0.25397
15.375 49943. undefined 130.31 622.23 0.57964 700.00 0.0014286 130.31 622.23 0.57964 1.8259 2.2354 2208.5 -0.0065652 622.66 0.25434 700.00 0.0014286 130.31 622.23 0.57964 1.8259 2.2354 2208.5 -0.0065652 622.66 0.25434
16.375 50184. undefined 132.13 626.43 0.58597 700.00 0.0014286 132.13 626.43 0.58597 1.8298 2.2387 2209.5 -0.0065553 621.43 0.25471 700.00 0.0014286 132.13 626.43 0.58597 1.8298 2.2387 2209.5 -0.0065553 621.43 0.25471
17.375 50425. undefined 133.97 630.64 0.59228 700.00 0.0014286 133.97 630.64 0.59228 1.8338 2.2420 2210.6 -0.0065455 620.21 0.25508 700.00 0.0014286 133.97 630.64 0.59228 1.8338 2.2420 2210.6 -0.0065455 620.21 0.25508
18.375 50666. undefined 135.80 634.84 0.59859 700.00 0.0014286 135.80 634.84 0.59859 1.8378 2.2454 2211.7 -0.0065356 619.01 0.25545 700.00 0.0014286 135.80 634.84 0.59859 1.8378 2.2454 2211.7 -0.0065356 619.01 0.25545
19.375 50906. undefined 137.64 639.04 0.60489 700.00 0.0014286 137.64 639.04 0.60489 1.8418 2.2487 2212.7 -0.0065258 617.81 0.25582 700.00 0.0014286 137.64 639.04 0.60489 1.8418 2.2487 2212.7 -0.0065258 617.81 0.25582
20.375 51145. undefined 139.48 643.25 0.61118 700.00 0.0014286 139.48 643.25 0.61118 1.8457 2.2521 2213.8 -0.0065159 616.63 0.25619 700.00 0.0014286 139.48 643.25 0.61118 1.8457 2.2521 2213.8 -0.0065159 616.63 0.25619
21.375 51384. undefined 141.33 647.45 0.61747 700.00 0.0014286 141.33 647.45 0.61747 1.8497 2.2554 2214.8 -0.0065061 615.47 0.25656 700.00 0.0014286 141.33 647.45 0.61747 1.8497 2.2554 2214.8 -0.0065061 615.47 0.25656
22.375 51623. undefined 143.18 651.65 0.62375 700.00 0.0014286 143.18 651.65 0.62375 1.8537 2.2588 2215.9 -0.0064962 614.31 0.25693 700.00 0.0014286 143.18 651.65 0.62375 1.8537 2.2588 2215.9 -0.0064962 614.31 0.25693
23.375 51862. undefined 145.04 655.86 0.63001 700.00 0.0014286 145.04 655.86 0.63001 1.8577 2.2622 2216.9 -0.0064863 613.17 0.25731 700.00 0.0014286 145.04 655.86 0.63001 1.8577 2.2622 2216.9 -0.0064863 613.17 0.25731
24.375 52100. undefined 146.90 660.06 0.63628 700.00 0.0014286 146.90 660.06 0.63628 1.8618 2.2656 2218.0 -0.0064765 612.04 0.25768 700.00 0.0014286 146.90 660.06 0.63628 1.8618 2.2656 2218.0 -0.0064765 612.04 0.25768
25.375 52337. undefined 148.76 664.27 0.64253 700.00 0.0014286 148.76 664.27 0.64253 1.8658 2.2690 2219.0 -0.0064666 610.92 0.25805 700.00 0.0014286 148.76 664.27 0.64253 1.8658 2.2690 2219.0 -0.0064666 610.92 0.25805
26.375 52574. undefined 150.63 668.47 0.64878 700.00 0.0014286 150.63 668.47 0.64878 1.8698 2.2724 2220.1 -0.0064567 609.81 0.25842 700.00 0.0014286 150.63 668.47 0.64878 1.8698 2.2724 2220.1 -0.0064567 609.81 0.25842
27.375 52811. undefined 152.50 672.68 0.65501 700.00 0.0014286 152.50 672.68 0.65501 1.8738 2.2758 2221.1 -0.0064468 608.71 0.25880 700.00 0.0014286 152.50 672.68 0.65501 1.8738 2.2758 2221.1 -0.0064468 608.71 0.25880
28.375 53048. undefined 154.38 676.88 0.66125 700.00 0.0014286 154.38 676.88 0.66125 1.8779 2.2793 2222.1 -0.0064370 607.62 0.25917 700.00 0.0014286 154.38 676.88 0.66125 1.8779 2.2793 2222.1 -0.0064370 607.62 0.25917
29.375 53284. undefined 156.26 681.09 0.66747 700.00 0.0014286 156.26 681.09 0.66747 1.8819 2.2827 2223.2 -0.0064271 606.55 0.25954 700.00 0.0014286 156.26 681.09 0.66747 1.8819 2.2827 2223.2 -0.0064271 606.55 0.25954
30.375 53520. undefined 158.14 685.29 0.67369 700.00 0.0014286 158.14 685.29 0.67369 1.8860 2.2862 2224.2 -0.0064172 605.48 0.25992 700.00 0.0014286 158.14 685.29 0.67369 1.8860 2.2862 2224.2 -0.0064172 605.48 0.25992
31.375 53755. undefined 160.03 689.50 0.67990 700.00 0.0014286 160.03 689.50 0.67990 1.8900 2.2896 2225.2 -0.0064074 604.43 0.26029 700.00 0.0014286 160.03 689.50 0.67990 1.8900 2.2896 2225.2 -0.0064074 604.43 0.26029
32.375 53990. undefined 161.92 693.70 0.68610 700.00 0.0014286 161.92 693.70 0.68610 1.8941 2.2931 2226.3 -0.0063975 603.39 0.26066 700.00 0.0014286 161.92 693.70 0.68610 1.8941 2.2931 2226.3 -0.0063975 603.39 0.26066
33.375 54224. undefined 163.82 697.91 0.69230 700.00 0.0014286 163.82 697.91 0.69230 1.8982 2.2966 2227.3 -0.0063876 602.35 0.26104 700.00 0.0014286 163.82 697.91 0.69230 1.8982 2.2966 2227.3 -0.0063876 602.35 0.26104
34.375 54459. undefined 165.72 702.12 0.69849 700.00 0.0014286 165.72 702.12 0.69849 1.9022 2.3001 2228.3 -0.0063778 601.33 0.26141 700.00 0.0014286 165.72 702.12 0.69849 1.9022 2.3001 2228.3 -0.0063778 601.33 0.26141
35.375 54692. undefined 167.62 706.32 0.70467 700.00 0.0014286 167.62 706.32 0.70467 1.9063 2.3036 2229.3 -0.0063679 600.32 0.26179 700.00 0.0014286 167.62 706.32 0.70467 1.9063 2.3036 2229.3 -0.0063679 600.32 0.26179
36.375 54926. undefined 169.53 710.53 0.71084 700.00 0.0014286 169.53 710.53 0.71084 1.9104 2.3071 2230.3 -0.0063581 599.32 0.26217 700.00 0.0014286 169.53 710.53 0.71084 1.9104 2.3071 2230.3 -0.0063581 599.32 0.26217
37.375 55159. undefined 171.44 714.74 0.71701 700.00 0.0014286 171.44 714.74 0.71701 1.9145 2.3106 2231.4 -0.0063482 598.32 0.26254 700.00 0.0014286 171.44 714.74 0.71701 1.9145 2.3106 2231.4 -0.0063482 598.32 0.26254
38.375 55392. undefined 173.36 718.95 0.72317 700.00 0.0014286 173.36 718.95 0.72317 1.9186 2.3141 2232.4 -0.0063384 597.34 0.26292 700.00 0.0014286 173.36 718.95 0.72317 1.9186 2.3141 2232.4 -0.0063384 597.34 0.26292
39.375 55624. undefined 175.28 723.16 0.72933 700.00 0.0014286 175.28 723.16 0.72933 1.9227 2.3176 2233.4 -0.0063286 596.37 0.26329 700.00 0.0014286 175.28 723.16 0.72933 1.9227 2.3176 2233.4 -0.0063286 596.37 0.26329
40.375 55856. undefined 177.21 727.37 0.73548 700.00 0.0014286 177.21 727.37 0.73548 1.9268 2.3212 2234.4 -0.0063188 595.40 0.26367 700.00 0.0014286 177.21 727.37 0.73548 1.9268 2.3212 2234.4 -0.0063188 595.40 0.26367
41.375 56088. undefined 179.14 731.58 0.74162 700.00 0.0014286 179.14 731.58 0.74162 1.9309 2.3247 2235.4 -0.0063090 594.45 0.26405 700.00 0.0014286 179.14 731.58 0.74162 1.9309 2.3247 2235.4 -0.0063090 594.45 0.26405
42.375 56319. undefined 181.07 735.79 0.74776 700.00 0.0014286 181.07 735.79 0.74776 1.9350 2.3283 2236.4 -0.0062992 593.50 0.26443 700.00 0.0014286 181.07 735.79 0.74776 1.9350 2.3283 2236.4 -0.0062992 593.50 0.26443
43.375 56550. undefined 183.01 740.00 0.75389 700.00 0.0014286 183.01 740.00 0.75389 1.9391 2.3318 2237.4 -0.0062894 592.56 0.26480 700.00 0.0014286 183.01 740.00 0.75389 1.9391 2.3318 2237.4 -0.0062894 592.56 0.26480
44.375 56780. undefined 184.95 744.21 0.76001 700.00 0.0014286 184.95 744.21 0.76001 1.9433 2.3354 2238.4 -0.0062796 591.64 0.26518 700.00 0.0014286 184.95 744.21 0.76001 1.9433 2.3354 2238.4 -0.0062796 591.64 0.26518
45.375 57010. undefined 186.89 748.43 0.76613 700.00 0.0014286 186.89 748.43 0.76613 1.9474 2.3390 2239.4 -0.0062698 590.72 0.26556 700.00 0.0014286 186.89 748.43 0.76613 1.9474 2.3390 2239.4 -0.0062698 590.72 0.26556
46.375 57240. undefined 188.84 752.64 0.77224 700.00 0.0014286 188.84 752.64 0.77224 1.9515 2.3426 2240.4 -0.0062600 589.81 0.26594 700.00 0.0014286 188.84 752.64 0.77224 1.9515 2.3426 2240.4 -0.0062600 589.81 0.26594
47.375 57470. undefined 190.79 756.85 0.77834 700.00 0.0014286 190.79 756.85 0.77834 1.9557 2.3462 2241.4 -0.0062503 588.91 0.26632 700.00 0.0014286 190.79 756.85 0.77834 1.9557 2.3462 2241.4 -0.0062503 588.91 0.26632
48.375 57699. undefined 192.75 761.07 0.78444 700.00 0.0014286 192.75 761.07 0.78444 1.9598 2.3498 2242.4 -0.0062405 588.02 0.26670 700.00 0.0014286 192.75 761.07 0.78444 1.9598 2.3498 2242.4 -0.0062405 588.02 0.26670
49.375 57928. undefined 194.71 765.28 0.79053 700.00 0.0014286 194.71 765.28 0.79053 1.9639 2.3534 2243.4 -0.0062308 587.13 0.26707 700.00 0.0014286 194.71 765.28 0.79053 1.9639 2.3534 2243.4 -0.0062308 587.13 0.26707
50.375 58156. undefined 196.68 769.50 0.79662 700.00 0.0014286 196.68 769.50 0.79662 1.9681 2.3570 2244.4 -0.0062211 586.26 0.26745 700.00 0.0014286 196.68 769.50 0.79662 1.9681 2.3570 2244.4 -0.0062211 586.26 0.26745
51.375 58384. undefined 198.65 773.72 0.80270 700.00 0.0014286 198.65 773.72 0.80270 1.9722 2.3606 2245.4 -0.0062114 585.39 0.26783 700.00 0.0014286 198.65 773.72 0.80270 1.9722 2.3606 2245.4 -0.0062114 585.39 0.26783
52.375 58612. undefined 200.62 777.93 0.80877 700.00 0.0014286 200.62 777.93 0.80877 1.9764 2.3642 2246.4 -0.0062017 584.53 0.26821 700.00 0.0014286 200.62 777.93 0.80877 1.9764 2.3642 2246.4 -0.0062017 584.53 0.26821
53.375 58840. undefined 202.60 782.15 0.81484 700.00 0.0014286 202.60 782.15 0.81484 1.9805 2.3679 2247.3 -0.0061920 583.68 0.26860 700.00 0.0014286 202.60 782.15 0.81484 1.9805 2.3679 2247.3 -0.0061920 583.68 0.26860
54.375 59067. undefined 204.59 786.37 0.82090 700.00 0.0014286 204.59 786.37 0.82090 1.9847 2.3715 2248.3 -0.0061823 582.83 0.26898 700.00 0.0014286 204.59 786.37 0.82090 1.9847 2.3715 2248.3 -0.0061823 582.83 0.26898
55.375 59293. undefined 206.57 790.59 0.82696 700.00 0.0014286 206.57 790.59 0.82696 1.9889 2.3751 2249.3 -0.0061727 582.00 0.26936 700.00 0.0014286 206.57 790.59 0.82696 1.9889 2.3751 2249.3 -0.0061727 582.00 0.26936
56.375 59520. undefined 208.56 794.81 0.83301 700.00 0.0014286 208.56 794.81 0.83301 1.9930 2.3788 2250.3 -0.0061630 581.17 0.26974 700.00 0.0014286 208.56 794.81 0.83301 1.9930 2.3788 2250.3 -0.0061630 581.17 0.26974
57.375 59746. undefined 210.56 799.04 0.83906 700.00 0.0014286 210.56 799.04 0.83906 1.9972 2.3824 2251.3 -0.0061534 580.35 0.27012 700.00 0.0014286 210.56 799.04 0.83906 1.9972 2.3824 2251.3 -0.0061534 580.35 0.27012
58.375 59972. undefined 212.56 803.26 0.84510 700.00 0.0014286 212.56 803.26 0.84510 2.0014 2.3861 2252.2 -0.0061438 579.54 0.27050 700.00 0.0014286 212.56 803.26 0.84510 2.0014 2.3861 2252.2 -0.0061438 579.54 0.27050
59.375 60197. undefined 214.56 807.48 0.85113 700.00 0.0014286 214.56 807.48 0.85113 2.0055 2.3897 2253.2 -0.0061342 578.73 0.27089 700.00 0.0014286 214.56 807.48 0.85113 2.0055 2.3897 2253.2 -0.0061342 578.73 0.27089
60.375 60422. undefined 216.57 811.71 0.85716 700.00 0.0014286 216.57 811.71 0.85716 2.0097 2.3934 2254.2 -0.0061246 577.93 0.27127 700.00 0.0014286 216.57 811.71 0.85716 2.0097 2.3934 2254.2 -0.0061246 577.93 0.27127
61.375 60647. undefined 218.58 815.93 0.86318 700.00 0.0014286 218.58 815.93 0.86318 2.0139 2.3971 2255.2 -0.0061151 577.14 0.27165 700.00 0.0014286 218.58 815.93 0.86318 2.0139 2.3971 2255.2 -0.0061151 577.14 0.27165
62.375 60871. undefined 220.60 820.16 0.86920 700.00 0.0014286 220.60 820.16 0.86920 2.0181 2.4008 2256.1 -0.0061055 576.36 0.27203 700.00 0.0014286 220.60 820.16 0.86920 2.0181 2.4008 2256.1 -0.0061055 576.36 0.27203
63.375 61096. undefined 222.62 824.39 0.87521 700.00 0.0014286 222.62 824.39 0.87521 2.0222 2.4044 2257.1 -0.0060960 575.58 0.27242 700.00 0.0014286 222.62 824.39 0.87521 2.0222 2.4044 2257.1 -0.0060960 575.58 0.27242
64.375 61319. undefined 224.64 828.62 0.88122 700.00 0.0014286 224.64 828.62 0.88122 2.0264 2.4081 2258.1 -0.0060865 574.81 0.27280 700.00 0.0014286 224.64 828.62 0.88122 2.0264 2.4081 2258.1 -0.0060865 574.81 0.27280
65.375 61543. undefined 226.67 832.85 0.88722 700.00 0.0014286 226.67 832.85 0.88722 2.0306 2.4118 2259.0 -0.0060770 574.05 0.27319 700.00 0.0014286 226.67 832.85 0.88722 2.0306 2.4118 2259.0 -0.0060770 574.05 0.27319
66.375 61766. undefined 228.70 837.08 0.89321 700.00 0.0014286 228.70 837.08 0.89321 2.0348 2.4155 2260.0 -0.0060675 573.30 0.27357 700.00 0.0014286 228.70 837.08 0.89321 2.0348 2.4155 2260.0 -0.0060675 573.30 0.27357
67.375 61989. undefined 230.74 841.31 0.89920 700.00 0.0014286 230.74 841.31 0.89920 2.0390 2.4192 2260.9 -0.0060581 572.55 0.27395 700.00 0.0014286 230.74 841.31 0.89920 2.0390 2.4192 2260.9 -0.0060581 572.55 0.27395
68.375 62211. undefined 232.78 845.54 0.90519 700.00 0.0014286 232.78 845.54 0.90519 2.0432 2.4229 2261.9 -0.0060486 571.81 0.27434 700.00 0.0014286 232.78 845.54 0.90519 2.0432 2.4229 2261.9 -0.0060486 571.81 0.27434
69.375 62434. undefined 234.83 849.78 0.91117 700.00 0.0014286 234.83 849.78 0.91117 2.0473 2.4266 2262.9 -0.0060392 571.07 0.27472 700.00 0.0014286 234.83 849.78 0.91117 2.0473 2.4266 2262.9 -0.0060392 571.07 0.27472
70.375 62656. undefined 236.88 854.01 0.91714 700.00 0.0014286 236.88 854.01 0.91714 2.0515 2.4303 2263.8 -0.0060298 570.34 0.27511 700.00 0.0014286 236.88 854.01 0.91714 2.0515 2.4303 2263.8 -0.0060298 570.34 0.27511
71.375 62877. undefined 238.93 858.25 0.92311 700.00 0.0014286 238.93 858.25 0.92311 2.0557 2.4341 2264.8 -0.0060204 569.62 0.27550 700.00 0.0014286 238.93 858.25 0.92311 2.0557 2.4341 2264.8 -0.0060204 569.62 0.27550
72.375 63098. undefined 240.99 862.48 0.92908 700.00 0.0014286 240.99 862.48 0.92908 2.0599 2.4378 2265.7 -0.0060110 568.90 0.27588 700.00 0.0014286 240.99 862.48 0.92908 2.0599 2.4378 2265.7 -0.0060110 568.90 0.27588
73.375 63319. undefined 243.05 866.72 0.93504 700.00 0.0014286 243.05 866.72 0.93504 2.0641 2.4415 2266.7 -0.0060017 568.19 0.27627 700.00 0.0014286 243.05 866.72 0.93504 2.0641 2.4415 2266.7 -0.0060017 568.19 0.27627
74.375 63540. undefined 245.11 870.96 0.94099 700.00 0.0014286 245.11 870.96 0.94099 2.0683 2.4452 2267.6 -0.0059923 567.49 0.27666 700.00 0.0014286 245.11 870.96 0.94099 2.0683 2.4452 2267.6 -0.0059923 567.49 0.27666
75.375 63760. undefined 247.19 875.20 0.94694 700.00 0.0014286 247.19 875.20 0.94694 2.0725 2.4490 2268.6 -0.0059830 566.79 0.27704 700.00 0.0014286 247.19 875.20 0.94694 2.0725 2.4490 2268.6 -0.0059830 566.79 0.27704
76.375 63980. undefined 249.26 879.45 0.95288 700.00 0.0014286 249.26 879.45 0.95288 2.0767 2.4527 2269.5 -0.0059737 566.10 0.27743 700.00 0.0014286 249.26 879.45 0.95288 2.0767 2.4527 2269.5 -0.0059737 566.10 0.27743
77.375 64200. undefined 251.34 883.69 0.95882 700.00 0.0014286 251.34 883.69 0.95882 2.0809 2.4564 2270.5 -0.0059645 565.42 0.27782 700.00 0.0014286 251.34 883.69 0.95882 2.0809 2.4564 2270.5 -0.0059645 565.42 0.27782
78.375 64420. undefined 253.42 887.93 0.96476 700.00 0.0014286 253.42 887.93 0.96476 2.0851 2.4602 2271.4 -0.0059552 564.74 0.27820 700.00 0.0014286 253.42 887.93 0.96476 2.0851 2.4602 2271.4 -0.0059552 564.74 0.27820
79.375 64639. undefined 255.51 892.18 0.97069 700.00 0.0014286 255.51 892.18 0.97069 2.0893 2.4639 2272.4 -0.0059460 564.07 0.27859 700.00 0.0014286 255.51 892.18 0.97069 2.0893 2.4639 2272.4 -0.0059460 564.07 0.27859
80.375 64858. undefined 257.60 896.43 0.97661 700.00 0.0014286 257.60 896.43 0.97661 2.0935 2.4677 2273.3 -0.0059368 563.40 0.27898 700.00 0.0014286 257.60 896.43 0.97661 2.0935 2.4677 2273.3 -0.0059368 563.40 0.27898
81.375 65076. undefined 259.70 900.67 0.98253 700.00 0.0014286 259.70 900.67 0.98253 2.0977 2.4714 2274.3 -0.0059276 562.74 0.27937 700.00 0.0014286 259.70 900.67 0.98253 2.0977 2.4714 2274.3 -0.0059276 562.74 0.27937
82.375 65294. undefined 261.80 904.92 0.98844 700.00 0.0014286 261.80 904.92 0.98844 2.1019 2.4751 2275.2 -0.0059184 562.08 0.27976 700.00 0.0014286 261.80 904.92 0.98844 2.1019 2.4751 2275.2 -0.0059184 562.08 0.27976
83.375 65512. undefined 263.90 909.17 0.99435 700.00 0.0014286 263.90 909.17 0.99435 2.1061 2.4789 2276.1 -0.0059093 561.43 0.28015 700.00 0.0014286 263.90 909.17 0.99435 2.1061 2.4789 2276.1 -0.0059093 561.43 0.28015
84.375 65730. undefined 266.01 913.43 1.0003 700.00 0.0014286 266.01 913.43 1.0003 2.1103 2.4827 2277.1 -0.0059002 560.79 0.28054 700.00 0.0014286 266.01 913.43 1.0003 2.1103 2.4827 2277.1 -0.0059002 560.79 0.28054
85.375 65947. undefined 268.12 917.68 1.0062 700.00 0.0014286 268.12 917.68 1.0062 2.1145 2.4864 2278.0 -0.0058911 560.15 0.28093 700.00 0.0014286 268.12 917.68 1.0062 2.1145 2.4864 2278.0 -0.0058911 560.15 0.28093
86.375 66165. undefined 270.24 921.93 1.0121 700.00 0.0014286 270.24 921.93 1.0121 2.1187 2.4902 2278.9 -0.0058820 559.51 0.28132 700.00 0.0014286 270.24 921.93 1.0121 2.1187 2.4902 2278.9 -0.0058820 559.51 0.28132
87.375 66381. undefined 272.36 926.19 1.0179 700.00 0.0014286 272.36 926.19 1.0179 2.1229 2.4939 2279.9 -0.0058730 558.89 0.28171 700.00 0.0014286 272.36 926.19 1.0179 2.1229 2.4939 2279.9 -0.0058730 558.89 0.28171
88.375 66598. undefined 274.48 930.45 1.0238 700.00 0.0014286 274.48 930.45 1.0238 2.1271 2.4977 2280.8 -0.0058639 558.26 0.28210 700.00 0.0014286 274.48 930.45 1.0238 2.1271 2.4977 2280.8 -0.0058639 558.26 0.28210
89.375 66814. undefined 276.61 934.71 1.0297 700.00 0.0014286 276.61 934.71 1.0297 2.1313 2.5015 2281.7 -0.0058549 557.65 0.28249 700.00 0.0014286 276.61 934.71 1.0297 2.1313 2.5015 2281.7 -0.0058549 557.65 0.28249
90.375 67030. undefined 278.75 938.97 1.0356 700.00 0.0014286 278.75 938.97 1.0356 2.1355 2.5052 2282.7 -0.0058459 557.03 0.28288 700.00 0.0014286 278.75 938.97 1.0356 2.1355 2.5052 2282.7 -0.0058459 557.03 0.28288
91.375 67246. undefined 280.88 943.23 1.0415 700.00 0.0014286 280.88 943.23 1.0415 2.1397 2.5090 2283.6 -0.0058370 556.43 0.28327 700.00 0.0014286 280.88 943.23 1.0415 2.1397 2.5090 2283.6 -0.0058370 556.43 0.28327
92.375 67461. undefined 283.02 947.49 1.0473 700.00 0.0014286 283.02 947.49 1.0473 2.1439 2.5128 2284.5 -0.0058280 555.82 0.28367 700.00 0.0014286 283.02 947.49 1.0473 2.1439 2.5128 2284.5 -0.0058280 555.82 0.28367
93.375 67676. undefined 285.17 951.76 1.0532 700.00 0.0014286 285.17 951.76 1.0532 2.1481 2.5165 2285.5 -0.0058191 555.23 0.28406 700.00 0.0014286 285.17 951.76 1.0532 2.1481 2.5165 2285.5 -0.0058191 555.23 0.28406
94.375 67891. undefined 287.32 956.02 1.0591 700.00 0.0014286 287.32 956.02 1.0591 2.1523 2.5203 2286.4 -0.0058102 554.64 0.28445 700.00 0.0014286 287.32 956.02 1.0591 2.1523 2.5203 2286.4 -0.0058102 554.64 0.28445
95.375 68105. undefined 289.48 960.29 1.0649 700.00 0.0014286 289.48 960.29 1.0649 2.1565 2.5241 2287.3 -0.0058013 554.05 0.28484 700.00 0.0014286 289.48 960.29 1.0649 2.1565 2.5241 2287.3 -0.0058013 554.05 0.28484
96.375 68320. undefined 291.63 964.56 1.0708 700.00 0.0014286 291.63 964.56 1.0708 2.1607 2.5278 2288.2 -0.0057925 553.47 0.28524 700.00 0.0014286 291.63 964.56 1.0708 2.1607 2.5278 2288.2 -0.0057925 553.47 0.28524
97.375 68533. undefined 293.80 968.83 1.0766 700.00 0.0014286 293.80 968.83 1.0766 2.1649 2.5316 2289.1 -0.0057837 552.89 0.28563 700.00 0.0014286 293.80 968.83 1.0766 2.1649 2.5316 2289.1 -0.0057837 552.89 0.28563
98.375 68747. undefined 295.96 973.10 1.0824 700.00 0.0014286 295.96 973.10 1.0824 2.1691 2.5354 2290.1 -0.0057749 552.32 0.28602 700.00 0.0014286 295.96 973.10 1.0824 2.1691 2.5354 2290.1 -0.0057749 552.32 0.28602
99.375 68961. undefined 298.13 977.37 1.0883 700.00 0.0014286 298.13 977.37 1.0883 2.1733 2.5392 2291.0 -0.0057661 551.75 0.28642 700.00 0.0014286 298.13 977.37 1.0883 2.1733 2.5392 2291.0 -0.0057661 551.75 0.28642
100.38 69174. undefined 300.31 981.65 1.0941 700.00 0.0014286 300.31 981.65 1.0941 2.1775 2.5429 2291.9 -0.0057573 551.19 0.28681 700.00 0.0014286 300.31 981.65 1.0941 2.1775 2.5429 2291.9 -0.0057573 551.19 0.28681
101.38 69387. undefined 302.49 985.92 1.0999 700.00 0.0014286 302.49 985.92 1.0999 2.1816 2.5467 2292.8 -0.0057486 550.63 0.28721 700.00 0.0014286 302.49 985.92 1.0999 2.1816 2.5467 2292.8 -0.0057486 550.63 0.28721
102.38 69599. undefined 304.67 990.20 1.1058 700.00 0.0014286 304.67 990.20 1.1058 2.1858 2.5505 2293.7 -0.0057399 550.07 0.28760 700.00 0.0014286 304.67 990.20 1.1058 2.1858 2.5505 2293.7 -0.0057399 550.07 0.28760
103.38 69811. undefined 306.86 994.48 1.1116 700.00 0.0014286 306.86 994.48 1.1116 2.1900 2.5543 2294.7 -0.0057312 549.52 0.28800 700.00 0.0014286 306.86 994.48 1.1116 2.1900 2.5543 2294.7 -0.0057312 549.52 0.28800
104.38 70023. undefined 309.05 998.76 1.1174 700.00 0.0014286 309.05 998.76 1.1174 2.1942 2.5581 2295.6 -0.0057226 548.98 0.28839 700.00 0.0014286 309.05 998.76 1.1174 2.1942 2.5581 2295.6 -0.0057226 548.98 0.28839
105.38 70235. undefined 311.25 1003.0 1.1232 700.00 0.0014286 311.25 1003.0 1.1232 2.1984 2.5618 2296.5 -0.0057139 548.44 0.28879 700.00 0.0014286 311.25 1003.0 1.1232 2.1984 2.5618 2296.5 -0.0057139 548.44 0.28879
106.38 70447. undefined 313.45 1007.3 1.1290 700.00 0.0014286 313.45 1007.3 1.1290 2.2026 2.5656 2297.4 -0.0057053 547.90 0.28918 700.00 0.0014286 313.45 1007.3 1.1290 2.2026 2.5656 2297.4 -0.0057053 547.90 0.28918
107.38 70658. undefined 315.66 1011.6 1.1348 700.00 0.0014286 315.66 1011.6 1.1348 2.2067 2.5694 2298.3 -0.0056967 547.37 0.28958 700.00 0.0014286 315.66 1011.6 1.1348 2.2067 2.5694 2298.3 -0.0056967 547.37 0.28958
108.38 70869. undefined 317.86 1015.9 1.1406 700.00 0.0014286 317.86 1015.9 1.1406 2.2109 2.5732 2299.2 -0.0056882 546.84 0.28998 700.00 0.0014286 317.86 1015.9 1.1406 2.2109 2.5732 2299.2 -0.0056882 546.84 0.28998
109.38 71080. undefined 320.08 1020.2 1.1464 700.00 0.0014286 320.08 1020.2 1.1464 2.2151 2.5770 2300.1 -0.0056797 546.32 0.29037 700.00 0.0014286 320.08 1020.2 1.1464 2.2151 2.5770 2300.1 -0.0056797 546.32 0.29037
110.38 71290. undefined 322.29 1024.5 1.1522 700.00 0.0014286 322.29 1024.5 1.1522 2.2193 2.5807 2301.0 -0.0056711 545.80 0.29077 700.00 0.0014286 322.29 1024.5 1.1522 2.2193 2.5807 2301.0 -0.0056711 545.80 0.29077
111.38 71500. undefined 324.52 1028.8 1.1580 700.00 0.0014286 324.52 1028.8 1.1580 2.2234 2.5845 2301.9 -0.0056627 545.29 0.29117 700.00 0.0014286 324.52 1028.8 1.1580 2.2234 2.5845 2301.9 -0.0056627 545.29 0.29117
112.38 71710. undefined 326.74 1033.1 1.1638 700.00 0.0014286 326.74 1033.1 1.1638 2.2276 2.5883 2302.8 -0.0056542 544.77 0.29157 700.00 0.0014286 326.74 1033.1 1.1638 2.2276 2.5883 2302.8 -0.0056542 544.77 0.29157
113.38 71920. undefined 328.97 1037.4 1.1695 700.00 0.0014286 328.97 1037.4 1.1695 2.2318 2.5921 2303.7 -0.0056458 544.27 0.29196 700.00 0.0014286 328.97 1037.4 1.1695 2.2318 2.5921 2303.7 -0.0056458 544.27 0.29196
114.38 72129. undefined 331.20 1041.7 1.1753 700.00 0.0014286 331.20 1041.7 1.1753 2.2360 2.5959 2304.6 -0.0056374 543.77 0.29236 700.00 0.0014286 331.20 1041.7 1.1753 2.2360 2.5959 2304.6 -0.0056374 543.77 0.29236
115.38 72338. undefined 333.44 1046.0 1.1811 700.00 0.0014286 333.44 1046.0 1.1811 2.2401 2.5996 2305.5 -0.0056290 543.27 0.29276 700.00 0.0014286 333.44 1046.0 1.1811 2.2401 2.5996 2305.5 -0.0056290 543.27 0.29276
116.38 72547. undefined 335.68 1050.3 1.1868 700.00 0.0014286 335.68 1050.3 1.1868 2.2443 2.6034 2306.4 -0.0056206 542.77 0.29316 700.00 0.0014286 335.68 1050.3 1.1868 2.2443 2.6034 2306.4 -0.0056206 542.77 0.29316
117.38 72756. undefined 337.93 1054.6 1.1926 700.00 0.0014286 337.93 1054.6 1.1926 2.2484 2.6072 2307.3 -0.0056123 542.28 0.29356 700.00 0.0014286 337.93 1054.6 1.1926 2.2484 2.6072 2307.3 -0.0056123 542.28 0.29356
118.38 72964. undefined 340.18 1058.9 1.1983 700.00 0.0014286 340.18 1058.9 1.1983 2.2526 2.6110 2308.2 -0.0056040 541.79 0.29396 700.00 0.0014286 340.18 1058.9 1.1983 2.2526 2.6110 2308.2 -0.0056040 541.79 0.29396
119.38 73172. undefined 342.44 1063.2 1.2041 700.00 0.0014286 342.44 1063.2 1.2041 2.2568 2.6147 2309.1 -0.0055957 541.31 0.29436 700.00 0.0014286 342.44 1063.2 1.2041 2.2568 2.6147 2309.1 -0.0055957 541.31 0.29436
120.38 73380. undefined 344.70 1067.5 1.2098 700.00 0.0014286 344.70 1067.5 1.2098 2.2609 2.6185 2310.0 -0.0055874 540.83 0.29476 700.00 0.0014286 344.70 1067.5 1.2098 2.2609 2.6185 2310.0 -0.0055874 540.83 0.29476
121.38 73588. undefined 346.96 1071.8 1.2156 700.00 0.0014286 346.96 1071.8 1.2156 2.2651 2.6223 2310.9 -0.0055792 540.36 0.29516 700.00 0.0014286 346.96 1071.8 1.2156 2.2651 2.6223 2310.9 -0.0055792 540.36 0.29516
122.38 73795. undefined 349.23 1076.1 1.2213 700.00 0.0014286 349.23 1076.1 1.2213 2.2692 2.6261 2311.8 -0.0055710 539.88 0.29556 700.00 0.0014286 349.23 1076.1 1.2213 2.2692 2.6261 2311.8 -0.0055710 539.88 0.29556
123.38 74002. undefined 351.50 1080.4 1.2271 700.00 0.0014286 351.50 1080.4 1.2271 2.2734 2.6298 2312.7 -0.0055628 539.42 0.29596 700.00 0.0014286 351.50 1080.4 1.2271 2.2734 2.6298 2312.7 -0.0055628 539.42 0.29596
124.38 74209. undefined 353.77 1084.7 1.2328 700.00 0.0014286 353.77 1084.7 1.2328 2.2775 2.6336 2313.6 -0.0055547 538.95 0.29636 700.00 0.0014286 353.77 1084.7 1.2328 2.2775 2.6336 2313.6 -0.0055547 538.95 0.29636
125.38 74416. undefined 356.05 1089.0 1.2385 700.00 0.0014286 356.05 1089.0 1.2385 2.2816 2.6374 2314.5 -0.0055465 538.49 0.29676 700.00 0.0014286 356.05 1089.0 1.2385 2.2816 2.6374 2314.5 -0.0055465 538.49 0.29676
126.38 74622. undefined 358.34 1093.3 1.2442 700.00 0.0014286 358.34 1093.3 1.2442 2.2858 2.6412 2315.4 -0.0055384 538.03 0.29717 700.00 0.0014286 358.34 1093.3 1.2442 2.2858 2.6412 2315.4 -0.0055384 538.03 0.29717
127.38 74828. undefined 360.62 1097.7 1.2500 700.00 0.0014286 360.62 1097.7 1.2500 2.2899 2.6449 2316.3 -0.0055304 537.58 0.29757 700.00 0.0014286 360.62 1097.7 1.2500 2.2899 2.6449 2316.3 -0.0055304 537.58 0.29757
128.38 75034. undefined 362.92 1102.0 1.2557 700.00 0.0014286 362.92 1102.0 1.2557 2.2940 2.6487 2317.2 -0.0055223 537.13 0.29797 700.00 0.0014286 362.92 1102.0 1.2557 2.2940 2.6487 2317.2 -0.0055223 537.13 0.29797
129.38 75240. undefined 365.21 1106.3 1.2614 700.00 0.0014286 365.21 1106.3 1.2614 2.2982 2.6525 2318.1 -0.0055143 536.68 0.29837 700.00 0.0014286 365.21 1106.3 1.2614 2.2982 2.6525 2318.1 -0.0055143 536.68 0.29837
130.38 75445. undefined 367.51 1110.6 1.2671 700.00 0.0014286 367.51 1110.6 1.2671 2.3023 2.6562 2319.0 -0.0055063 536.24 0.29878 700.00 0.0014286 367.51 1110.6 1.2671 2.3023 2.6562 2319.0 -0.0055063 536.24 0.29878
131.38 75651. undefined 369.82 1114.9 1.2728 700.00 0.0014286 369.82 1114.9 1.2728 2.3064 2.6600 2319.8 -0.0054983 535.80 0.29918 700.00 0.0014286 369.82 1114.9 1.2728 2.3064 2.6600 2319.8 -0.0054983 535.80 0.29918
132.38 75855. undefined 372.12 1119.3 1.2785 700.00 0.0014286 372.12 1119.3 1.2785 2.3105 2.6637 2320.7 -0.0054904 535.36 0.29958 700.00 0.0014286 372.12 1119.3 1.2785 2.3105 2.6637 2320.7 -0.0054904 535.36 0.29958
133.38 76060. undefined 374.44 1123.6 1.2842 700.00 0.0014286 374.44 1123.6 1.2842 2.3146 2.6675 2321.6 -0.0054824 534.93 0.29999 700.00 0.0014286 374.44 1123.6 1.2842 2.3146 2.6675 2321.6 -0.0054824 534.93 0.29999
134.38 76265. undefined 376.75 1127.9 1.2899 700.00 0.0014286 376.75 1127.9 1.2899 2.3188 2.6713 2322.5 -0.0054745 534.50 0.30039 700.00 0.0014286 376.75 1127.9 1.2899 2.3188 2.6713 2322.5 -0.0054745 534.50 0.30039
135.38 76469. undefined 379.07 1132.3 1.2956 700.00 0.0014286 379.07 1132.3 1.2956 2.3229 2.6750 2323.4 -0.0054667 534.07 0.30080 700.00 0.0014286 379.07 1132.3 1.2956 2.3229 2.6750 2323.4 -0.0054667 534.07 0.30080
136.38 76673. undefined 381.40 1136.6 1.3013 700.00 0.0014286 381.40 1136.6 1.3013 2.3270 2.6788 2324.3 -0.0054588 533.65 0.30120 700.00 0.0014286 381.40 1136.6 1.3013 2.3270 2.6788 2324.3 -0.0054588 533.65 0.30120
137.38 76876. undefined 383.73 1140.9 1.3069 700.00 0.0014286 383.73 1140.9 1.3069 2.3311 2.6825 2325.1 -0.0054510 533.23 0.30161 700.00 0.0014286 383.73 1140.9 1.3069 2.3311 2.6825 2325.1 -0.0054510 533.23 0.30161
138.38 77080. undefined 386.06 1145.3 1.3126 700.00 0.0014286 386.06 1145.3 1.3126 2.3352 2.6863 2326.0 -0.0054432 532.81 0.30201 700.00 0.0014286 386.06 1145.3 1.3126 2.3352 2.6863 2326.0 -0.0054432 532.81 0.30201
139.38 77283. undefined 388.40 1149.6 1.3183 700.00 0.0014286 388.40 1149.6 1.3183 2.3393 2.6900 2326.9 -0.0054354 532.40 0.30242 700.00 0.0014286 388.40 1149.6 1.3183 2.3393 2.6900 2326.9 -0.0054354 532.40 0.30242
140.38 77486. undefined 390.74 1154.0 1.3240 700.00 0.0014286 390.74 1154.0 1.3240 2.3434 2.6938 2327.8 -0.0054277 531.99 0.30282 700.00 0.0014286 390.74 1154.0 1.3240 2.3434 2.6938 2327.8 -0.0054277 531.99 0.30282
141.38 77689. undefined 393.09 1158.3 1.3296 700.00 0.0014286 393.09 1158.3 1.3296 2.3475 2.6975 2328.7 -0.0054199 531.58 0.30323 700.00 0.0014286 393.09 1158.3 1.3296 2.3475 2.6975 2328.7 -0.0054199 531.58 0.30323
142.38 77892. undefined 395.43 1162.6 1.3353 700.00 0.0014286 395.43 1162.6 1.3353 2.3515 2.7013 2329.5 -0.0054122 531.18 0.30364 700.00 0.0014286 395.43 1162.6 1.3353 2.3515 2.7013 2329.5 -0.0054122 531.18 0.30364
143.38 78094. undefined 397.79 1167.0 1.3409 700.00 0.0014286 397.79 1167.0 1.3409 2.3556 2.7050 2330.4 -0.0054046 530.78 0.30404 700.00 0.0014286 397.79 1167.0 1.3409 2.3556 2.7050 2330.4 -0.0054046 530.78 0.30404
144.38 78296. undefined 400.15 1171.3 1.3466 700.00 0.0014286 400.15 1171.3 1.3466 2.3597 2.7087 2331.3 -0.0053969 530.38 0.30445 700.00 0.0014286 400.15 1171.3 1.3466 2.3597 2.7087 2331.3 -0.0053969 530.38 0.30445
145.38 78498. undefined 402.51 1175.7 1.3522 700.00 0.0014286 402.51 1175.7 1.3522 2.3638 2.7125 2332.2 -0.0053893 529.98 0.30486 700.00 0.0014286 402.51 1175.7 1.3522 2.3638 2.7125 2332.2 -0.0053893 529.98 0.30486
146.38 78700. undefined 404.87 1180.0 1.3579 700.00 0.0014286 404.87 1180.0 1.3579 2.3678 2.7162 2333.0 -0.0053817 529.59 0.30527 700.00 0.0014286 404.87 1180.0 1.3579 2.3678 2.7162 2333.0 -0.0053817 529.59 0.30527
147.38 78901. undefined 407.24 1184.4 1.3635 700.00 0.0014286 407.24 1184.4 1.3635 2.3719 2.7199 2333.9 -0.0053741 529.20 0.30567 700.00 0.0014286 407.24 1184.4 1.3635 2.3719 2.7199 2333.9 -0.0053741 529.20 0.30567
148.38 79102. undefined 409.62 1188.7 1.3692 700.00 0.0014286 409.62 1188.7 1.3692 2.3760 2.7237 2334.8 -0.0053666 528.81 0.30608 700.00 0.0014286 409.62 1188.7 1.3692 2.3760 2.7237 2334.8 -0.0053666 528.81 0.30608
149.38 79303. undefined 412.00 1193.1 1.3748 700.00 0.0014286 412.00 1193.1 1.3748 2.3800 2.7274 2335.6 -0.0053591 528.43 0.30649 700.00 0.0014286 412.00 1193.1 1.3748 2.3800 2.7274 2335.6 -0.0053591 528.43 0.30649
150.38 79504. undefined 414.38 1197.5 1.3804 700.00 0.0014286 414.38 1197.5 1.3804 2.3841 2.7311 2336.5 -0.0053516 528.05 0.30690 700.00 0.0014286 414.38 1197.5 1.3804 2.3841 2.7311 2336.5 -0.0053516 528.05 0.30690
151.38 79704. undefined 416.76 1201.8 1.3861 700.00 0.0014286 416.76 1201.8 1.3861 2.3881 2.7348 2337.4 -0.0053441 527.67 0.30731 700.00 0.0014286 416.76 1201.8 1.3861 2.3881 2.7348 2337.4 -0.0053441 527.67 0.30731
152.38 79905. undefined 419.15 1206.2 1.3917 700.00 0.0014286 419.15 1206.2 1.3917 2.3922 2.7386 2338.2 -0.0053367 527.29 0.30772 700.00 0.0014286 419.15 1206.2 1.3917 2.3922 2.7386 2338.2 -0.0053367 527.29 0.30772
153.38 80105. undefined 421.55 1210.6 1.3973 700.00 0.0014286 421.55 1210.6 1.3973 2.3962 2.7423 2339.1 -0.0053293 526.92 0.30813 700.00 0.0014286 421.55 1210.6 1.3973 2.3962 2.7423 2339.1 -0.0053293 526.92 0.30813
154.38 80305. undefined 423.95 1214.9 1.4029 700.00 0.0014286 423.95 1214.9 1.4029 2.4003 2.7460 2340.0 -0.0053219 526.55 0.30854 700.00 0.0014286 423.95 1214.9 1.4029 2.4003 2.7460 2340.0 -0.0053219 526.55 0.30854
155.38 80504. undefined 426.35 1219.3 1.4085 700.00 0.0014286 426.35 1219.3 1.4085 2.4043 2.7497 2340.8 -0.0053145 526.18 0.30895 700.00 0.0014286 426.35 1219.3 1.4085 2.4043 2.7497 2340.8 -0.0053145 526.18 0.30895
156.38 80704. undefined 428.75 1223.7 1.4141 700.00 0.0014286 428.75 1223.7 1.4141 2.4084 2.7534 2341.7 -0.0053072 525.82 0.30936 700.00 0.0014286 428.75 1223.7 1.4141 2.4084 2.7534 2341.7 -0.0053072 525.82 0.30936
157.38 80903. undefined 431.17 1228.0 1.4197 700.00 0.0014286 431.17 1228.0 1.4197 2.4124 2.7571 2342.6 -0.0052998 525.45 0.30977 700.00 0.0014286 431.17 1228.0 1.4197 2.4124 2.7571 2342.6 -0.0052998 525.45 0.30977
158.38 81102. undefined 433.58 1232.4 1.4254 700.00 0.0014286 433.58 1232.4 1.4254 2.4164 2.7608 2343.4 -0.0052925 525.10 0.31018 700.00 0.0014286 433.58 1232.4 1.4254 2.4164 2.7608 2343.4 -0.0052925 525.10 0.31018
159.38 81300. undefined 436.00 1236.8 1.4309 700.00 0.0014286 436.00 1236.8 1.4309 2.4204 2.7645 2344.3 -0.0052853 524.74 0.31059 700.00 0.0014286 436.00 1236.8 1.4309 2.4204 2.7645 2344.3 -0.0052853 524.74 0.31059
160.38 81499. undefined 438.42 1241.2 1.4365 700.00 0.0014286 438.42 1241.2 1.4365 2.4244 2.7682 2345.2 -0.0052780 524.38 0.31100 700.00 0.0014286 438.42 1241.2 1.4365 2.4244 2.7682 2345.2 -0.0052780 524.38 0.31100
161.38 81697. undefined 440.85 1245.5 1.4421 700.00 0.0014286 440.85 1245.5 1.4421 2.4285 2.7719 2346.0 -0.0052708 524.03 0.31142 700.00 0.0014286 440.85 1245.5 1.4421 2.4285 2.7719 2346.0 -0.0052708 524.03 0.31142
162.38 81895. undefined 443.28 1249.9 1.4477 700.00 0.0014286 443.28 1249.9 1.4477 2.4325 2.7756 2346.9 -0.0052636 523.68 0.31183 700.00 0.0014286 443.28 1249.9 1.4477 2.4325 2.7756 2346.9 -0.0052636 523.68 0.31183
163.38 82093. undefined 445.71 1254.3 1.4533 700.00 0.0014286 445.71 1254.3 1.4533 2.4365 2.7793 2347.7 -0.0052564 523.34 0.31224 700.00 0.0014286 445.71 1254.3 1.4533 2.4365 2.7793 2347.7 -0.0052564 523.34 0.31224
164.38 82291. undefined 448.15 1258.7 1.4589 700.00 0.0014286 448.15 1258.7 1.4589 2.4405 2.7830 2348.6 -0.0052493 522.99 0.31265 700.00 0.0014286 448.15 1258.7 1.4589 2.4405 2.7830 2348.6 -0.0052493 522.99 0.31265
165.38 82488. undefined 450.59 1263.1 1.4645 700.00 0.0014286 450.59 1263.1 1.4645 2.4445 2.7867 2349.4 -0.0052422 522.65 0.31307 700.00 0.0014286 450.59 1263.1 1.4645 2.4445 2.7867 2349.4 -0.0052422 522.65 0.31307
166.38 82686. undefined 453.04 1267.5 1.4700 700.00 0.0014286 453.04 1267.5 1.4700 2.4485 2.7903 2350.3 -0.0052351 522.31 0.31348 700.00 0.0014286 453.04 1267.5 1.4700 2.4485 2.7903 2350.3 -0.0052351 522.31 0.31348
167.38 82883. undefined 455.49 1271.9 1.4756 700.00 0.0014286 455.49 1271.9 1.4756 2.4524 2.7940 2351.2 -0.0052280 521.97 0.31390 700.00 0.0014286 455.49 1271.9 1.4756 2.4524 2.7940 2351.2 -0.0052280 521.97 0.31390
168.38 83079. undefined 457.94 1276.2 1.4812 700.00 0.0014286 457.94 1276.2 1.4812 2.4564 2.7977 2352.0 -0.0052210 521.64 0.31431 700.00 0.0014286 457.94 1276.2 1.4812 2.4564 2.7977 2352.0 -0.0052210 521.64 0.31431
169.38 83276. undefined 460.40 1280.6 1.4867 700.00 0.0014286 460.40 1280.6 1.4867 2.4604 2.8014 2352.9 -0.0052139 521.31 0.31472 700.00 0.0014286 460.40 1280.6 1.4867 2.4604 2.8014 2352.9 -0.0052139 521.31 0.31472
170.38 83472. undefined 462.86 1285.0 1.4923 700.00 0.0014286 462.86 1285.0 1.4923 2.4644 2.8050 2353.7 -0.0052069 520.98 0.31514 700.00 0.0014286 462.86 1285.0 1.4923 2.4644 2.8050 2353.7 -0.0052069 520.98 0.31514
171.38 83669. undefined 465.33 1289.4 1.4978 700.00 0.0014286 465.33 1289.4 1.4978 2.4683 2.8087 2354.6 -0.0052000 520.65 0.31555 700.00 0.0014286 465.33 1289.4 1.4978 2.4683 2.8087 2354.6 -0.0052000 520.65 0.31555
172.38 83865. undefined 467.80 1293.8 1.5034 700.00 0.0014286 467.80 1293.8 1.5034 2.4723 2.8124 2355.4 -0.0051930 520.32 0.31597 700.00 0.0014286 467.80 1293.8 1.5034 2.4723 2.8124 2355.4 -0.0051930 520.32 0.31597
173.38 84060. undefined 470.28 1298.2 1.5089 700.00 0.0014286 470.28 1298.2 1.5089 2.4763 2.8160 2356.3 -0.0051861 520.00 0.31638 700.00 0.0014286 470.28 1298.2 1.5089 2.4763 2.8160 2356.3 -0.0051861 520.00 0.31638
174.38 84256. undefined 472.75 1302.6 1.5145 700.00 0.0014286 472.75 1302.6 1.5145 2.4802 2.8197 2357.1 -0.0051792 519.68 0.31680 700.00 0.0014286 472.75 1302.6 1.5145 2.4802 2.8197 2357.1 -0.0051792 519.68 0.31680
175.38 84451. undefined 475.24 1307.1 1.5200 700.00 0.0014286 475.24 1307.1 1.5200 2.4842 2.8233 2358.0 -0.0051723 519.36 0.31722 700.00 0.0014286 475.24 1307.1 1.5200 2.4842 2.8233 2358.0 -0.0051723 519.36 0.31722
176.38 84647. undefined 477.72 1311.5 1.5256 700.00 0.0014286 477.72 1311.5 1.5256 2.4881 2.8270 2358.8 -0.0051655 519.05 0.31763 700.00 0.0014286 477.72 1311.5 1.5256 2.4881 2.8270 2358.8 -0.0051655 519.05 0.31763
177.38 84842. undefined 480.21 1315.9 1.5311 700.00 0.0014286 480.21 1315.9 1.5311 2.4921 2.8306 2359.7 -0.0051586 518.73 0.31805 700.00 0.0014286 480.21 1315.9 1.5311 2.4921 2.8306 2359.7 -0.0051586 518.73 0.31805
178.38 85036. undefined 482.71 1320.3 1.5366 700.00 0.0014286 482.71 1320.3 1.5366 2.4960 2.8343 2360.5 -0.0051518 518.42 0.31847 700.00 0.0014286 482.71 1320.3 1.5366 2.4960 2.8343 2360.5 -0.0051518 518.42 0.31847
179.38 85231. undefined 485.20 1324.7 1.5421 700.00 0.0014286 485.20 1324.7 1.5421 2.4999 2.8379 2361.4 -0.0051450 518.11 0.31888 700.00 0.0014286 485.20 1324.7 1.5421 2.4999 2.8379 2361.4 -0.0051450 518.11 0.31888
180.38 85425. undefined 487.71 1329.1 1.5477 700.00 0.0014286 487.71 1329.1 1.5477 2.5039 2.8415 2362.2 -0.0051383 517.80 0.31930 700.00 0.0014286 487.71 1329.1 1.5477 2.5039 2.8415 2362.2 -0.0051383 517.80 0.31930
181.38 85619. undefined 490.21 1333.5 1.5532 700.00 0.0014286 490.21 1333.5 1.5532 2.5078 2.8452 2363.0 -0.0051315 517.50 0.31972 700.00 0.0014286 490.21 1333.5 1.5532 2.5078 2.8452 2363.0 -0.0051315 517.50 0.31972
182.38 85813. undefined 492.72 1338.0 1.5587 700.00 0.0014286 492.72 1338.0 1.5587 2.5117 2.8488 2363.9 -0.0051248 517.20 0.32014 700.00 0.0014286 492.72 1338.0 1.5587 2.5117 2.8488 2363.9 -0.0051248 517.20 0.32014
183.38 86007. undefined 495.24 1342.4 1.5642 700.00 0.0014286 495.24 1342.4 1.5642 2.5156 2.8524 2364.7 -0.0051181 516.89 0.32056 700.00 0.0014286 495.24 1342.4 1.5642 2.5156 2.8524 2364.7 -0.0051181 516.89 0.32056
184.38 86201. undefined 497.75 1346.8 1.5697 700.00 0.0014286 497.75 1346.8 1.5697 2.5195 2.8560 2365.6 -0.0051115 516.60 0.32098 700.00 0.0014286 497.75 1346.8 1.5697 2.5195 2.8560 2365.6 -0.0051115 516.60 0.32098
185.38 86394. undefined 500.27 1351.2 1.5752 700.00 0.0014286 500.27 1351.2 1.5752 2.5234 2.8596 2366.4 -0.0051048 516.30 0.32139 700.00 0.0014286 500.27 1351.2 1.5752 2.5234 2.8596 2366.4 -0.0051048 516.30 0.32139
186.38 86587. undefined 502.80 1355.7 1.5807 700.00 0.0014286 502.80 1355.7 1.5807 2.5273 2.8632 2367.2 -0.0050982 516.00 0.32181 700.00 0.0014286 502.80 1355.7 1.5807 2.5273 2.8632 2367.2 -0.0050982 516.00 0.32181
187.38 86780. undefined 505.33 1360.1 1.5862 700.00 0.0014286 505.33 1360.1 1.5862 2.5312 2.8669 2368.1 -0.0050916 515.71 0.32223 700.00 0.0014286 505.33 1360.1 1.5862 2.5312 2.8669 2368.1 -0.0050916 515.71 0.32223
188.38 86973. undefined 507.86 1364.5 1.5917 700.00 0.0014286 507.86 1364.5 1.5917 2.5351 2.8705 2368.9 -0.0050850 515.42 0.32265 700.00 0.0014286 507.86 1364.5 1.5917 2.5351 2.8705 2368.9 -0.0050850 515.42 0.32265
189.38 87165. undefined 510.40 1368.9 1.5972 700.00 0.0014286 510.40 1368.9 1.5972 2.5390 2.8741 2369.8 -0.0050785 515.13 0.32307 700.00 0.0014286 510.40 1368.9 1.5972 2.5390 2.8741 2369.8 -0.0050785 515.13 0.32307
190.38 87358. undefined 512.94 1373.4 1.6027 700.00 0.0014286 512.94 1373.4 1.6027 2.5429 2.8777 2370.6 -0.0050720 514.84 0.32349 700.00 0.0014286 512.94 1373.4 1.6027 2.5429 2.8777 2370.6 -0.0050720 514.84 0.32349
191.38 87550. undefined 515.49 1377.8 1.6082 700.00 0.0014286 515.49 1377.8 1.6082 2.5468 2.8813 2371.4 -0.0050654 514.56 0.32392 700.00 0.0014286 515.49 1377.8 1.6082 2.5468 2.8813 2371.4 -0.0050654 514.56 0.32392
192.38 87742. undefined 518.03 1382.3 1.6137 700.00 0.0014286 518.03 1382.3 1.6137 2.5506 2.8848 2372.3 -0.0050590 514.28 0.32434 700.00 0.0014286 518.03 1382.3 1.6137 2.5506 2.8848 2372.3 -0.0050590 514.28 0.32434
193.38 87934. undefined 520.59 1386.7 1.6191 700.00 0.0014286 520.59 1386.7 1.6191 2.5545 2.8884 2373.1 -0.0050525 513.99 0.32476 700.00 0.0014286 520.59 1386.7 1.6191 2.5545 2.8884 2373.1 -0.0050525 513.99 0.32476
194.38 88125. undefined 523.14 1391.1 1.6246 700.00 0.0014286 523.14 1391.1 1.6246 2.5584 2.8920 2373.9 -0.0050461 513.72 0.32518 700.00 0.0014286 523.14 1391.1 1.6246 2.5584 2.8920 2373.9 -0.0050461 513.72 0.32518
195.38 88317. undefined 525.70 1395.6 1.6301 700.00 0.0014286 525.70 1395.6 1.6301 2.5622 2.8956 2374.8 -0.0050397 513.44 0.32560 700.00 0.0014286 525.70 1395.6 1.6301 2.5622 2.8956 2374.8 -0.0050397 513.44 0.32560
196.38 88508. undefined 528.27 1400.0 1.6356 700.00 0.0014286 528.27 1400.0 1.6356 2.5661 2.8992 2375.6 -0.0050333 513.16 0.32602 700.00 0.0014286 528.27 1400.0 1.6356 2.5661 2.8992 2375.6 -0.0050333 513.16 0.32602
197.38 88699. undefined 530.84 1404.5 1.6410 700.00 0.0014286 530.84 1404.5 1.6410 2.5699 2.9027 2376.4 -0.0050269 512.89 0.32645 700.00 0.0014286 530.84 1404.5 1.6410 2.5699 2.9027 2376.4 -0.0050269 512.89 0.32645
198.38 88890. undefined 533.41 1408.9 1.6465 700.00 0.0014286 533.41 1408.9 1.6465 2.5738 2.9063 2377.3 -0.0050205 512.62 0.32687 700.00 0.0014286 533.41 1408.9 1.6465 2.5738 2.9063 2377.3 -0.0050205 512.62 0.32687
199.38 89080. undefined 535.98 1413.4 1.6519 700.00 0.0014286 535.98 1413.4 1.6519 2.5776 2.9099 2378.1 -0.0050142 512.35 0.32729 700.00 0.0014286 535.98 1413.4 1.6519 2.5776 2.9099 2378.1 -0.0050142 512.35 0.32729
200.38 89271. undefined 538.56 1417.8 1.6574 700.00 0.0014286 538.56 1417.8 1.6574 2.5814 2.9134 2378.9 -0.0050079 512.08 0.32772 700.00 0.0014286 538.56 1417.8 1.6574 2.5814 2.9134 2378.9 -0.0050079 512.08 0.32772
201.38 89461. undefined 541.15 1422.3 1.6628 700.00 0.0014286 541.15 1422.3 1.6628 2.5853 2.9170 2379.8 -0.0050016 511.81 0.32814 700.00 0.0014286 541.15 1422.3 1.6628 2.5853 2.9170 2379.8 -0.0050016 511.81 0.32814
202.38 89651. undefined 543.73 1426.8 1.6683 700.00 0.0014286 543.73 1426.8 1.6683 2.5891 2.9205 2380.6 -0.0049954 511.55 0.32856 700.00 0.0014286 543.73 1426.8 1.6683 2.5891 2.9205 2380.6 -0.0049954 511.55 0.32856
203.38 89841. undefined 546.32 1431.2 1.6737 700.00 0.0014286 546.32 1431.2 1.6737 2.5929 2.9241 2381.4 -0.0049891 511.29 0.32899 700.00 0.0014286 546.32 1431.2 1.6737 2.5929 2.9241 2381.4 -0.0049891 511.29 0.32899
204.38 90031. undefined 548.92 1435.7 1.6792 700.00 0.0014286 548.92 1435.7 1.6792 2.5967 2.9276 2382.2 -0.0049829 511.02 0.32941 700.00 0.0014286 548.92 1435.7 1.6792 2.5967 2.9276 2382.2 -0.0049829 511.02 0.32941
205.38 90220. undefined 551.52 1440.2 1.6846 700.00 0.0014286 551.52 1440.2 1.6846 2.6005 2.9312 2383.1 -0.0049767 510.77 0.32984 700.00 0.0014286 551.52 1440.2 1.6846 2.6005 2.9312 2383.1 -0.0049767 510.77 0.32984
206.38 90410. undefined 554.12 1444.6 1.6900 700.00 0.0014286 554.12 1444.6 1.6900 2.6043 2.9347 2383.9 -0.0049706 510.51 0.33026 700.00 0.0014286 554.12 1444.6 1.6900 2.6043 2.9347 2383.9 -0.0049706 510.51 0.33026
207.38 90599. undefined 556.73 1449.1 1.6955 700.00 0.0014286 556.73 1449.1 1.6955 2.6081 2.9382 2384.7 -0.0049644 510.25 0.33069 700.00 0.0014286 556.73 1449.1 1.6955 2.6081 2.9382 2384.7 -0.0049644 510.25 0.33069
208.38 90788. undefined 559.34 1453.6 1.7009 700.00 0.0014286 559.34 1453.6 1.7009 2.6119 2.9418 2385.5 -0.0049583 510.00 0.33111 700.00 0.0014286 559.34 1453.6 1.7009 2.6119 2.9418 2385.5 -0.0049583 510.00 0.33111
209.38 90977. undefined 561.95 1458.0 1.7063 700.00 0.0014286 561.95 1458.0 1.7063 2.6157 2.9453 2386.4 -0.0049522 509.75 0.33154 700.00 0.0014286 561.95 1458.0 1.7063 2.6157 2.9453 2386.4 -0.0049522 509.75 0.33154
210.38 91165. undefined 564.57 1462.5 1.7117 700.00 0.0014286 564.57 1462.5 1.7117 2.6195 2.9488 2387.2 -0.0049461 509.49 0.33197 700.00 0.0014286 564.57 1462.5 1.7117 2.6195 2.9488 2387.2 -0.0049461 509.49 0.33197
211.38 91354. undefined 567.19 1467.0 1.7172 700.00 0.0014286 567.19 1467.0 1.7172 2.6233 2.9523 2388.0 -0.0049400 509.25 0.33239 700.00 0.0014286 567.19 1467.0 1.7172 2.6233 2.9523 2388.0 -0.0049400 509.25 0.33239
212.38 91542. undefined 569.81 1471.5 1.7226 700.00 0.0014286 569.81 1471.5 1.7226 2.6271 2.9558 2388.8 -0.0049340 509.00 0.33282 700.00 0.0014286 569.81 1471.5 1.7226 2.6271 2.9558 2388.8 -0.0049340 509.00 0.33282
213.38 91730. undefined 572.44 1476.0 1.7280 700.00 0.0014286 572.44 1476.0 1.7280 2.6308 2.9593 2389.6 -0.0049280 508.75 0.33325 700.00 0.0014286 572.44 1476.0 1.7280 2.6308 2.9593 2389.6 -0.0049280 508.75 0.33325
214.38 91918. undefined 575.08 1480.4 1.7334 700.00 0.0014286 575.08 1480.4 1.7334 2.6346 2.9628 2390.5 -0.0049220 508.51 0.33368 700.00 0.0014286 575.08 1480.4 1.7334 2.6346 2.9628 2390.5 -0.0049220 508.51 0.33368
215.38 92105. undefined 577.71 1484.9 1.7388 700.00 0.0014286 577.71 1484.9 1.7388 2.6383 2.9663 2391.3 -0.0049160 508.26 0.33410 700.00 0.0014286 577.71 1484.9 1.7388 2.6383 2.9663 2391.3 -0.0049160 508.26 0.33410
216.38 92293. undefined 580.35 1489.4 1.7442 700.00 0.0014286 580.35 1489.4 1.7442 2.6421 2.9698 2392.1 -0.0049100 508.02 0.33453 700.00 0.0014286 580.35 1489.4 1.7442 2.6421 2.9698 2392.1 -0.0049100 508.02 0.33453
217.38 92480. undefined 583.00 1493.9 1.7496 700.00 0.0014286 583.00 1493.9 1.7496 2.6458 2.9733 2392.9 -0.0049041 507.78 0.33496 700.00 0.0014286 583.00 1493.9 1.7496 2.6458 2.9733 2392.9 -0.0049041 507.78 0.33496
218.38 92667. undefined 585.64 1498.4 1.7550 700.00 0.0014286 585.64 1498.4 1.7550 2.6496 2.9768 2393.7 -0.0048982 507.55 0.33539 700.00 0.0014286 585.64 1498.4 1.7550 2.6496 2.9768 2393.7 -0.0048982 507.55 0.33539
219.38 92854. undefined 588.30 1502.9 1.7604 700.00 0.0014286 588.30 1502.9 1.7604 2.6533 2.9803 2394.5 -0.0048923 507.31 0.33582 700.00 0.0014286 588.30 1502.9 1.7604 2.6533 2.9803 2394.5 -0.0048923 507.31 0.33582
220.38 93041. undefined 590.95 1507.4 1.7657 700.00 0.0014286 590.95 1507.4 1.7657 2.6571 2.9838 2395.4 -0.0048864 507.07 0.33625 700.00 0.0014286 590.95 1507.4 1.7657 2.6571 2.9838 2395.4 -0.0048864 507.07 0.33625
221.38 93228. undefined 593.61 1511.9 1.7711 700.00 0.0014286 593.61 1511.9 1.7711 2.6608 2.9872 2396.2 -0.0048805 506.84 0.33668 700.00 0.0014286 593.61 1511.9 1.7711 2.6608 2.9872 2396.2 -0.0048805 506.84 0.33668
222.38 93414. undefined 596.27 1516.4 1.7765 700.00 0.0014286 596.27 1516.4 1.7765 2.6645 2.9907 2397.0 -0.0048747 506.61 0.33711 700.00 0.0014286 596.27 1516.4 1.7765 2.6645 2.9907 2397.0 -0.0048747 506.61 0.33711
223.38 93601. undefined 598.94 1520.9 1.7819 700.00 0.0014286 598.94 1520.9 1.7819 2.6682 2.9942 2397.8 -0.0048689 506.38 0.33754 700.00 0.0014286 598.94 1520.9 1.7819 2.6682 2.9942 2397.8 -0.0048689 506.38 0.33754
224.38 93787. undefined 601.61 1525.4 1.7873 700.00 0.0014286 601.61 1525.4 1.7873 2.6719 2.9976 2398.6 -0.0048631 506.15 0.33797 700.00 0.0014286 601.61 1525.4 1.7873 2.6719 2.9976 2398.6 -0.0048631 506.15 0.33797
225.38 93973. undefined 604.28 1529.9 1.7926 700.00 0.0014286 604.28 1529.9 1.7926 2.6757 3.0011 2399.4 -0.0048573 505.92 0.33840 700.00 0.0014286 604.28 1529.9 1.7926 2.6757 3.0011 2399.4 -0.0048573 505.92 0.33840
226.38 94158. undefined 606.96 1534.4 1.7980 700.00 0.0014286 606.96 1534.4 1.7980 2.6794 3.0046 2400.2 -0.0048516 505.70 0.33883 700.00 0.0014286 606.96 1534.4 1.7980 2.6794 3.0046 2400.2 -0.0048516 505.70 0.33883
227.38 94344. undefined 609.64 1538.9 1.8033 700.00 0.0014286 609.64 1538.9 1.8033 2.6831 3.0080 2401.0 -0.0048458 505.47 0.33926 700.00 0.0014286 609.64 1538.9 1.8033 2.6831 3.0080 2401.0 -0.0048458 505.47 0.33926
228.38 94529. undefined 612.33 1543.4 1.8087 700.00 0.0014286 612.33 1543.4 1.8087 2.6867 3.0114 2401.8 -0.0048401 505.25 0.33969 700.00 0.0014286 612.33 1543.4 1.8087 2.6867 3.0114 2401.8 -0.0048401 505.25 0.33969
229.38 94715. undefined 615.02 1547.9 1.8141 700.00 0.0014286 615.02 1547.9 1.8141 2.6904 3.0149 2402.7 -0.0048344 505.03 0.34012 700.00 0.0014286 615.02 1547.9 1.8141 2.6904 3.0149 2402.7 -0.0048344 505.03 0.34012
230.38 94900. undefined 617.71 1552.4 1.8194 700.00 0.0014286 617.71 1552.4 1.8194 2.6941 3.0183 2403.5 -0.0048287 504.81 0.34056 700.00 0.0014286 617.71 1552.4 1.8194 2.6941 3.0183 2403.5 -0.0048287 504.81 0.34056
231.38 95085. undefined 620.40 1557.0 1.8248 700.00 0.0014286 620.40 1557.0 1.8248 2.6978 3.0218 2404.3 -0.0048231 504.59 0.34099 700.00 0.0014286 620.40 1557.0 1.8248 2.6978 3.0218 2404.3 -0.0048231 504.59 0.34099
232.38 95269. undefined 623.10 1561.5 1.8301 700.00 0.0014286 623.10 1561.5 1.8301 2.7015 3.0252 2405.1 -0.0048175 504.37 0.34142 700.00 0.0014286 623.10 1561.5 1.8301 2.7015 3.0252 2405.1 -0.0048175 504.37 0.34142
233.38 95454. undefined 625.81 1566.0 1.8355 700.00 0.0014286 625.81 1566.0 1.8355 2.7051 3.0286 2405.9 -0.0048118 504.15 0.34186 700.00 0.0014286 625.81 1566.0 1.8355 2.7051 3.0286 2405.9 -0.0048118 504.15 0.34186
234.38 95638. undefined 628.51 1570.5 1.8408 700.00 0.0014286 628.51 1570.5 1.8408 2.7088 3.0320 2406.7 -0.0048062 503.94 0.34229 700.00 0.0014286 628.51 1570.5 1.8408 2.7088 3.0320 2406.7 -0.0048062 503.94 0.34229
235.38 95823. undefined 631.22 1575.0 1.8461 700.00 0.0014286 631.22 1575.0 1.8461 2.7125 3.0354 2407.5 -0.0048007 503.73 0.34272 700.00 0.0014286 631.22 1575.0 1.8461 2.7125 3.0354 2407.5 -0.0048007 503.73 0.34272
236.38 96007. undefined 633.94 1579.6 1.8515 700.00 0.0014286 633.94 1579.6 1.8515 2.7161 3.0388 2408.3 -0.0047951 503.51 0.34316 700.00 0.0014286 633.94 1579.6 1.8515 2.7161 3.0388 2408.3 -0.0047951 503.51 0.34316
237.38 96191. undefined 636.66 1584.1 1.8568 700.00 0.0014286 636.66 1584.1 1.8568 2.7198 3.0423 2409.1 -0.0047896 503.30 0.34359 700.00 0.0014286 636.66 1584.1 1.8568 2.7198 3.0423 2409.1 -0.0047896 503.30 0.34359
238.38 96374. undefined 639.38 1588.6 1.8621 700.00 0.0014286 639.38 1588.6 1.8621 2.7234 3.0457 2409.9 -0.0047841 503.09 0.34403 700.00 0.0014286 639.38 1588.6 1.8621 2.7234 3.0457 2409.9 -0.0047841 503.09 0.34403
239.38 96558. undefined 642.10 1593.2 1.8674 700.00 0.0014286 642.10 1593.2 1.8674 2.7270 3.0491 2410.7 -0.0047786 502.89 0.34446 700.00 0.0014286 642.10 1593.2 1.8674 2.7270 3.0491 2410.7 -0.0047786 502.89 0.34446
240.38 96741. undefined 644.83 1597.7 1.8728 700.00 0.0014286 644.83 1597.7 1.8728 2.7307 3.0525 2411.5 -0.0047731 502.68 0.34490 700.00 0.0014286 644.83 1597.7 1.8728 2.7307 3.0525 2411.5 -0.0047731 502.68 0.34490
241.38 96924. undefined 647.56 1602.2 1.8781 700.00 0.0014286 647.56 1602.2 1.8781 2.7343 3.0558 2412.3 -0.0047676 502.47 0.34533 700.00 0.0014286 647.56 1602.2 1.8781 2.7343 3.0558 2412.3 -0.0047676 502.47 0.34533
242.38 97107. undefined 650.30 1606.8 1.8834 700.00 0.0014286 650.30 1606.8 1.8834 2.7379 3.0592 2413.1 -0.0047622 502.27 0.34577 700.00 0.0014286 650.30 1606.8 1.8834 2.7379 3.0592 2413.1 -0.0047622 502.27 0.34577
243.38 97290. undefined 653.04 1611.3 1.8887 700.00 0.0014286 653.04 1611.3 1.8887 2.7415 3.0626 2413.9 -0.0047567 502.07 0.34620 700.00 0.0014286 653.04 1611.3 1.8887 2.7415 3.0626 2413.9 -0.0047567 502.07 0.34620
244.38 97473. undefined 655.78 1615.9 1.8940 700.00 0.0014286 655.78 1615.9 1.8940 2.7451 3.0660 2414.7 -0.0047513 501.87 0.34664 700.00 0.0014286 655.78 1615.9 1.8940 2.7451 3.0660 2414.7 -0.0047513 501.87 0.34664
245.38 97656. undefined 658.53 1620.4 1.8993 700.00 0.0014286 658.53 1620.4 1.8993 2.7487 3.0694 2415.5 -0.0047459 501.67 0.34708 700.00 0.0014286 658.53 1620.4 1.8993 2.7487 3.0694 2415.5 -0.0047459 501.67 0.34708
246.38 97838. undefined 661.28 1625.0 1.9046 700.00 0.0014286 661.28 1625.0 1.9046 2.7524 3.0727 2416.3 -0.0047406 501.47 0.34751 700.00 0.0014286 661.28 1625.0 1.9046 2.7524 3.0727 2416.3 -0.0047406 501.47 0.34751
247.38 98020. undefined 664.03 1629.5 1.9099 700.00 0.0014286 664.03 1629.5 1.9099 2.7559 3.0761 2417.1 -0.0047352 501.27 0.34795 700.00 0.0014286 664.03 1629.5 1.9099 2.7559 3.0761 2417.1 -0.0047352 501.27 0.34795
248.38 98202. undefined 666.79 1634.1 1.9152 700.00 0.0014286 666.79 1634.1 1.9152 2.7595 3.0794 2417.9 -0.0047299 501.07 0.34839 700.00 0.0014286 666.79 1634.1 1.9152 2.7595 3.0794 2417.9 -0.0047299 501.07 0.34839
249.38 98384. undefined 669.55 1638.6 1.9205 700.00 0.0014286 669.55 1638.6 1.9205 2.7631 3.0828 2418.7 -0.0047246 500.88 0.34882 700.00 0.0014286 669.55 1638.6 1.9205 2.7631 3.0828 2418.7 -0.0047246 500.88 0.34882
250.38 98566. undefined 672.32 1643.2 1.9258 700.00 0.0014286 672.32 1643.2 1.9258 2.7667 3.0862 2419.5 -0.0047193 500.68 0.34926 700.00 0.0014286 672.32 1643.2 1.9258 2.7667 3.0862 2419.5 -0.0047193 500.68 0.34926
251.38 98748. undefined 675.09 1647.7 1.9310 700.00 0.0014286 675.09 1647.7 1.9310 2.7703 3.0895 2420.3 -0.0047140 500.49 0.34970 700.00 0.0014286 675.09 1647.7 1.9310 2.7703 3.0895 2420.3 -0.0047140 500.49 0.34970
252.38 98929. undefined 677.86 1652.3 1.9363 700.00 0.0014286 677.86 1652.3 1.9363 2.7739 3.0928 2421.0 -0.0047087 500.30 0.35014 700.00 0.0014286 677.86 1652.3 1.9363 2.7739 3.0928 2421.0 -0.0047087 500.30 0.35014
253.38 99110. undefined 680.64 1656.8 1.9416 700.00 0.0014286 680.64 1656.8 1.9416 2.7774 3.0962 2421.8 -0.0047035 500.11 0.35058 700.00 0.0014286 680.64 1656.8 1.9416 2.7774 3.0962 2421.8 -0.0047035 500.11 0.35058
254.38 99291. undefined 683.41 1661.4 1.9469 700.00 0.0014286 683.41 1661.4 1.9469 2.7810 3.0995 2422.6 -0.0046983 499.92 0.35102 700.00 0.0014286 683.41 1661.4 1.9469 2.7810 3.0995 2422.6 -0.0046983 499.92 0.35102
255.38 99472. undefined 686.20 1666.0 1.9521 700.00 0.0014286 686.20 1666.0 1.9521 2.7845 3.1028 2423.4 -0.0046931 499.73 0.35146 700.00 0.0014286 686.20 1666.0 1.9521 2.7845 3.1028 2423.4 -0.0046931 499.73 0.35146
256.38 99653. undefined 688.98 1670.5 1.9574 700.00 0.0014286 688.98 1670.5 1.9574 2.7881 3.1062 2424.2 -0.0046879 499.54 0.35190 700.00 0.0014286 688.98 1670.5 1.9574 2.7881 3.1062 2424.2 -0.0046879 499.54 0.35190
257.38 99834. undefined 691.77 1675.1 1.9627 700.00 0.0014286 691.77 1675.1 1.9627 2.7916 3.1095 2425.0 -0.0046827 499.36 0.35234 700.00 0.0014286 691.77 1675.1 1.9627 2.7916 3.1095 2425.0 -0.0046827 499.36 0.35234
258.38 1.0001e+05 undefined 694.57 1679.7 1.9679 700.00 0.0014286 694.57 1679.7 1.9679 2.7952 3.1128 2425.8 -0.0046776 499.17 0.35278 700.00 0.0014286 694.57 1679.7 1.9679 2.7952 3.1128 2425.8 -0.0046776 499.17 0.35278
259.38 1.0019e+05 undefined 697.36 1684.2 1.9732 700.00 0.0014286 697.36 1684.2 1.9732 2.7987 3.1161 2426.6 -0.0046724 498.99 0.35322 700.00 0.0014286 697.36 1684.2 1.9732 2.7987 3.1161 2426.6 -0.0046724 498.99 0.35322
260.38 1.0037e+05 undefined 700.16 1688.8 1.9785 700.00 0.0014286 700.16 1688.8 1.9785 2.8022 3.1194 2427.4 -0.0046673 498.80 0.35366 700.00 0.0014286 700.16 1688.8 1.9785 2.8022 3.1194 2427.4 -0.0046673 498.80 0.35366
261.38 1.0055e+05 undefined 702.97 1693.4 1.9837 700.00 0.0014286 702.97 1693.4 1.9837 2.8058 3.1227 2428.1 -0.0046622 498.62 0.35410 700.00 0.0014286 702.97 1693.4 1.9837 2.8058 3.1227 2428.1 -0.0046622 498.62 0.35410
262.38 1.0073e+05 undefined 705.78 1698.0 1.9889 700.00 0.0014286 705.78 1698.0 1.9889 2.8093 3.1260 2428.9 -0.0046571 498.44 0.35454 700.00 0.0014286 705.78 1698.0 1.9889 2.8093 3.1260 2428.9 -0.0046571 498.44 0.35454
263.38 1.0091e+05 undefined 708.59 1702.6 1.9942 700.00 0.0014286 708.59 1702.6 1.9942 2.8128 3.1293 2429.7 -0.0046520 498.26 0.35498 700.00 0.0014286 708.59 1702.6 1.9942 2.8128 3.1293 2429.7 -0.0046520 498.26 0.35498
264.38 1.0109e+05 undefined 711.40 1707.1 1.9994 700.00 0.0014286 711.40 1707.1 1.9994 2.8163 3.1326 2430.5 -0.0046470 498.08 0.35543 700.00 0.0014286 711.40 1707.1 1.9994 2.8163 3.1326 2430.5 -0.0046470 498.08 0.35543
265.38 1.0127e+05 undefined 714.22 1711.7 2.0047 700.00 0.0014286 714.22 1711.7 2.0047 2.8198 3.1359 2431.3 -0.0046420 497.91 0.35587 700.00 0.0014286 714.22 1711.7 2.0047 2.8198 3.1359 2431.3 -0.0046420 497.91 0.35587
266.38 1.0145e+05 undefined 717.04 1716.3 2.0099 700.00 0.0014286 717.04 1716.3 2.0099 2.8233 3.1392 2432.1 -0.0046369 497.73 0.35631 700.00 0.0014286 717.04 1716.3 2.0099 2.8233 3.1392 2432.1 -0.0046369 497.73 0.35631
267.38 1.0163e+05 undefined 719.87 1720.9 2.0151 700.00 0.0014286 719.87 1720.9 2.0151 2.8268 3.1425 2432.8 -0.0046319 497.56 0.35676 700.00 0.0014286 719.87 1720.9 2.0151 2.8268 3.1425 2432.8 -0.0046319 497.56 0.35676
268.38 1.0181e+05 undefined 722.69 1725.5 2.0204 700.00 0.0014286 722.69 1725.5 2.0204 2.8303 3.1457 2433.6 -0.0046270 497.38 0.35720 700.00 0.0014286 722.69 1725.5 2.0204 2.8303 3.1457 2433.6 -0.0046270 497.38 0.35720
269.38 1.0199e+05 undefined 725.53 1730.1 2.0256 700.00 0.0014286 725.53 1730.1 2.0256 2.8338 3.1490 2434.4 -0.0046220 497.21 0.35764 700.00 0.0014286 725.53 1730.1 2.0256 2.8338 3.1490 2434.4 -0.0046220 497.21 0.35764
270.38 1.0217e+05 undefined 728.36 1734.7 2.0308 700.00 0.0014286 728.36 1734.7 2.0308 2.8373 3.1523 2435.2 -0.0046170 497.04 0.35809 700.00 0.0014286 728.36 1734.7 2.0308 2.8373 3.1523 2435.2 -0.0046170 497.04 0.35809
271.38 1.0235e+05 undefined 731.20 1739.3 2.0360 700.00 0.0014286 731.20 1739.3 2.0360 2.8407 3.1555 2436.0 -0.0046121 496.87 0.35853 700.00 0.0014286 731.20 1739.3 2.0360 2.8407 3.1555 2436.0 -0.0046121 496.87 0.35853
272.38 1.0252e+05 undefined 734.04 1743.9 2.0412 700.00 0.0014286 734.04 1743.9 2.0412 2.8442 3.1588 2436.7 -0.0046072 496.70 0.35897 700.00 0.0014286 734.04 1743.9 2.0412 2.8442 3.1588 2436.7 -0.0046072 496.70 0.35897
273.38 1.0270e+05 undefined 736.89 1748.5 2.0465 700.00 0.0014286 736.89 1748.5 2.0465 2.8477 3.1620 2437.5 -0.0046023 496.53 0.35942 700.00 0.0014286 736.89 1748.5 2.0465 2.8477 3.1620 2437.5 -0.0046023 496.53 0.35942
274.38 1.0288e+05 undefined 739.74 1753.1 2.0517 700.00 0.0014286 739.74 1753.1 2.0517 2.8511 3.1653 2438.3 -0.0045974 496.36 0.35986 700.00 0.0014286 739.74 1753.1 2.0517 2.8511 3.1653 2438.3 -0.0045974 496.36 0.35986
275.38 1.0306e+05 undefined 742.59 1757.7 2.0569 700.00 0.0014286 742.59 1757.7 2.0569 2.8546 3.1685 2439.1 -0.0045926 496.19 0.36031 700.00 0.0014286 742.59 1757.7 2.0569 2.8546 3.1685 2439.1 -0.0045926 496.19 0.36031
276.38 1.0324e+05 undefined 745.45 1762.3 2.0621 700.00 0.0014286 745.45 1762.3 2.0621 2.8581 3.1718 2439.9 -0.0045877 496.03 0.36076 700.00 0.0014286 745.45 1762.3 2.0621 2.8581 3.1718 2439.9 -0.0045877 496.03 0.36076
277.38 1.0341e+05 undefined 748.31 1766.9 2.0673 700.00 0.0014286 748.31 1766.9 2.0673 2.8615 3.1750 2440.6 -0.0045829 495.86 0.36120 700.00 0.0014286 748.31 1766.9 2.0673 2.8615 3.1750 2440.6 -0.0045829 495.86 0.36120
278.38 1.0359e+05 undefined 751.17 1771.5 2.0725 700.00 0.0014286 751.17 1771.5 2.0725 2.8649 3.1782 2441.4 -0.0045780 495.70 0.36165 700.00 0.0014286 751.17 1771.5 2.0725 2.8649 3.1782 2441.4 -0.0045780 495.70 0.36165
279.38 1.0377e+05 undefined 754.04 1776.1 2.0777 700.00 0.0014286 754.04 1776.1 2.0777 2.8684 3.1814 2442.2 -0.0045732 495.54 0.36209 700.00 0.0014286 754.04 1776.1 2.0777 2.8684 3.1814 2442.2 -0.0045732 495.54 0.36209
280.38 1.0395e+05 undefined 756.91 1780.7 2.0829 700.00 0.0014286 756.91 1780.7 2.0829 2.8718 3.1847 2443.0 -0.0045685 495.37 0.36254 700.00 0.0014286 756.91 1780.7 2.0829 2.8718 3.1847 2443.0 -0.0045685 495.37 0.36254
281.38 1.0412e+05 undefined 759.78 1785.4 2.0880 700.00 0.0014286 759.78 1785.4 2.0880 2.8752 3.1879 2443.7 -0.0045637 495.21 0.36299 700.00 0.0014286 759.78 1785.4 2.0880 2.8752 3.1879 2443.7 -0.0045637 495.21 0.36299
282.38 1.0430e+05 undefined 762.66 1790.0 2.0932 700.00 0.0014286 762.66 1790.0 2.0932 2.8787 3.1911 2444.5 -0.0045589 495.05 0.36334 700.00 0.0014286 762.66 1790.0 2.0932 2.8787 3.1911 2444.5 -0.0045589 495.05 0.36334
283.38 1.0448e+05 undefined 765.54 1794.6 2.0984 700.00 0.0014286 765.54 1794.6 2.0984 2.8821 3.1943 2445.3 -0.0045542 494.89 0.36379 700.00 0.0014286 765.54 1794.6 2.0984 2.8821 3.1943 2445.3 -0.0045542 494.89 0.36379
284.38 1.0465e+05 undefined 768.42 1799.2 2.1036 700.00 0.0014286 768.42 1799.2 2.1036 2.8855 3.1975 2446.0 -0.0045495 494.74 0.36423 700.00 0.0014286 768.42 1799.2 2.1036 2.8855 3.1975 2446.0 -0.0045495 494.74 0.36423
285.38 1.0483e+05 undefined 771.31 1803.8 2.1088 700.00 0.0014286 771.31 1803.8 2.1088 2.8889 3.2007 2446.8 -0.0045448 494.58 0.36468 700.00 0.0014286 771.31 1803.8 2.1088 2.8889 3.2007 2446.8 -0.0045448 494.58 0.36468
286.38 1.0501e+05 undefined 774.20 1808.5 2.1139 700.00 0.0014286 774.20 1808.5 2.1139 2.8923 3.2039 2447.6 -0.0045401 494.42 0.36513 700.00 0.0014286 774.20 1808.5 2.1139 2.8923 3.2039 2447.6 -0.0045401 494.42 0.36513
287.38 1.0518e+05 undefined 777.09 1813.1 2.1191 700.00 0.0014286 777.09 1813.1 2.1191 2.8957 3.2071 2448.3 -0.0045354 494.27 0.36558 700.00 0.0014286 777.09 1813.1 2.1191 2.8957 3.2071 2448.3 -0.0045354 494.27 0.36558
288.38 1.0536e+05 undefined 779.99 1817.7 2.1243 700.00 0.0014286 779.99 1817.7 2.1243 2.8991 3.2103 2449.1 -0.0045307 494.11 0.36603 700.00 0.0014286 779.99 1817.7 2.1243 2.8991 3.2103 2449.1 -0.0045307 494.11 0.36603
289.38 1.0553e+05 undefined 782.89 1822.4 2.1294 700.00 0.0014286 782.89 1822.4 2.1294 2.9025 3.2135 2449.9 -0.0045261 493.96 0.36648 700.00 0.0014286 782.89 1822.4 2.1294 2.9025 3.2135 2449.9 -0.0045261 493.96 0.36648
290.38 1.0571e+05 undefined 785.80 1827.0 2.1346 700.00 0.0014286 785.80 1827.0 2.1346 2.9058 3.2166 2450.7 -0.0045214 493.81 0.36693 700.00 0.0014286 785.80 1827.0 2.1346 2.9058 3.2166 2450.7 -0.0045214 493.81 0.36693
291.38 1.0589e+05 undefined 788.70 1831.6 2.1397 700.00 0.0014286 788.70 1831.6 2.1397 2.9092 3.2198 2451.4 -0.0045168 493.66 0.36738 700.00 0.0014286 788.70 1831.6 2.1397 2.9092 3.2198 2451.4 -0.0045168 493.66 0.36738
292.38 1.0606e+05 undefined 791.61 1836.3 2.1449 700.00 0.0014286 791.61 1836.3 2.1449 2.9126 3.2230 2452.2 -0.0045122 493.50 0.36783 700.00 0.0014286 791.61 1836.3 2.1449 2.9126 3.2230 2452.2 -0.0045122 493.50 0.36783
293.38 1.0624e+05 undefined 794.53 1840.9 2.1500 700.00 0.0014286 794.53 1840.9 2.1500 2.9160 3.2262 2452.9 -0.0045076 493.35 0.36828 700.00 0.0014286 794.53 1840.9 2.1500 2.9160 3.2262 2452.9 -0.0045076 493.35 0.36828
294.38 1.0641e+05 undefined 797.45 1845.6 2.1552 700.00 0.0014286 797.45 1845.6 2.1552 2.9193 3.2293 2453.7 -0.0045031 493.21 0.36873 700.00 0.0014286 797.45 1845.6 2.1552 2.9193 3.2293 2453.7 -0.0045031 493.21 0.36873
295.38 1.0659e+05 undefined 800.37 1850.2 2.1603 700.00 0.0014286 800.37 1850.2 2.1603 2.9227 3.2325 2454.5 -0.0044985 493.06 0.36918 700.00 0.0014286 800.37 1850.2 2.1603 2.9227 3.2325 2454.5 -0.0044985 493.06 0.36918
296.38 1.0676e+05 undefined 803.29 1854.8 2.1655 700.00 0.0014286 803.29 1854.8 2.1655 2.9260 3.2356 2455.2 -0.0044940 492.91 0.36963 700.00 0.0014286 803.29 1854.8 2.1655 2.9260 3.2356 2455.2 -0.0044940 492.91 0.36963
297.38 1.0694e+05 undefined 806.22 1859.5 2.1706 700.00 0.0014286 806.22 1859.5 2.1706 2.9294 3.2388 2456.0 -0.0044895 492.76 0.37008 700.00 0.0014286 806.22 1859.5 2.1706 2.9294 3.2388 2456.0 -0.0044895 492.76 0.37008
298.38 1.0711e+05 undefined 809.15 1864.1 2.1757 700.00 0.0014286 809.15 1864.1 2.1757 2.9327 3.2419 2456.8 -0.0044849 492.62 0.37053 700.00 0.0014286 809.15 1864.1 2.1757 2.9327 3.2419 2456.8 -0.0044849 492.62 0.37053
299.38 1.0728e+05 undefined 812.09 1868.8 2.1809 700.00 0.0014286 812.09 1868.8 2.1809 2.9361 3.2451 2457.5 -0.0044804 492.47 0.37099 700.00 0.0014286 812.09 1868.8 2.1809 2.9361 3.2451 2457.5 -0.0044804 492.47 0.37099
300.38 1.0746e+05 undefined 815.02 1873.5 2.1860 700.00 0.0014286 815.02 1873.5 2.1860 2.9394 3.2482 2458.3 -0.0044760 492.33 0.37144 700.00 0.0014286 815.02 1873.5 2.1860 2.9394 3.2482 2458.3 -0.0044760 492.33 0.37144