Temperature (C) Pressure (psia) Quality (l+v) Internal Energy (l+v, kJ/kg) Enthalpy (l+v, kJ/kg) Entropy (l+v, J/g*K) Density (l, kg/m3) Volume (l, m3/kg) Internal Energy (l, kJ/kg) Enthalpy (l, kJ/kg) Entropy (l, J/g*K) Cv (l, J/g*K) Cp (l, J/g*K) Sound Spd. (l, m/s) Joule-Thomson (l, F/psia) Viscosity (l, uPa*s) Therm. Cond. (l, W/m*K) Density (v, kg/m3) Volume (v, m3/kg) Internal Energy (v, kJ/kg) Enthalpy (v, kJ/kg) Entropy (v, J/g*K) Cv (v, J/g*K) Cp (v, J/g*K) Sound Spd. (v, m/s) Joule-Thomson (v, F/psia) Viscosity (v, uPa*s) Therm. Cond. (v, W/m*K)
-187.62 2.4953e-08 5.8055e-13 -196.64 -196.64 -1.3959 733.13 0.0013640 -196.64 -196.64 -1.3959 1.3553 1.9158 2136.4 -0.0077592 10960. 0.20792 1.0669e-08 9.3732e+07 350.13 366.26 5.1858 0.69067 0.87923 143.28 6.1051 2.3259 0.0017061
-186.62 3.7339e-08 8.2800e-13 -194.73 -194.73 -1.3736 732.08 0.0013660 -194.73 -194.73 -1.3736 1.3539 1.9166 2129.6 -0.0077546 10073. 0.20765 1.5780e-08 6.3371e+07 350.82 367.14 5.1200 0.69462 0.88317 144.03 5.9178 2.3534 0.0017533
-185.62 5.5322e-08 1.1677e-12 -192.81 -192.81 -1.3516 731.04 0.0013679 -192.81 -192.81 -1.3516 1.3525 1.9174 2122.9 -0.0077498 9276.1 0.20737 2.3112e-08 4.3267e+07 351.52 368.02 5.0561 0.69857 0.88713 144.77 5.7383 2.3808 0.0018007
-184.62 8.1182e-08 1.6288e-12 -190.89 -190.89 -1.3298 730.00 0.0013699 -190.89 -190.89 -1.3298 1.3513 1.9182 2116.1 -0.0077448 8557.8 0.20708 3.3533e-08 2.9821e+07 352.22 368.91 4.9939 0.70253 0.89108 145.51 5.5662 2.4083 0.0018485
-183.62 1.1803e-07 2.2476e-12 -188.97 -188.97 -1.3083 728.96 0.0013718 -188.97 -188.97 -1.3083 1.3501 1.9191 2109.3 -0.0077395 7909.8 0.20678 4.8211e-08 2.0742e+07 352.92 369.81 4.9333 0.70648 0.89504 146.24 5.4011 2.4357 0.0018965
-182.62 1.7009e-07 3.0686e-12 -187.05 -187.05 -1.2869 727.92 0.0013738 -187.05 -187.05 -1.2869 1.3490 1.9201 2102.5 -0.0077340 7324.3 0.20647 6.8704e-08 1.4555e+07 353.63 370.70 4.8744 0.71043 0.89899 146.97 5.2426 2.4632 0.0019448
-181.62 2.4299e-07 4.1457e-12 -185.13 -185.13 -1.2658 726.88 0.0013757 -185.13 -185.13 -1.2658 1.3480 1.9210 2095.7 -0.0077283 6794.5 0.20616 9.7079e-08 1.0301e+07 354.35 371.60 4.8170 0.71438 0.90294 147.69 5.0904 2.4906 0.0019934
-180.62 3.4425e-07 5.5428e-12 -183.21 -183.21 -1.2450 725.85 0.0013777 -183.21 -183.21 -1.2450 1.3470 1.9220 2088.9 -0.0077225 6314.4 0.20584 1.3605e-07 7.3504e+06 355.06 372.51 4.7612 0.71833 0.90688 148.41 4.9442 2.5181 0.0020423
-179.62 4.8378e-07 7.3345e-12 -181.29 -181.29 -1.2243 724.81 0.0013797 -181.29 -181.29 -1.2243 1.3461 1.9231 2082.0 -0.0077164 5878.8 0.20551 1.8915e-07 5.2868e+06 355.78 373.42 4.7068 0.72227 0.91082 149.13 4.8038 2.5456 0.0020915
-178.62 6.7459e-07 9.6054e-12 -179.37 -179.37 -1.2038 723.78 0.0013816 -179.37 -179.37 -1.2038 1.3453 1.9241 2075.2 -0.0077102 5482.9 0.20517 2.6096e-07 3.8320e+06 356.51 374.33 4.6538 0.72620 0.91475 149.84 4.6688 2.5731 0.0021410
-177.62 9.3358e-07 1.2449e-11 -177.44 -177.44 -1.1836 722.75 0.0013836 -177.44 -177.44 -1.1836 1.3445 1.9252 2068.4 -0.0077039 5122.6 0.20483 3.5737e-07 2.7982e+06 357.23 375.25 4.6022 0.73012 0.91867 150.54 4.5390 2.6005 0.0021907
-176.62 1.2826e-06 1.5966e-11 -175.52 -175.52 -1.1635 721.72 0.0013856 -175.52 -175.52 -1.1635 1.3437 1.9263 2061.5 -0.0076973 4794.1 0.20447 4.8588e-07 2.0581e+06 357.97 376.17 4.5519 0.73403 0.92258 151.25 4.4142 2.6280 0.0022408
-175.62 1.7496e-06 2.0259e-11 -173.59 -173.59 -1.1437 720.69 0.0013876 -173.59 -173.59 -1.1437 1.3430 1.9274 2054.7 -0.0076907 4494.3 0.20411 6.5601e-07 1.5244e+06 358.70 377.09 4.5029 0.73792 0.92648 151.95 4.2941 2.6555 0.0022912
-174.62 2.3705e-06 2.5424e-11 -171.66 -171.66 -1.1240 719.66 0.0013895 -171.66 -171.66 -1.1240 1.3423 1.9286 2047.9 -0.0076838 4220.2 0.20375 8.7976e-07 1.1367e+06 359.44 378.02 4.4551 0.74181 0.93036 152.64 4.1784 2.6830 0.0023418
-173.62 3.1903e-06 3.1546e-11 -169.73 -169.73 -1.1045 718.64 0.0013915 -169.73 -169.73 -1.1045 1.3417 1.9298 2041.0 -0.0076769 3969.3 0.20338 1.1721e-06 8.5314e+05 360.19 378.95 4.4085 0.74568 0.93423 153.33 4.0671 2.7105 0.0023928
-172.62 4.2661e-06 3.8677e-11 -167.80 -167.80 -1.0852 717.61 0.0013935 -167.80 -167.80 -1.0852 1.3411 1.9310 2034.2 -0.0076698 3739.3 0.20300 1.5518e-06 6.4441e+05 360.93 379.89 4.3631 0.74953 0.93809 154.02 3.9599 2.7379 0.0024440
-171.62 5.6692e-06 4.6822e-11 -165.87 -165.87 -1.0661 716.58 0.0013955 -165.87 -165.87 -1.0661 1.3405 1.9322 2027.3 -0.0076625 3528.0 0.20261 2.0419e-06 4.8974e+05 361.69 380.83 4.3188 0.75337 0.94193 154.71 3.8566 2.7654 0.0024955
-170.62 7.4884e-06 5.5910e-11 -163.94 -163.94 -1.0472 715.56 0.0013975 -163.94 -163.94 -1.0472 1.3400 1.9334 2020.5 -0.0076552 3333.8 0.20222 2.6708e-06 3.7442e+05 362.44 381.77 4.2755 0.75720 0.94575 155.39 3.7570 2.7929 0.0025473
-169.62 9.8334e-06 6.5761e-11 -162.00 -162.00 -1.0284 714.54 0.0013995 -162.00 -162.00 -1.0284 1.3395 1.9347 2013.6 -0.0076477 3154.9 0.20182 3.4733e-06 2.8791e+05 363.20 382.72 4.2334 0.76100 0.94956 156.07 3.6609 2.8204 0.0025994
-168.62 1.2839e-05 7.6038e-11 -160.07 -160.07 -1.0098 713.52 0.0014015 -160.07 -160.07 -1.0098 1.3390 1.9359 2006.8 -0.0076401 2989.9 0.20141 4.4917e-06 2.2263e+05 363.96 383.67 4.1922 0.76479 0.95335 156.74 3.5683 2.8479 0.0026518
-167.62 1.6672e-05 8.6195e-11 -158.13 -158.13 -0.99134 712.49 0.0014035 -158.13 -158.13 -0.99134 1.3386 1.9372 2000.0 -0.0076323 2837.5 0.20100 5.7771e-06 1.7310e+05 364.73 384.63 4.1521 0.76856 0.95712 157.41 3.4790 2.8754 0.0027045
-166.62 2.1533e-05 9.5403e-11 -156.19 -156.19 -0.97306 711.47 0.0014055 -156.19 -156.19 -0.97306 1.3382 1.9385 1993.1 -0.0076245 2696.5 0.20058 7.3914e-06 1.3529e+05 365.50 385.59 4.1129 0.77232 0.96087 158.08 3.3927 2.9029 0.0027575
-165.62 2.7666e-05 1.0246e-10 -154.25 -154.25 -0.95494 710.45 0.0014075 -154.25 -154.25 -0.95494 1.3378 1.9398 1986.3 -0.0076165 2566.0 0.20016 9.4084e-06 1.0629e+05 366.27 386.55 4.0746 0.77605 0.96460 158.75 3.3095 2.9304 0.0028108
-164.62 3.5367e-05 1.0569e-10 -152.31 -152.31 -0.93698 709.44 0.0014096 -152.31 -152.31 -0.93698 1.3375 1.9411 1979.4 -0.0076084 2444.9 0.19973 1.1916e-05 83918. 367.05 387.52 4.0372 0.77976 0.96832 159.41 3.2291 2.9579 0.0028643
-163.62 4.4989e-05 1.0280e-10 -150.37 -150.37 -0.91917 708.42 0.0014116 -150.37 -150.37 -0.91917 1.3371 1.9424 1972.6 -0.0076002 2332.3 0.19930 1.5020e-05 66577. 367.83 388.49 4.0008 0.78346 0.97201 160.07 3.1514 2.9854 0.0029182
-162.62 5.6956e-05 9.0716e-11 -148.43 -148.43 -0.90151 707.40 0.0014136 -148.43 -148.43 -0.90151 1.3368 1.9437 1965.8 -0.0075919 2227.7 0.19886 1.8844e-05 53068. 368.62 389.46 3.9651 0.78713 0.97569 160.72 3.0764 3.0129 0.0029723
-161.62 7.1773e-05 6.5419e-11 -146.48 -146.48 -0.88400 706.38 0.0014157 -146.48 -146.48 -0.88400 1.3365 1.9451 1959.0 -0.0075834 2130.2 0.19841 2.3533e-05 42494. 369.41 390.44 3.9304 0.79079 0.97935 161.38 3.0038 3.0404 0.0030268
-160.62 9.0036e-05 2.1685e-11 -144.54 -144.54 -0.86663 705.37 0.0014177 -144.54 -144.54 -0.86663 1.3363 1.9465 1952.1 -0.0075748 2039.2 0.19796 2.9258e-05 34178. 370.20 391.42 3.8964 0.79443 0.98298 162.03 2.9337 3.0679 0.0030815
-159.62 244.41 undefined -142.98 -140.59 -0.85284 705.00 0.0014184 -142.98 -140.59 -0.85284 1.3375 1.9469 1951.4 -0.0075714 1984.3 0.19801 705.00 0.0014184 -142.98 -140.59 -0.85284 1.3375 1.9469 1951.4 -0.0075714 1984.3 0.19801
-158.62 626.84 undefined -141.64 -135.51 -0.84110 705.00 0.0014184 -141.64 -135.51 -0.84110 1.3397 1.9469 1954.2 -0.0075708 1948.6 0.19835 705.00 0.0014184 -141.64 -135.51 -0.84110 1.3397 1.9469 1954.2 -0.0075708 1948.6 0.19835
-157.62 1007.8 undefined -140.30 -130.44 -0.82944 705.00 0.0014184 -140.30 -130.44 -0.82944 1.3419 1.9470 1957.0 -0.0075702 1914.4 0.19869 705.00 0.0014184 -140.30 -130.44 -0.82944 1.3419 1.9470 1957.0 -0.0075702 1914.4 0.19869
-156.62 1387.2 undefined -138.96 -125.39 -0.81786 705.00 0.0014184 -138.96 -125.39 -0.81786 1.3440 1.9470 1959.8 -0.0075696 1881.5 0.19902 705.00 0.0014184 -138.96 -125.39 -0.81786 1.3440 1.9470 1959.8 -0.0075696 1881.5 0.19902
-155.62 1765.3 undefined -137.61 -120.35 -0.80637 705.00 0.0014184 -137.61 -120.35 -0.80637 1.3462 1.9471 1962.5 -0.0075688 1849.9 0.19936 705.00 0.0014184 -137.61 -120.35 -0.80637 1.3462 1.9471 1962.5 -0.0075688 1849.9 0.19936
-154.62 2141.8 undefined -136.27 -115.32 -0.79496 705.00 0.0014184 -136.27 -115.32 -0.79496 1.3483 1.9471 1965.3 -0.0075680 1819.4 0.19970 705.00 0.0014184 -136.27 -115.32 -0.79496 1.3483 1.9471 1965.3 -0.0075680 1819.4 0.19970
-153.62 2517.0 undefined -134.92 -110.30 -0.78362 705.00 0.0014184 -134.92 -110.30 -0.78362 1.3504 1.9472 1968.0 -0.0075672 1790.0 0.20004 705.00 0.0014184 -134.92 -110.30 -0.78362 1.3504 1.9472 1968.0 -0.0075672 1790.0 0.20004
-152.62 2890.8 undefined -133.56 -105.29 -0.77236 705.00 0.0014184 -133.56 -105.29 -0.77236 1.3525 1.9473 1970.8 -0.0075662 1761.8 0.20037 705.00 0.0014184 -133.56 -105.29 -0.77236 1.3525 1.9473 1970.8 -0.0075662 1761.8 0.20037
-151.62 3263.2 undefined -132.21 -100.30 -0.76117 705.00 0.0014184 -132.21 -100.30 -0.76117 1.3546 1.9475 1973.5 -0.0075653 1734.5 0.20071 705.00 0.0014184 -132.21 -100.30 -0.76117 1.3546 1.9475 1973.5 -0.0075653 1734.5 0.20071
-150.62 3634.2 undefined -130.86 -95.313 -0.75006 705.00 0.0014184 -130.86 -95.313 -0.75006 1.3567 1.9476 1976.2 -0.0075642 1708.2 0.20105 705.00 0.0014184 -130.86 -95.313 -0.75006 1.3567 1.9476 1976.2 -0.0075642 1708.2 0.20105
-149.62 4003.9 undefined -129.50 -90.340 -0.73903 705.00 0.0014184 -129.50 -90.340 -0.73903 1.3588 1.9478 1978.9 -0.0075631 1682.8 0.20139 705.00 0.0014184 -129.50 -90.340 -0.73903 1.3588 1.9478 1978.9 -0.0075631 1682.8 0.20139
-148.62 4372.3 undefined -128.14 -85.377 -0.72806 705.00 0.0014184 -128.14 -85.377 -0.72806 1.3609 1.9479 1981.6 -0.0075620 1658.3 0.20173 705.00 0.0014184 -128.14 -85.377 -0.72806 1.3609 1.9479 1981.6 -0.0075620 1658.3 0.20173
-147.62 4739.4 undefined -126.78 -80.425 -0.71717 705.00 0.0014184 -126.78 -80.425 -0.71717 1.3630 1.9481 1984.3 -0.0075608 1634.5 0.20207 705.00 0.0014184 -126.78 -80.425 -0.71717 1.3630 1.9481 1984.3 -0.0075608 1634.5 0.20207
-146.62 5105.1 undefined -125.41 -75.484 -0.70634 705.00 0.0014184 -125.41 -75.484 -0.70634 1.3651 1.9483 1987.0 -0.0075596 1611.6 0.20241 705.00 0.0014184 -125.41 -75.484 -0.70634 1.3651 1.9483 1987.0 -0.0075596 1611.6 0.20241
-145.62 5469.6 undefined -124.05 -70.553 -0.69559 705.00 0.0014184 -124.05 -70.553 -0.69559 1.3672 1.9485 1989.6 -0.0075583 1589.5 0.20275 705.00 0.0014184 -124.05 -70.553 -0.69559 1.3672 1.9485 1989.6 -0.0075583 1589.5 0.20275
-144.62 5832.8 undefined -122.68 -65.633 -0.68490 705.00 0.0014184 -122.68 -65.633 -0.68490 1.3693 1.9488 1992.3 -0.0075570 1568.0 0.20309 705.00 0.0014184 -122.68 -65.633 -0.68490 1.3693 1.9488 1992.3 -0.0075570 1568.0 0.20309
-143.62 6194.8 undefined -121.31 -60.723 -0.67428 705.00 0.0014184 -121.31 -60.723 -0.67428 1.3714 1.9490 1994.9 -0.0075556 1547.2 0.20343 705.00 0.0014184 -121.31 -60.723 -0.67428 1.3714 1.9490 1994.9 -0.0075556 1547.2 0.20343
-142.62 6555.5 undefined -119.93 -55.823 -0.66373 705.00 0.0014184 -119.93 -55.823 -0.66373 1.3734 1.9493 1997.5 -0.0075542 1527.1 0.20377 705.00 0.0014184 -119.93 -55.823 -0.66373 1.3734 1.9493 1997.5 -0.0075542 1527.1 0.20377
-141.62 6915.0 undefined -118.56 -50.932 -0.65324 705.00 0.0014184 -118.56 -50.932 -0.65324 1.3755 1.9496 2000.1 -0.0075527 1507.6 0.20411 705.00 0.0014184 -118.56 -50.932 -0.65324 1.3755 1.9496 2000.1 -0.0075527 1507.6 0.20411
-140.62 7273.3 undefined -117.18 -46.052 -0.64281 705.00 0.0014184 -117.18 -46.052 -0.64281 1.3776 1.9498 2002.6 -0.0075512 1488.7 0.20445 705.00 0.0014184 -117.18 -46.052 -0.64281 1.3776 1.9498 2002.6 -0.0075512 1488.7 0.20445
-139.62 7630.4 undefined -115.80 -41.181 -0.63245 705.00 0.0014184 -115.80 -41.181 -0.63245 1.3796 1.9502 2005.2 -0.0075496 1470.4 0.20479 705.00 0.0014184 -115.80 -41.181 -0.63245 1.3796 1.9502 2005.2 -0.0075496 1470.4 0.20479
-138.62 7986.2 undefined -114.42 -36.320 -0.62215 705.00 0.0014184 -114.42 -36.320 -0.62215 1.3817 1.9505 2007.7 -0.0075480 1452.6 0.20514 705.00 0.0014184 -114.42 -36.320 -0.62215 1.3817 1.9505 2007.7 -0.0075480 1452.6 0.20514
-137.62 8340.9 undefined -113.04 -31.468 -0.61190 705.00 0.0014184 -113.04 -31.468 -0.61190 1.3838 1.9508 2010.3 -0.0075463 1435.3 0.20548 705.00 0.0014184 -113.04 -31.468 -0.61190 1.3838 1.9508 2010.3 -0.0075463 1435.3 0.20548
-136.62 8694.5 undefined -111.66 -26.626 -0.60172 705.00 0.0014184 -111.66 -26.626 -0.60172 1.3858 1.9512 2012.8 -0.0075446 1418.5 0.20582 705.00 0.0014184 -111.66 -26.626 -0.60172 1.3858 1.9512 2012.8 -0.0075446 1418.5 0.20582
-135.62 9046.8 undefined -110.27 -21.793 -0.59160 705.00 0.0014184 -110.27 -21.793 -0.59160 1.3879 1.9515 2015.3 -0.0075428 1402.2 0.20616 705.00 0.0014184 -110.27 -21.793 -0.59160 1.3879 1.9515 2015.3 -0.0075428 1402.2 0.20616
-134.62 9398.1 undefined -108.88 -16.969 -0.58154 705.00 0.0014184 -108.88 -16.969 -0.58154 1.3900 1.9519 2017.7 -0.0075410 1386.4 0.20651 705.00 0.0014184 -108.88 -16.969 -0.58154 1.3900 1.9519 2017.7 -0.0075410 1386.4 0.20651
-133.62 9748.2 undefined -107.49 -12.155 -0.57153 705.00 0.0014184 -107.49 -12.155 -0.57153 1.3921 1.9523 2020.2 -0.0075391 1371.0 0.20685 705.00 0.0014184 -107.49 -12.155 -0.57153 1.3921 1.9523 2020.2 -0.0075391 1371.0 0.20685
-132.62 10097. undefined -106.10 -7.3488 -0.56158 705.00 0.0014184 -106.10 -7.3488 -0.56158 1.3941 1.9527 2022.6 -0.0075372 1356.1 0.20719 705.00 0.0014184 -106.10 -7.3488 -0.56158 1.3941 1.9527 2022.6 -0.0075372 1356.1 0.20719
-131.62 10445. undefined -104.70 -2.5518 -0.55169 705.00 0.0014184 -104.70 -2.5518 -0.55169 1.3962 1.9531 2025.0 -0.0075352 1341.5 0.20754 705.00 0.0014184 -104.70 -2.5518 -0.55169 1.3962 1.9531 2025.0 -0.0075352 1341.5 0.20754
-130.62 10792. undefined -103.30 2.2364 -0.54185 705.00 0.0014184 -103.30 2.2364 -0.54185 1.3983 1.9536 2027.4 -0.0075332 1327.3 0.20788 705.00 0.0014184 -103.30 2.2364 -0.54185 1.3983 1.9536 2027.4 -0.0075332 1327.3 0.20788
-129.62 11137. undefined -101.90 7.0160 -0.53207 705.00 0.0014184 -101.90 7.0160 -0.53207 1.4004 1.9540 2029.8 -0.0075311 1313.5 0.20823 705.00 0.0014184 -101.90 7.0160 -0.53207 1.4004 1.9540 2029.8 -0.0075311 1313.5 0.20823
-128.62 11482. undefined -100.50 11.787 -0.52234 705.00 0.0014184 -100.50 11.787 -0.52234 1.4025 1.9545 2032.2 -0.0075290 1300.1 0.20857 705.00 0.0014184 -100.50 11.787 -0.52234 1.4025 1.9545 2032.2 -0.0075290 1300.1 0.20857
-127.62 11825. undefined -99.100 16.549 -0.51266 705.00 0.0014184 -99.100 16.549 -0.51266 1.4046 1.9550 2034.5 -0.0075268 1287.0 0.20892 705.00 0.0014184 -99.100 16.549 -0.51266 1.4046 1.9550 2034.5 -0.0075268 1287.0 0.20892
-126.62 12168. undefined -97.694 21.304 -0.50304 705.00 0.0014184 -97.694 21.304 -0.50304 1.4066 1.9555 2036.8 -0.0075246 1274.3 0.20926 705.00 0.0014184 -97.694 21.304 -0.50304 1.4066 1.9555 2036.8 -0.0075246 1274.3 0.20926
-125.62 12509. undefined -96.286 26.050 -0.49346 705.00 0.0014184 -96.286 26.050 -0.49346 1.4087 1.9560 2039.2 -0.0075223 1261.8 0.20961 705.00 0.0014184 -96.286 26.050 -0.49346 1.4087 1.9560 2039.2 -0.0075223 1261.8 0.20961
-124.62 12849. undefined -94.877 30.787 -0.48394 705.00 0.0014184 -94.877 30.787 -0.48394 1.4108 1.9565 2041.5 -0.0075199 1249.7 0.20996 705.00 0.0014184 -94.877 30.787 -0.48394 1.4108 1.9565 2041.5 -0.0075199 1249.7 0.20996
-123.62 13189. undefined -93.465 35.517 -0.47446 705.00 0.0014184 -93.465 35.517 -0.47446 1.4130 1.9571 2043.7 -0.0075175 1237.9 0.21030 705.00 0.0014184 -93.465 35.517 -0.47446 1.4130 1.9571 2043.7 -0.0075175 1237.9 0.21030
-122.62 13527. undefined -92.051 40.238 -0.46504 705.00 0.0014184 -92.051 40.238 -0.46504 1.4151 1.9576 2046.0 -0.0075151 1226.4 0.21065 705.00 0.0014184 -92.051 40.238 -0.46504 1.4151 1.9576 2046.0 -0.0075151 1226.4 0.21065
-121.62 13864. undefined -90.635 44.952 -0.45566 705.00 0.0014184 -90.635 44.952 -0.45566 1.4172 1.9582 2048.2 -0.0075125 1215.1 0.21100 705.00 0.0014184 -90.635 44.952 -0.45566 1.4172 1.9582 2048.2 -0.0075125 1215.1 0.21100
-120.62 14200. undefined -89.216 49.658 -0.44633 705.00 0.0014184 -89.216 49.658 -0.44633 1.4193 1.9588 2050.5 -0.0075099 1204.1 0.21134 705.00 0.0014184 -89.216 49.658 -0.44633 1.4193 1.9588 2050.5 -0.0075099 1204.1 0.21134
-119.62 14535. undefined -87.796 54.356 -0.43705 705.00 0.0014184 -87.796 54.356 -0.43705 1.4215 1.9594 2052.7 -0.0075073 1193.4 0.21169 705.00 0.0014184 -87.796 54.356 -0.43705 1.4215 1.9594 2052.7 -0.0075073 1193.4 0.21169
-118.62 14869. undefined -86.373 59.046 -0.42781 705.00 0.0014184 -86.373 59.046 -0.42781 1.4236 1.9601 2054.9 -0.0075046 1182.9 0.21204 705.00 0.0014184 -86.373 59.046 -0.42781 1.4236 1.9601 2054.9 -0.0075046 1182.9 0.21204
-117.62 15203. undefined -84.949 63.729 -0.41862 705.00 0.0014184 -84.949 63.729 -0.41862 1.4257 1.9607 2057.0 -0.0075018 1172.7 0.21239 705.00 0.0014184 -84.949 63.729 -0.41862 1.4257 1.9607 2057.0 -0.0075018 1172.7 0.21239
-116.62 15535. undefined -83.522 68.404 -0.40948 705.00 0.0014184 -83.522 68.404 -0.40948 1.4279 1.9614 2059.2 -0.0074990 1162.7 0.21274 705.00 0.0014184 -83.522 68.404 -0.40948 1.4279 1.9614 2059.2 -0.0074990 1162.7 0.21274
-115.62 15866. undefined -82.093 73.072 -0.40038 705.00 0.0014184 -82.093 73.072 -0.40038 1.4301 1.9621 2061.3 -0.0074961 1152.9 0.21308 705.00 0.0014184 -82.093 73.072 -0.40038 1.4301 1.9621 2061.3 -0.0074961 1152.9 0.21308
-114.62 16196. undefined -80.662 77.733 -0.39132 705.00 0.0014184 -80.662 77.733 -0.39132 1.4322 1.9628 2063.5 -0.0074931 1143.4 0.21343 705.00 0.0014184 -80.662 77.733 -0.39132 1.4322 1.9628 2063.5 -0.0074931 1143.4 0.21343
-113.62 16525. undefined -79.228 82.386 -0.38231 705.00 0.0014184 -79.228 82.386 -0.38231 1.4344 1.9635 2065.6 -0.0074901 1134.1 0.21378 705.00 0.0014184 -79.228 82.386 -0.38231 1.4344 1.9635 2065.6 -0.0074901 1134.1 0.21378
-112.62 16854. undefined -77.793 87.032 -0.37334 705.00 0.0014184 -77.793 87.032 -0.37334 1.4366 1.9643 2067.7 -0.0074870 1124.9 0.21413 705.00 0.0014184 -77.793 87.032 -0.37334 1.4366 1.9643 2067.7 -0.0074870 1124.9 0.21413
-111.62 17181. undefined -76.355 91.671 -0.36441 705.00 0.0014184 -76.355 91.671 -0.36441 1.4388 1.9650 2069.8 -0.0074838 1116.0 0.21448 705.00 0.0014184 -76.355 91.671 -0.36441 1.4388 1.9650 2069.8 -0.0074838 1116.0 0.21448
-110.62 17507. undefined -74.915 96.303 -0.35552 705.00 0.0014184 -74.915 96.303 -0.35552 1.4410 1.9658 2071.8 -0.0074806 1107.3 0.21483 705.00 0.0014184 -74.915 96.303 -0.35552 1.4410 1.9658 2071.8 -0.0074806 1107.3 0.21483
-109.62 17833. undefined -73.473 100.93 -0.34668 705.00 0.0014184 -73.473 100.93 -0.34668 1.4432 1.9666 2073.9 -0.0074773 1098.7 0.21518 705.00 0.0014184 -73.473 100.93 -0.34668 1.4432 1.9666 2073.9 -0.0074773 1098.7 0.21518
-108.62 18157. undefined -72.029 105.55 -0.33787 705.00 0.0014184 -72.029 105.55 -0.33787 1.4455 1.9674 2075.9 -0.0074739 1090.4 0.21553 705.00 0.0014184 -72.029 105.55 -0.33787 1.4455 1.9674 2075.9 -0.0074739 1090.4 0.21553
-107.62 18481. undefined -70.582 110.16 -0.32911 705.00 0.0014184 -70.582 110.16 -0.32911 1.4477 1.9683 2077.9 -0.0074705 1082.2 0.21589 705.00 0.0014184 -70.582 110.16 -0.32911 1.4477 1.9683 2077.9 -0.0074705 1082.2 0.21589
-106.62 18804. undefined -69.133 114.76 -0.32038 705.00 0.0014184 -69.133 114.76 -0.32038 1.4500 1.9691 2079.9 -0.0074670 1074.1 0.21624 705.00 0.0014184 -69.133 114.76 -0.32038 1.4500 1.9691 2079.9 -0.0074670 1074.1 0.21624
-105.62 19125. undefined -67.682 119.36 -0.31169 705.00 0.0014184 -67.682 119.36 -0.31169 1.4522 1.9700 2081.9 -0.0074634 1066.3 0.21659 705.00 0.0014184 -67.682 119.36 -0.31169 1.4522 1.9700 2081.9 -0.0074634 1066.3 0.21659
-104.62 19446. undefined -66.229 123.95 -0.30304 705.00 0.0014184 -66.229 123.95 -0.30304 1.4545 1.9709 2083.9 -0.0074597 1058.6 0.21694 705.00 0.0014184 -66.229 123.95 -0.30304 1.4545 1.9709 2083.9 -0.0074597 1058.6 0.21694
-103.62 19766. undefined -64.773 128.54 -0.29443 705.00 0.0014184 -64.773 128.54 -0.29443 1.4568 1.9719 2085.8 -0.0074560 1051.1 0.21729 705.00 0.0014184 -64.773 128.54 -0.29443 1.4568 1.9719 2085.8 -0.0074560 1051.1 0.21729
-102.62 20085. undefined -63.316 133.12 -0.28585 705.00 0.0014184 -63.316 133.12 -0.28585 1.4591 1.9728 2087.8 -0.0074522 1043.7 0.21765 705.00 0.0014184 -63.316 133.12 -0.28585 1.4591 1.9728 2087.8 -0.0074522 1043.7 0.21765
-101.62 20404. undefined -61.855 137.69 -0.27732 705.00 0.0014184 -61.855 137.69 -0.27732 1.4614 1.9738 2089.7 -0.0074483 1036.4 0.21800 705.00 0.0014184 -61.855 137.69 -0.27732 1.4614 1.9738 2089.7 -0.0074483 1036.4 0.21800
-100.62 20721. undefined -60.393 142.25 -0.26881 705.00 0.0014184 -60.393 142.25 -0.26881 1.4637 1.9748 2091.6 -0.0074444 1029.3 0.21835 705.00 0.0014184 -60.393 142.25 -0.26881 1.4637 1.9748 2091.6 -0.0074444 1029.3 0.21835
-99.625 21037. undefined -58.928 146.81 -0.26035 705.00 0.0014184 -58.928 146.81 -0.26035 1.4660 1.9758 2093.5 -0.0074404 1022.4 0.21870 705.00 0.0014184 -58.928 146.81 -0.26035 1.4660 1.9758 2093.5 -0.0074404 1022.4 0.21870
-98.625 21353. undefined -57.461 151.37 -0.25192 705.00 0.0014184 -57.461 151.37 -0.25192 1.4684 1.9768 2095.4 -0.0074363 1015.6 0.21906 705.00 0.0014184 -57.461 151.37 -0.25192 1.4684 1.9768 2095.4 -0.0074363 1015.6 0.21906
-97.625 21668. undefined -55.991 155.92 -0.24352 705.00 0.0014184 -55.991 155.92 -0.24352 1.4707 1.9778 2097.3 -0.0074321 1008.9 0.21941 705.00 0.0014184 -55.991 155.92 -0.24352 1.4707 1.9778 2097.3 -0.0074321 1008.9 0.21941
-96.625 21982. undefined -54.519 160.46 -0.23516 705.00 0.0014184 -54.519 160.46 -0.23516 1.4731 1.9789 2099.1 -0.0074279 1002.3 0.21977 705.00 0.0014184 -54.519 160.46 -0.23516 1.4731 1.9789 2099.1 -0.0074279 1002.3 0.21977
-95.625 22295. undefined -53.045 164.99 -0.22683 705.00 0.0014184 -53.045 164.99 -0.22683 1.4755 1.9800 2101.0 -0.0074236 995.86 0.22012 705.00 0.0014184 -53.045 164.99 -0.22683 1.4755 1.9800 2101.0 -0.0074236 995.86 0.22012
-94.625 22607. undefined -51.568 169.52 -0.21854 705.00 0.0014184 -51.568 169.52 -0.21854 1.4779 1.9811 2102.8 -0.0074192 989.54 0.22048 705.00 0.0014184 -51.568 169.52 -0.21854 1.4779 1.9811 2102.8 -0.0074192 989.54 0.22048
-93.625 22918. undefined -50.089 174.05 -0.21028 705.00 0.0014184 -50.089 174.05 -0.21028 1.4803 1.9823 2104.6 -0.0074147 983.34 0.22083 705.00 0.0014184 -50.089 174.05 -0.21028 1.4803 1.9823 2104.6 -0.0074147 983.34 0.22083
-92.625 23229. undefined -48.608 178.57 -0.20205 705.00 0.0014184 -48.608 178.57 -0.20205 1.4827 1.9834 2106.4 -0.0074102 977.26 0.22119 705.00 0.0014184 -48.608 178.57 -0.20205 1.4827 1.9834 2106.4 -0.0074102 977.26 0.22119
-91.625 23539. undefined -47.124 183.08 -0.19385 705.00 0.0014184 -47.124 183.08 -0.19385 1.4851 1.9846 2108.2 -0.0074055 971.28 0.22154 705.00 0.0014184 -47.124 183.08 -0.19385 1.4851 1.9846 2108.2 -0.0074055 971.28 0.22154
-90.625 23848. undefined -45.638 187.59 -0.18568 705.00 0.0014184 -45.638 187.59 -0.18568 1.4876 1.9858 2110.0 -0.0074008 965.42 0.22190 705.00 0.0014184 -45.638 187.59 -0.18568 1.4876 1.9858 2110.0 -0.0074008 965.42 0.22190
-89.625 24156. undefined -44.149 192.09 -0.17755 705.00 0.0014184 -44.149 192.09 -0.17755 1.4901 1.9871 2111.8 -0.0073960 959.66 0.22226 705.00 0.0014184 -44.149 192.09 -0.17755 1.4901 1.9871 2111.8 -0.0073960 959.66 0.22226
-88.625 24463. undefined -42.657 196.59 -0.16944 705.00 0.0014184 -42.657 196.59 -0.16944 1.4925 1.9883 2113.5 -0.0073912 954.00 0.22261 705.00 0.0014184 -42.657 196.59 -0.16944 1.4925 1.9883 2113.5 -0.0073912 954.00 0.22261
-87.625 24770. undefined -41.164 201.08 -0.16137 705.00 0.0014184 -41.164 201.08 -0.16137 1.4950 1.9896 2115.3 -0.0073863 948.45 0.22297 705.00 0.0014184 -41.164 201.08 -0.16137 1.4950 1.9896 2115.3 -0.0073863 948.45 0.22297
-86.625 25075. undefined -39.667 205.56 -0.15333 705.00 0.0014184 -39.667 205.56 -0.15333 1.4975 1.9909 2117.0 -0.0073813 942.99 0.22333 705.00 0.0014184 -39.667 205.56 -0.15333 1.4975 1.9909 2117.0 -0.0073813 942.99 0.22333
-85.625 25380. undefined -38.169 210.04 -0.14531 705.00 0.0014184 -38.169 210.04 -0.14531 1.5001 1.9922 2118.7 -0.0073762 937.63 0.22368 705.00 0.0014184 -38.169 210.04 -0.14531 1.5001 1.9922 2118.7 -0.0073762 937.63 0.22368
-84.625 25684. undefined -36.667 214.52 -0.13733 705.00 0.0014184 -36.667 214.52 -0.13733 1.5026 1.9935 2120.4 -0.0073710 932.36 0.22404 705.00 0.0014184 -36.667 214.52 -0.13733 1.5026 1.9935 2120.4 -0.0073710 932.36 0.22404
-83.625 25988. undefined -35.163 218.99 -0.12937 705.00 0.0014184 -35.163 218.99 -0.12937 1.5052 1.9949 2122.1 -0.0073658 927.19 0.22440 705.00 0.0014184 -35.163 218.99 -0.12937 1.5052 1.9949 2122.1 -0.0073658 927.19 0.22440
-82.625 26290. undefined -33.657 223.46 -0.12145 705.00 0.0014184 -33.657 223.46 -0.12145 1.5077 1.9963 2123.8 -0.0073604 922.10 0.22476 705.00 0.0014184 -33.657 223.46 -0.12145 1.5077 1.9963 2123.8 -0.0073604 922.10 0.22476
-81.625 26592. undefined -32.148 227.92 -0.11355 705.00 0.0014184 -32.148 227.92 -0.11355 1.5103 1.9977 2125.5 -0.0073550 917.10 0.22512 705.00 0.0014184 -32.148 227.92 -0.11355 1.5103 1.9977 2125.5 -0.0073550 917.10 0.22512
-80.625 26893. undefined -30.636 232.37 -0.10567 705.00 0.0014184 -30.636 232.37 -0.10567 1.5129 1.9992 2127.1 -0.0073496 912.18 0.22548 705.00 0.0014184 -30.636 232.37 -0.10567 1.5129 1.9992 2127.1 -0.0073496 912.18 0.22548
-79.625 27194. undefined -29.122 236.83 -0.097829 705.00 0.0014184 -29.122 236.83 -0.097829 1.5155 2.0006 2128.8 -0.0073440 907.35 0.22584 705.00 0.0014184 -29.122 236.83 -0.097829 1.5155 2.0006 2128.8 -0.0073440 907.35 0.22584
-78.625 27493. undefined -27.605 241.27 -0.090011 705.00 0.0014184 -27.605 241.27 -0.090011 1.5182 2.0021 2130.4 -0.0073384 902.60 0.22620 705.00 0.0014184 -27.605 241.27 -0.090011 1.5182 2.0021 2130.4 -0.0073384 902.60 0.22620
-77.625 27792. undefined -26.086 245.71 -0.082220 705.00 0.0014184 -26.086 245.71 -0.082220 1.5208 2.0036 2132.0 -0.0073327 897.92 0.22656 705.00 0.0014184 -26.086 245.71 -0.082220 1.5208 2.0036 2132.0 -0.0073327 897.92 0.22656
-76.625 28090. undefined -24.564 250.15 -0.074455 705.00 0.0014184 -24.564 250.15 -0.074455 1.5235 2.0051 2133.6 -0.0073269 893.33 0.22692 705.00 0.0014184 -24.564 250.15 -0.074455 1.5235 2.0051 2133.6 -0.0073269 893.33 0.22692
-75.625 28387. undefined -23.039 254.58 -0.066715 705.00 0.0014184 -23.039 254.58 -0.066715 1.5262 2.0067 2135.2 -0.0073210 888.81 0.22728 705.00 0.0014184 -23.039 254.58 -0.066715 1.5262 2.0067 2135.2 -0.0073210 888.81 0.22728
-74.625 28684. undefined -21.511 259.01 -0.059002 705.00 0.0014184 -21.511 259.01 -0.059002 1.5289 2.0083 2136.8 -0.0073151 884.36 0.22764 705.00 0.0014184 -21.511 259.01 -0.059002 1.5289 2.0083 2136.8 -0.0073151 884.36 0.22764
-73.625 28980. undefined -19.981 263.44 -0.051313 705.00 0.0014184 -19.981 263.44 -0.051313 1.5316 2.0099 2138.4 -0.0073091 879.98 0.22800 705.00 0.0014184 -19.981 263.44 -0.051313 1.5316 2.0099 2138.4 -0.0073091 879.98 0.22800
-72.625 29275. undefined -18.448 267.86 -0.043649 705.00 0.0014184 -18.448 267.86 -0.043649 1.5343 2.0115 2140.0 -0.0073030 875.68 0.22836 705.00 0.0014184 -18.448 267.86 -0.043649 1.5343 2.0115 2140.0 -0.0073030 875.68 0.22836
-71.625 29570. undefined -16.912 272.27 -0.036010 705.00 0.0014184 -16.912 272.27 -0.036010 1.5371 2.0132 2141.5 -0.0072968 871.44 0.22872 705.00 0.0014184 -16.912 272.27 -0.036010 1.5371 2.0132 2141.5 -0.0072968 871.44 0.22872
-70.625 29863. undefined -15.374 276.68 -0.028395 705.00 0.0014184 -15.374 276.68 -0.028395 1.5398 2.0148 2143.1 -0.0072906 867.27 0.22908 705.00 0.0014184 -15.374 276.68 -0.028395 1.5398 2.0148 2143.1 -0.0072906 867.27 0.22908
-69.625 30156. undefined -13.833 281.09 -0.020804 705.00 0.0014184 -13.833 281.09 -0.020804 1.5426 2.0165 2144.6 -0.0072843 863.17 0.22944 705.00 0.0014184 -13.833 281.09 -0.020804 1.5426 2.0165 2144.6 -0.0072843 863.17 0.22944
-68.625 30449. undefined -12.289 285.49 -0.013236 705.00 0.0014184 -12.289 285.49 -0.013236 1.5454 2.0182 2146.2 -0.0072779 859.13 0.22981 705.00 0.0014184 -12.289 285.49 -0.013236 1.5454 2.0182 2146.2 -0.0072779 859.13 0.22981
-67.625 30740. undefined -10.742 289.89 -0.0056915 705.00 0.0014184 -10.742 289.89 -0.0056915 1.5482 2.0200 2147.7 -0.0072715 855.15 0.23017 705.00 0.0014184 -10.742 289.89 -0.0056915 1.5482 2.0200 2147.7 -0.0072715 855.15 0.23017
-66.625 31031. undefined -9.1923 294.29 0.0018300 705.00 0.0014184 -9.1923 294.29 0.0018300 1.5510 2.0218 2149.2 -0.0072649 851.23 0.23053 705.00 0.0014184 -9.1923 294.29 0.0018300 1.5510 2.0218 2149.2 -0.0072649 851.23 0.23053
-65.625 31321. undefined -7.6398 298.68 0.0093290 705.00 0.0014184 -7.6398 298.68 0.0093290 1.5539 2.0236 2150.7 -0.0072583 847.38 0.23090 705.00 0.0014184 -7.6398 298.68 0.0093290 1.5539 2.0236 2150.7 -0.0072583 847.38 0.23090
-64.625 31611. undefined -6.0845 303.06 0.016806 705.00 0.0014184 -6.0845 303.06 0.016806 1.5568 2.0254 2152.2 -0.0072516 843.58 0.23126 705.00 0.0014184 -6.0845 303.06 0.016806 1.5568 2.0254 2152.2 -0.0072516 843.58 0.23126
-63.625 31900. undefined -4.5263 307.45 0.024260 705.00 0.0014184 -4.5263 307.45 0.024260 1.5596 2.0272 2153.6 -0.0072449 839.84 0.23162 705.00 0.0014184 -4.5263 307.45 0.024260 1.5596 2.0272 2153.6 -0.0072449 839.84 0.23162
-62.625 32188. undefined -2.9652 311.83 0.031693 705.00 0.0014184 -2.9652 311.83 0.031693 1.5625 2.0291 2155.1 -0.0072381 836.16 0.23199 705.00 0.0014184 -2.9652 311.83 0.031693 1.5625 2.0291 2155.1 -0.0072381 836.16 0.23199
-61.625 32476. undefined -1.4012 316.20 0.039105 705.00 0.0014184 -1.4012 316.20 0.039105 1.5655 2.0310 2156.6 -0.0072312 832.53 0.23235 705.00 0.0014184 -1.4012 316.20 0.039105 1.5655 2.0310 2156.6 -0.0072312 832.53 0.23235
-60.625 32763. undefined 0.16573 320.58 0.046495 705.00 0.0014184 0.16573 320.58 0.046495 1.5684 2.0329 2158.0 -0.0072242 828.96 0.23272 705.00 0.0014184 0.16573 320.58 0.046495 1.5684 2.0329 2158.0 -0.0072242 828.96 0.23272
-59.625 33049. undefined 1.7356 324.95 0.053864 705.00 0.0014184 1.7356 324.95 0.053864 1.5713 2.0348 2159.5 -0.0072172 825.44 0.23308 705.00 0.0014184 1.7356 324.95 0.053864 1.5713 2.0348 2159.5 -0.0072172 825.44 0.23308
-58.625 33334. undefined 3.3084 329.31 0.061213 705.00 0.0014184 3.3084 329.31 0.061213 1.5743 2.0368 2160.9 -0.0072101 821.97 0.23345 705.00 0.0014184 3.3084 329.31 0.061213 1.5743 2.0368 2160.9 -0.0072101 821.97 0.23345
-57.625 33619. undefined 4.8842 333.67 0.068541 705.00 0.0014184 4.8842 333.67 0.068541 1.5773 2.0387 2162.3 -0.0072029 818.56 0.23381 705.00 0.0014184 4.8842 333.67 0.068541 1.5773 2.0387 2162.3 -0.0072029 818.56 0.23381
-56.625 33903. undefined 6.4630 338.03 0.075850 705.00 0.0014184 6.4630 338.03 0.075850 1.5803 2.0407 2163.8 -0.0071956 815.19 0.23418 705.00 0.0014184 6.4630 338.03 0.075850 1.5803 2.0407 2163.8 -0.0071956 815.19 0.23418
-55.625 34187. undefined 8.0448 342.39 0.083138 705.00 0.0014184 8.0448 342.39 0.083138 1.5833 2.0428 2165.2 -0.0071883 811.87 0.23455 705.00 0.0014184 8.0448 342.39 0.083138 1.5833 2.0428 2165.2 -0.0071883 811.87 0.23455
-54.625 34470. undefined 9.6296 346.74 0.090407 705.00 0.0014184 9.6296 346.74 0.090407 1.5863 2.0448 2166.6 -0.0071810 808.60 0.23491 705.00 0.0014184 9.6296 346.74 0.090407 1.5863 2.0448 2166.6 -0.0071810 808.60 0.23491
-53.625 34752. undefined 11.217 351.09 0.097657 705.00 0.0014184 11.217 351.09 0.097657 1.5894 2.0469 2168.0 -0.0071735 805.38 0.23528 705.00 0.0014184 11.217 351.09 0.097657 1.5894 2.0469 2168.0 -0.0071735 805.38 0.23528
-52.625 35034. undefined 12.808 355.43 0.10489 705.00 0.0014184 12.808 355.43 0.10489 1.5924 2.0490 2169.3 -0.0071660 802.20 0.23565 705.00 0.0014184 12.808 355.43 0.10489 1.5924 2.0490 2169.3 -0.0071660 802.20 0.23565
-51.625 35315. undefined 14.402 359.78 0.11210 705.00 0.0014184 14.402 359.78 0.11210 1.5955 2.0511 2170.7 -0.0071584 799.07 0.23602 705.00 0.0014184 14.402 359.78 0.11210 1.5955 2.0511 2170.7 -0.0071584 799.07 0.23602
-50.625 35595. undefined 15.999 364.12 0.11929 705.00 0.0014184 15.999 364.12 0.11929 1.5986 2.0532 2172.1 -0.0071508 795.98 0.23638 705.00 0.0014184 15.999 364.12 0.11929 1.5986 2.0532 2172.1 -0.0071508 795.98 0.23638
-49.625 35875. undefined 17.600 368.45 0.12647 705.00 0.0014184 17.600 368.45 0.12647 1.6017 2.0554 2173.4 -0.0071431 792.93 0.23675 705.00 0.0014184 17.600 368.45 0.12647 1.6017 2.0554 2173.4 -0.0071431 792.93 0.23675
-48.625 36154. undefined 19.203 372.79 0.13362 705.00 0.0014184 19.203 372.79 0.13362 1.6049 2.0576 2174.8 -0.0071354 789.93 0.23712 705.00 0.0014184 19.203 372.79 0.13362 1.6049 2.0576 2174.8 -0.0071354 789.93 0.23712
-47.625 36433. undefined 20.809 377.12 0.14076 705.00 0.0014184 20.809 377.12 0.14076 1.6080 2.0598 2176.1 -0.0071275 786.97 0.23749 705.00 0.0014184 20.809 377.12 0.14076 1.6080 2.0598 2176.1 -0.0071275 786.97 0.23749
-46.625 36711. undefined 22.419 381.44 0.14788 705.00 0.0014184 22.419 381.44 0.14788 1.6112 2.0620 2177.5 -0.0071197 784.05 0.23786 705.00 0.0014184 22.419 381.44 0.14788 1.6112 2.0620 2177.5 -0.0071197 784.05 0.23786
-45.625 36988. undefined 24.032 385.77 0.15499 705.00 0.0014184 24.032 385.77 0.15499 1.6144 2.0643 2178.8 -0.0071117 781.17 0.23823 705.00 0.0014184 24.032 385.77 0.15499 1.6144 2.0643 2178.8 -0.0071117 781.17 0.23823
-44.625 37265. undefined 25.648 390.09 0.16208 705.00 0.0014184 25.648 390.09 0.16208 1.6176 2.0665 2180.1 -0.0071037 778.33 0.23860 705.00 0.0014184 25.648 390.09 0.16208 1.6176 2.0665 2180.1 -0.0071037 778.33 0.23860
-43.625 37541. undefined 27.267 394.41 0.16915 705.00 0.0014184 27.267 394.41 0.16915 1.6208 2.0688 2181.4 -0.0070957 775.53 0.23897 705.00 0.0014184 27.267 394.41 0.16915 1.6208 2.0688 2181.4 -0.0070957 775.53 0.23897
-42.625 37817. undefined 28.889 398.73 0.17620 705.00 0.0014184 28.889 398.73 0.17620 1.6240 2.0712 2182.7 -0.0070876 772.76 0.23934 705.00 0.0014184 28.889 398.73 0.17620 1.6240 2.0712 2182.7 -0.0070876 772.76 0.23934
-41.625 38092. undefined 30.515 403.04 0.18323 705.00 0.0014184 30.515 403.04 0.18323 1.6272 2.0735 2184.1 -0.0070794 770.04 0.23971 705.00 0.0014184 30.515 403.04 0.18323 1.6272 2.0735 2184.1 -0.0070794 770.04 0.23971
-40.625 38366. undefined 32.144 407.36 0.19025 705.00 0.0014184 32.144 407.36 0.19025 1.6305 2.0759 2185.3 -0.0070712 767.35 0.24008 705.00 0.0014184 32.144 407.36 0.19025 1.6305 2.0759 2185.3 -0.0070712 767.35 0.24008
-39.625 38640. undefined 33.776 411.67 0.19726 705.00 0.0014184 33.776 411.67 0.19726 1.6338 2.0782 2186.6 -0.0070629 764.69 0.24045 705.00 0.0014184 33.776 411.67 0.19726 1.6338 2.0782 2186.6 -0.0070629 764.69 0.24045
-38.625 38913. undefined 35.411 415.97 0.20425 705.00 0.0014184 35.411 415.97 0.20425 1.6371 2.0806 2187.9 -0.0070545 762.07 0.24082 705.00 0.0014184 35.411 415.97 0.20425 1.6371 2.0806 2187.9 -0.0070545 762.07 0.24082
-37.625 39186. undefined 37.050 420.28 0.21122 705.00 0.0014184 37.050 420.28 0.21122 1.6404 2.0831 2189.2 -0.0070462 759.49 0.24119 705.00 0.0014184 37.050 420.28 0.21122 1.6404 2.0831 2189.2 -0.0070462 759.49 0.24119
-36.625 39458. undefined 38.692 424.58 0.21818 705.00 0.0014184 38.692 424.58 0.21818 1.6437 2.0855 2190.5 -0.0070377 756.94 0.24156 705.00 0.0014184 38.692 424.58 0.21818 1.6437 2.0855 2190.5 -0.0070377 756.94 0.24156
-35.625 39729. undefined 40.337 428.88 0.22512 705.00 0.0014184 40.337 428.88 0.22512 1.6470 2.0880 2191.7 -0.0070292 754.42 0.24193 705.00 0.0014184 40.337 428.88 0.22512 1.6470 2.0880 2191.7 -0.0070292 754.42 0.24193
-34.625 40000. undefined 41.986 433.18 0.23205 705.00 0.0014184 41.986 433.18 0.23205 1.6504 2.0905 2193.0 -0.0070207 751.94 0.24231 705.00 0.0014184 41.986 433.18 0.23205 1.6504 2.0905 2193.0 -0.0070207 751.94 0.24231
-33.625 40270. undefined 43.638 437.47 0.23896 705.00 0.0014184 43.638 437.47 0.23896 1.6538 2.0930 2194.2 -0.0070121 749.49 0.24268 705.00 0.0014184 43.638 437.47 0.23896 1.6538 2.0930 2194.2 -0.0070121 749.49 0.24268
-32.625 40540. undefined 45.294 441.77 0.24585 705.00 0.0014184 45.294 441.77 0.24585 1.6571 2.0955 2195.5 -0.0070035 747.07 0.24305 705.00 0.0014184 45.294 441.77 0.24585 1.6571 2.0955 2195.5 -0.0070035 747.07 0.24305
-31.625 40809. undefined 46.953 446.06 0.25274 705.00 0.0014184 46.953 446.06 0.25274 1.6605 2.0981 2196.7 -0.0069948 744.68 0.24343 705.00 0.0014184 46.953 446.06 0.25274 1.6605 2.0981 2196.7 -0.0069948 744.68 0.24343
-30.625 41078. undefined 48.615 450.35 0.25960 705.00 0.0014184 48.615 450.35 0.25960 1.6639 2.1006 2197.9 -0.0069861 742.32 0.24380 705.00 0.0014184 48.615 450.35 0.25960 1.6639 2.1006 2197.9 -0.0069861 742.32 0.24380
-29.625 41346. undefined 50.280 454.64 0.26646 705.00 0.0014184 50.280 454.64 0.26646 1.6674 2.1032 2199.2 -0.0069773 739.99 0.24417 705.00 0.0014184 50.280 454.64 0.26646 1.6674 2.1032 2199.2 -0.0069773 739.99 0.24417
-28.625 41614. undefined 51.950 458.92 0.27330 705.00 0.0014184 51.950 458.92 0.27330 1.6708 2.1058 2200.4 -0.0069685 737.69 0.24455 705.00 0.0014184 51.950 458.92 0.27330 1.6708 2.1058 2200.4 -0.0069685 737.69 0.24455
-27.625 41881. undefined 53.622 463.21 0.28012 705.00 0.0014184 53.622 463.21 0.28012 1.6743 2.1085 2201.6 -0.0069596 735.42 0.24492 705.00 0.0014184 53.622 463.21 0.28012 1.6743 2.1085 2201.6 -0.0069596 735.42 0.24492
-26.625 42147. undefined 55.298 467.49 0.28694 705.00 0.0014184 55.298 467.49 0.28694 1.6777 2.1111 2202.8 -0.0069507 733.18 0.24530 705.00 0.0014184 55.298 467.49 0.28694 1.6777 2.1111 2202.8 -0.0069507 733.18 0.24530
-25.625 42413. undefined 56.978 471.77 0.29374 705.00 0.0014184 56.978 471.77 0.29374 1.6812 2.1138 2204.0 -0.0069417 730.96 0.24567 705.00 0.0014184 56.978 471.77 0.29374 1.6812 2.1138 2204.0 -0.0069417 730.96 0.24567
-24.625 42679. undefined 58.660 476.05 0.30052 705.00 0.0014184 58.660 476.05 0.30052 1.6847 2.1165 2205.2 -0.0069327 728.78 0.24605 705.00 0.0014184 58.660 476.05 0.30052 1.6847 2.1165 2205.2 -0.0069327 728.78 0.24605
-23.625 42944. undefined 60.347 480.33 0.30729 705.00 0.0014184 60.347 480.33 0.30729 1.6882 2.1192 2206.4 -0.0069237 726.62 0.24642 705.00 0.0014184 60.347 480.33 0.30729 1.6882 2.1192 2206.4 -0.0069237 726.62 0.24642
-22.625 43208. undefined 62.037 484.60 0.31405 705.00 0.0014184 62.037 484.60 0.31405 1.6917 2.1219 2207.6 -0.0069147 724.49 0.24680 705.00 0.0014184 62.037 484.60 0.31405 1.6917 2.1219 2207.6 -0.0069147 724.49 0.24680
-21.625 43472. undefined 63.730 488.88 0.32080 705.00 0.0014184 63.730 488.88 0.32080 1.6953 2.1246 2208.8 -0.0069055 722.38 0.24718 705.00 0.0014184 63.730 488.88 0.32080 1.6953 2.1246 2208.8 -0.0069055 722.38 0.24718
-20.625 43735. undefined 65.428 493.15 0.32753 705.00 0.0014184 65.428 493.15 0.32753 1.6988 2.1274 2210.0 -0.0068964 720.30 0.24755 705.00 0.0014184 65.428 493.15 0.32753 1.6988 2.1274 2210.0 -0.0068964 720.30 0.24755
-19.625 43998. undefined 67.128 497.42 0.33425 705.00 0.0014184 67.128 497.42 0.33425 1.7024 2.1302 2211.2 -0.0068872 718.24 0.24793 705.00 0.0014184 67.128 497.42 0.33425 1.7024 2.1302 2211.2 -0.0068872 718.24 0.24793
-18.625 44260. undefined 68.832 501.69 0.34096 705.00 0.0014184 68.832 501.69 0.34096 1.7060 2.1330 2212.3 -0.0068780 716.21 0.24831 705.00 0.0014184 68.832 501.69 0.34096 1.7060 2.1330 2212.3 -0.0068780 716.21 0.24831
-17.625 44522. undefined 70.540 505.96 0.34766 705.00 0.0014184 70.540 505.96 0.34766 1.7096 2.1358 2213.5 -0.0068688 714.21 0.24868 705.00 0.0014184 70.540 505.96 0.34766 1.7096 2.1358 2213.5 -0.0068688 714.21 0.24868
-16.625 44783. undefined 72.251 510.22 0.35434 705.00 0.0014184 72.251 510.22 0.35434 1.7132 2.1386 2214.7 -0.0068595 712.22 0.24906 705.00 0.0014184 72.251 510.22 0.35434 1.7132 2.1386 2214.7 -0.0068595 712.22 0.24906
-15.625 45044. undefined 73.966 514.49 0.36102 705.00 0.0014184 73.966 514.49 0.36102 1.7168 2.1415 2215.8 -0.0068502 710.27 0.24944 705.00 0.0014184 73.966 514.49 0.36102 1.7168 2.1415 2215.8 -0.0068502 710.27 0.24944
-14.625 45304. undefined 75.685 518.75 0.36768 705.00 0.0014184 75.685 518.75 0.36768 1.7204 2.1443 2217.0 -0.0068408 708.33 0.24982 705.00 0.0014184 75.685 518.75 0.36768 1.7204 2.1443 2217.0 -0.0068408 708.33 0.24982
-13.625 45564. undefined 77.407 523.01 0.37433 705.00 0.0014184 77.407 523.01 0.37433 1.7240 2.1472 2218.1 -0.0068315 706.42 0.25020 705.00 0.0014184 77.407 523.01 0.37433 1.7240 2.1472 2218.1 -0.0068315 706.42 0.25020
-12.625 45823. undefined 79.133 527.28 0.38096 705.00 0.0014184 79.133 527.28 0.38096 1.7277 2.1501 2219.3 -0.0068221 704.53 0.25058 705.00 0.0014184 79.133 527.28 0.38096 1.7277 2.1501 2219.3 -0.0068221 704.53 0.25058
-11.625 46082. undefined 80.863 531.54 0.38759 705.00 0.0014184 80.863 531.54 0.38759 1.7314 2.1530 2220.4 -0.0068126 702.66 0.25095 705.00 0.0014184 80.863 531.54 0.38759 1.7314 2.1530 2220.4 -0.0068126 702.66 0.25095
-10.625 46340. undefined 82.596 535.80 0.39420 705.00 0.0014184 82.596 535.80 0.39420 1.7350 2.1560 2221.5 -0.0068032 700.82 0.25133 705.00 0.0014184 82.596 535.80 0.39420 1.7350 2.1560 2221.5 -0.0068032 700.82 0.25133
-9.6250 46598. undefined 84.333 540.05 0.40081 705.00 0.0014184 84.333 540.05 0.40081 1.7387 2.1589 2222.7 -0.0067937 698.99 0.25171 705.00 0.0014184 84.333 540.05 0.40081 1.7387 2.1589 2222.7 -0.0067937 698.99 0.25171
-8.6250 46855. undefined 86.073 544.31 0.40740 705.00 0.0014184 86.073 544.31 0.40740 1.7424 2.1619 2223.8 -0.0067842 697.19 0.25209 705.00 0.0014184 86.073 544.31 0.40740 1.7424 2.1619 2223.8 -0.0067842 697.19 0.25209
-7.6250 47112. undefined 87.818 548.57 0.41398 705.00 0.0014184 87.818 548.57 0.41398 1.7461 2.1649 2224.9 -0.0067746 695.41 0.25247 705.00 0.0014184 87.818 548.57 0.41398 1.7461 2.1649 2224.9 -0.0067746 695.41 0.25247
-6.6250 47369. undefined 89.566 552.82 0.42055 705.00 0.0014184 89.566 552.82 0.42055 1.7499 2.1679 2226.0 -0.0067651 693.65 0.25285 705.00 0.0014184 89.566 552.82 0.42055 1.7499 2.1679 2226.0 -0.0067651 693.65 0.25285
-5.6250 47624. undefined 91.317 557.08 0.42711 705.00 0.0014184 91.317 557.08 0.42711 1.7536 2.1709 2227.1 -0.0067555 691.91 0.25324 705.00 0.0014184 91.317 557.08 0.42711 1.7536 2.1709 2227.1 -0.0067555 691.91 0.25324
-4.6250 47880. undefined 93.073 561.33 0.43366 705.00 0.0014184 93.073 561.33 0.43366 1.7573 2.1739 2228.3 -0.0067459 690.18 0.25362 705.00 0.0014184 93.073 561.33 0.43366 1.7573 2.1739 2228.3 -0.0067459 690.18 0.25362
-3.6250 48135. undefined 94.832 565.58 0.44020 705.00 0.0014184 94.832 565.58 0.44020 1.7611 2.1769 2229.4 -0.0067362 688.48 0.25400 705.00 0.0014184 94.832 565.58 0.44020 1.7611 2.1769 2229.4 -0.0067362 688.48 0.25400
-2.6250 48389. undefined 96.595 569.83 0.44673 705.00 0.0014184 96.595 569.83 0.44673 1.7648 2.1800 2230.5 -0.0067266 686.80 0.25438 705.00 0.0014184 96.595 569.83 0.44673 1.7648 2.1800 2230.5 -0.0067266 686.80 0.25438
-1.6250 48643. undefined 98.362 574.08 0.45325 705.00 0.0014184 98.362 574.08 0.45325 1.7686 2.1831 2231.6 -0.0067169 685.14 0.25476 705.00 0.0014184 98.362 574.08 0.45325 1.7686 2.1831 2231.6 -0.0067169 685.14 0.25476
-0.62500 48897. undefined 100.13 578.33 0.45976 705.00 0.0014184 100.13 578.33 0.45976 1.7724 2.1862 2232.7 -0.0067072 683.49 0.25514 705.00 0.0014184 100.13 578.33 0.45976 1.7724 2.1862 2232.7 -0.0067072 683.49 0.25514
0.37500 49150. undefined 101.91 582.58 0.46626 705.00 0.0014184 101.91 582.58 0.46626 1.7762 2.1893 2233.8 -0.0066975 681.87 0.25553 705.00 0.0014184 101.91 582.58 0.46626 1.7762 2.1893 2233.8 -0.0066975 681.87 0.25553
1.3750 49402. undefined 103.68 586.83 0.47274 705.00 0.0014184 103.68 586.83 0.47274 1.7800 2.1924 2234.8 -0.0066878 680.26 0.25591 705.00 0.0014184 103.68 586.83 0.47274 1.7800 2.1924 2234.8 -0.0066878 680.26 0.25591
2.3750 49654. undefined 105.47 591.08 0.47922 705.00 0.0014184 105.47 591.08 0.47922 1.7838 2.1955 2235.9 -0.0066781 678.67 0.25629 705.00 0.0014184 105.47 591.08 0.47922 1.7838 2.1955 2235.9 -0.0066781 678.67 0.25629
3.3750 49906. undefined 107.25 595.32 0.48569 705.00 0.0014184 107.25 595.32 0.48569 1.7877 2.1987 2237.0 -0.0066683 677.10 0.25668 705.00 0.0014184 107.25 595.32 0.48569 1.7877 2.1987 2237.0 -0.0066683 677.10 0.25668
4.3750 50157. undefined 109.04 599.57 0.49215 705.00 0.0014184 109.04 599.57 0.49215 1.7915 2.2018 2238.1 -0.0066585 675.54 0.25706 705.00 0.0014184 109.04 599.57 0.49215 1.7915 2.2018 2238.1 -0.0066585 675.54 0.25706
5.3750 50408. undefined 110.84 603.82 0.49860 705.00 0.0014184 110.84 603.82 0.49860 1.7953 2.2050 2239.2 -0.0066488 674.00 0.25745 705.00 0.0014184 110.84 603.82 0.49860 1.7953 2.2050 2239.2 -0.0066488 674.00 0.25745
6.3750 50659. undefined 112.63 608.06 0.50504 705.00 0.0014184 112.63 608.06 0.50504 1.7992 2.2082 2240.2 -0.0066390 672.48 0.25783 705.00 0.0014184 112.63 608.06 0.50504 1.7992 2.2082 2240.2 -0.0066390 672.48 0.25783
7.3750 50908. undefined 114.43 612.31 0.51148 705.00 0.0014184 114.43 612.31 0.51148 1.8031 2.2114 2241.3 -0.0066291 670.98 0.25821 705.00 0.0014184 114.43 612.31 0.51148 1.8031 2.2114 2241.3 -0.0066291 670.98 0.25821
8.3750 51158. undefined 116.24 616.55 0.51790 705.00 0.0014184 116.24 616.55 0.51790 1.8069 2.2146 2242.4 -0.0066193 669.49 0.25860 705.00 0.0014184 116.24 616.55 0.51790 1.8069 2.2146 2242.4 -0.0066193 669.49 0.25860
9.3750 51407. undefined 118.05 620.80 0.52431 705.00 0.0014184 118.05 620.80 0.52431 1.8108 2.2178 2243.4 -0.0066095 668.02 0.25898 705.00 0.0014184 118.05 620.80 0.52431 1.8108 2.2178 2243.4 -0.0066095 668.02 0.25898
10.375 51655. undefined 119.86 625.04 0.53072 705.00 0.0014184 119.86 625.04 0.53072 1.8147 2.2211 2244.5 -0.0065996 666.56 0.25937 705.00 0.0014184 119.86 625.04 0.53072 1.8147 2.2211 2244.5 -0.0065996 666.56 0.25937
11.375 51904. undefined 121.68 629.28 0.53711 705.00 0.0014184 121.68 629.28 0.53711 1.8186 2.2243 2245.6 -0.0065898 665.12 0.25976 705.00 0.0014184 121.68 629.28 0.53711 1.8186 2.2243 2245.6 -0.0065898 665.12 0.25976
12.375 52151. undefined 123.50 633.53 0.54350 705.00 0.0014184 123.50 633.53 0.54350 1.8225 2.2276 2246.6 -0.0065799 663.70 0.26014 705.00 0.0014184 123.50 633.53 0.54350 1.8225 2.2276 2246.6 -0.0065799 663.70 0.26014
13.375 52399. undefined 125.32 637.77 0.54988 705.00 0.0014184 125.32 637.77 0.54988 1.8264 2.2309 2247.7 -0.0065701 662.29 0.26053 705.00 0.0014184 125.32 637.77 0.54988 1.8264 2.2309 2247.7 -0.0065701 662.29 0.26053
14.375 52645. undefined 127.15 642.01 0.55625 705.00 0.0014184 127.15 642.01 0.55625 1.8303 2.2342 2248.7 -0.0065602 660.89 0.26092 705.00 0.0014184 127.15 642.01 0.55625 1.8303 2.2342 2248.7 -0.0065602 660.89 0.26092
15.375 52892. undefined 128.98 646.25 0.56261 705.00 0.0014184 128.98 646.25 0.56261 1.8343 2.2375 2249.8 -0.0065503 659.51 0.26130 705.00 0.0014184 128.98 646.25 0.56261 1.8343 2.2375 2249.8 -0.0065503 659.51 0.26130
16.375 53138. undefined 130.82 650.50 0.56897 705.00 0.0014184 130.82 650.50 0.56897 1.8382 2.2408 2250.8 -0.0065404 658.15 0.26169 705.00 0.0014184 130.82 650.50 0.56897 1.8382 2.2408 2250.8 -0.0065404 658.15 0.26169
17.375 53384. undefined 132.66 654.74 0.57531 705.00 0.0014184 132.66 654.74 0.57531 1.8422 2.2441 2251.9 -0.0065305 656.79 0.26208 705.00 0.0014184 132.66 654.74 0.57531 1.8422 2.2441 2251.9 -0.0065305 656.79 0.26208
18.375 53629. undefined 134.50 658.98 0.58165 705.00 0.0014184 134.50 658.98 0.58165 1.8461 2.2474 2252.9 -0.0065206 655.46 0.26247 705.00 0.0014184 134.50 658.98 0.58165 1.8461 2.2474 2252.9 -0.0065206 655.46 0.26247
19.375 53873. undefined 136.35 663.22 0.58798 705.00 0.0014184 136.35 663.22 0.58798 1.8501 2.2508 2253.9 -0.0065107 654.13 0.26285 705.00 0.0014184 136.35 663.22 0.58798 1.8501 2.2508 2253.9 -0.0065107 654.13 0.26285
20.375 54118. undefined 138.20 667.46 0.59430 705.00 0.0014184 138.20 667.46 0.59430 1.8541 2.2542 2255.0 -0.0065008 652.83 0.26324 705.00 0.0014184 138.20 667.46 0.59430 1.8541 2.2542 2255.0 -0.0065008 652.83 0.26324
21.375 54362. undefined 140.06 671.71 0.60061 705.00 0.0014184 140.06 671.71 0.60061 1.8580 2.2575 2256.0 -0.0064909 651.53 0.26363 705.00 0.0014184 140.06 671.71 0.60061 1.8580 2.2575 2256.0 -0.0064909 651.53 0.26363
22.375 54605. undefined 141.92 675.95 0.60691 705.00 0.0014184 141.92 675.95 0.60691 1.8620 2.2609 2257.0 -0.0064810 650.25 0.26402 705.00 0.0014184 141.92 675.95 0.60691 1.8620 2.2609 2257.0 -0.0064810 650.25 0.26402
23.375 54848. undefined 143.78 680.19 0.61321 705.00 0.0014184 143.78 680.19 0.61321 1.8660 2.2643 2258.0 -0.0064710 648.98 0.26441 705.00 0.0014184 143.78 680.19 0.61321 1.8660 2.2643 2258.0 -0.0064710 648.98 0.26441
24.375 55091. undefined 145.65 684.43 0.61950 705.00 0.0014184 145.65 684.43 0.61950 1.8700 2.2677 2259.1 -0.0064611 647.72 0.26480 705.00 0.0014184 145.65 684.43 0.61950 1.8700 2.2677 2259.1 -0.0064611 647.72 0.26480
25.375 55333. undefined 147.52 688.67 0.62578 705.00 0.0014184 147.52 688.67 0.62578 1.8740 2.2711 2260.1 -0.0064512 646.48 0.26519 705.00 0.0014184 147.52 688.67 0.62578 1.8740 2.2711 2260.1 -0.0064512 646.48 0.26519
26.375 55575. undefined 149.40 692.91 0.63205 705.00 0.0014184 149.40 692.91 0.63205 1.8780 2.2745 2261.1 -0.0064413 645.25 0.26558 705.00 0.0014184 149.40 692.91 0.63205 1.8780 2.2745 2261.1 -0.0064413 645.25 0.26558
27.375 55817. undefined 151.28 697.16 0.63832 705.00 0.0014184 151.28 697.16 0.63832 1.8820 2.2780 2262.1 -0.0064314 644.03 0.26597 705.00 0.0014184 151.28 697.16 0.63832 1.8820 2.2780 2262.1 -0.0064314 644.03 0.26597
28.375 56058. undefined 153.16 701.40 0.64458 705.00 0.0014184 153.16 701.40 0.64458 1.8861 2.2814 2263.1 -0.0064215 642.83 0.26636 705.00 0.0014184 153.16 701.40 0.64458 1.8861 2.2814 2263.1 -0.0064215 642.83 0.26636
29.375 56299. undefined 155.05 705.64 0.65083 705.00 0.0014184 155.05 705.64 0.65083 1.8901 2.2849 2264.1 -0.0064116 641.63 0.26675 705.00 0.0014184 155.05 705.64 0.65083 1.8901 2.2849 2264.1 -0.0064116 641.63 0.26675
30.375 56539. undefined 156.94 709.88 0.65707 705.00 0.0014184 156.94 709.88 0.65707 1.8941 2.2883 2265.2 -0.0064017 640.45 0.26714 705.00 0.0014184 156.94 709.88 0.65707 1.8941 2.2883 2265.2 -0.0064017 640.45 0.26714
31.375 56779. undefined 158.84 714.13 0.66331 705.00 0.0014184 158.84 714.13 0.66331 1.8982 2.2918 2266.2 -0.0063918 639.28 0.26754 705.00 0.0014184 158.84 714.13 0.66331 1.8982 2.2918 2266.2 -0.0063918 639.28 0.26754
32.375 57019. undefined 160.74 718.37 0.66954 705.00 0.0014184 160.74 718.37 0.66954 1.9022 2.2953 2267.2 -0.0063819 638.12 0.26793 705.00 0.0014184 160.74 718.37 0.66954 1.9022 2.2953 2267.2 -0.0063819 638.12 0.26793
33.375 57258. undefined 162.64 722.61 0.67576 705.00 0.0014184 162.64 722.61 0.67576 1.9063 2.2987 2268.2 -0.0063720 636.98 0.26832 705.00 0.0014184 162.64 722.61 0.67576 1.9063 2.2987 2268.2 -0.0063720 636.98 0.26832
34.375 57496. undefined 164.55 726.86 0.68198 705.00 0.0014184 164.55 726.86 0.68198 1.9103 2.3022 2269.2 -0.0063621 635.84 0.26871 705.00 0.0014184 164.55 726.86 0.68198 1.9103 2.3022 2269.2 -0.0063621 635.84 0.26871
35.375 57735. undefined 166.46 731.10 0.68819 705.00 0.0014184 166.46 731.10 0.68819 1.9144 2.3057 2270.2 -0.0063522 634.72 0.26911 705.00 0.0014184 166.46 731.10 0.68819 1.9144 2.3057 2270.2 -0.0063522 634.72 0.26911
36.375 57973. undefined 168.38 735.34 0.69439 705.00 0.0014184 168.38 735.34 0.69439 1.9185 2.3093 2271.2 -0.0063423 633.61 0.26950 705.00 0.0014184 168.38 735.34 0.69439 1.9185 2.3093 2271.2 -0.0063423 633.61 0.26950
37.375 58211. undefined 170.30 739.59 0.70058 705.00 0.0014184 170.30 739.59 0.70058 1.9225 2.3128 2272.2 -0.0063324 632.51 0.26989 705.00 0.0014184 170.30 739.59 0.70058 1.9225 2.3128 2272.2 -0.0063324 632.51 0.26989
38.375 58448. undefined 172.23 743.83 0.70677 705.00 0.0014184 172.23 743.83 0.70677 1.9266 2.3163 2273.1 -0.0063226 631.41 0.27029 705.00 0.0014184 172.23 743.83 0.70677 1.9266 2.3163 2273.1 -0.0063226 631.41 0.27029
39.375 58685. undefined 174.16 748.08 0.71295 705.00 0.0014184 174.16 748.08 0.71295 1.9307 2.3199 2274.1 -0.0063127 630.33 0.27068 705.00 0.0014184 174.16 748.08 0.71295 1.9307 2.3199 2274.1 -0.0063127 630.33 0.27068
40.375 58921. undefined 176.09 752.33 0.71913 705.00 0.0014184 176.09 752.33 0.71913 1.9348 2.3234 2275.1 -0.0063029 629.27 0.27107 705.00 0.0014184 176.09 752.33 0.71913 1.9348 2.3234 2275.1 -0.0063029 629.27 0.27107
41.375 59157. undefined 178.02 756.57 0.72530 705.00 0.0014184 178.02 756.57 0.72530 1.9389 2.3270 2276.1 -0.0062930 628.21 0.27147 705.00 0.0014184 178.02 756.57 0.72530 1.9389 2.3270 2276.1 -0.0062930 628.21 0.27147
42.375 59393. undefined 179.97 760.82 0.73146 705.00 0.0014184 179.97 760.82 0.73146 1.9430 2.3305 2277.1 -0.0062832 627.16 0.27186 705.00 0.0014184 179.97 760.82 0.73146 1.9430 2.3305 2277.1 -0.0062832 627.16 0.27186
43.375 59629. undefined 181.91 765.07 0.73761 705.00 0.0014184 181.91 765.07 0.73761 1.9471 2.3341 2278.1 -0.0062734 626.12 0.27226 705.00 0.0014184 181.91 765.07 0.73761 1.9471 2.3341 2278.1 -0.0062734 626.12 0.27226
44.375 59864. undefined 183.86 769.31 0.74376 705.00 0.0014184 183.86 769.31 0.74376 1.9512 2.3377 2279.1 -0.0062636 625.09 0.27265 705.00 0.0014184 183.86 769.31 0.74376 1.9512 2.3377 2279.1 -0.0062636 625.09 0.27265
45.375 60098. undefined 185.81 773.56 0.74990 705.00 0.0014184 185.81 773.56 0.74990 1.9553 2.3412 2280.0 -0.0062538 624.07 0.27305 705.00 0.0014184 185.81 773.56 0.74990 1.9553 2.3412 2280.0 -0.0062538 624.07 0.27305
46.375 60333. undefined 187.77 777.81 0.75604 705.00 0.0014184 187.77 777.81 0.75604 1.9594 2.3448 2281.0 -0.0062440 623.06 0.27345 705.00 0.0014184 187.77 777.81 0.75604 1.9594 2.3448 2281.0 -0.0062440 623.06 0.27345
47.375 60567. undefined 189.73 782.06 0.76217 705.00 0.0014184 189.73 782.06 0.76217 1.9636 2.3484 2282.0 -0.0062342 622.06 0.27384 705.00 0.0014184 189.73 782.06 0.76217 1.9636 2.3484 2282.0 -0.0062342 622.06 0.27384
48.375 60800. undefined 191.70 786.31 0.76829 705.00 0.0014184 191.70 786.31 0.76829 1.9677 2.3520 2283.0 -0.0062244 621.07 0.27424 705.00 0.0014184 191.70 786.31 0.76829 1.9677 2.3520 2283.0 -0.0062244 621.07 0.27424
49.375 61034. undefined 193.67 790.56 0.77441 705.00 0.0014184 193.67 790.56 0.77441 1.9718 2.3556 2283.9 -0.0062147 620.09 0.27464 705.00 0.0014184 193.67 790.56 0.77441 1.9718 2.3556 2283.9 -0.0062147 620.09 0.27464
50.375 61267. undefined 195.64 794.82 0.78052 705.00 0.0014184 195.64 794.82 0.78052 1.9759 2.3593 2284.9 -0.0062049 619.12 0.27503 705.00 0.0014184 195.64 794.82 0.78052 1.9759 2.3593 2284.9 -0.0062049 619.12 0.27503
51.375 61499. undefined 197.62 799.07 0.78662 705.00 0.0014184 197.62 799.07 0.78662 1.9801 2.3629 2285.9 -0.0061952 618.16 0.27543 705.00 0.0014184 197.62 799.07 0.78662 1.9801 2.3629 2285.9 -0.0061952 618.16 0.27543
52.375 61731. undefined 199.60 803.32 0.79272 705.00 0.0014184 199.60 803.32 0.79272 1.9842 2.3665 2286.8 -0.0061855 617.20 0.27583 705.00 0.0014184 199.60 803.32 0.79272 1.9842 2.3665 2286.8 -0.0061855 617.20 0.27583
53.375 61963. undefined 201.59 807.57 0.79881 705.00 0.0014184 201.59 807.57 0.79881 1.9883 2.3701 2287.8 -0.0061758 616.26 0.27623 705.00 0.0014184 201.59 807.57 0.79881 1.9883 2.3701 2287.8 -0.0061758 616.26 0.27623
54.375 62195. undefined 203.58 811.83 0.80490 705.00 0.0014184 203.58 811.83 0.80490 1.9925 2.3738 2288.8 -0.0061661 615.32 0.27663 705.00 0.0014184 203.58 811.83 0.80490 1.9925 2.3738 2288.8 -0.0061661 615.32 0.27663
55.375 62426. undefined 205.57 816.08 0.81098 705.00 0.0014184 205.57 816.08 0.81098 1.9966 2.3774 2289.7 -0.0061564 614.40 0.27702 705.00 0.0014184 205.57 816.08 0.81098 1.9966 2.3774 2289.7 -0.0061564 614.40 0.27702
56.375 62657. undefined 207.57 820.34 0.81705 705.00 0.0014184 207.57 820.34 0.81705 2.0008 2.3811 2290.7 -0.0061468 613.48 0.27742 705.00 0.0014184 207.57 820.34 0.81705 2.0008 2.3811 2290.7 -0.0061468 613.48 0.27742
57.375 62887. undefined 209.57 824.60 0.82312 705.00 0.0014184 209.57 824.60 0.82312 2.0049 2.3847 2291.6 -0.0061371 612.57 0.27782 705.00 0.0014184 209.57 824.60 0.82312 2.0049 2.3847 2291.6 -0.0061371 612.57 0.27782
58.375 63117. undefined 211.58 828.86 0.82919 705.00 0.0014184 211.58 828.86 0.82919 2.0091 2.3884 2292.6 -0.0061275 611.67 0.27822 705.00 0.0014184 211.58 828.86 0.82919 2.0091 2.3884 2292.6 -0.0061275 611.67 0.27822
59.375 63347. undefined 213.59 833.11 0.83524 705.00 0.0014184 213.59 833.11 0.83524 2.0133 2.3921 2293.5 -0.0061179 610.78 0.27862 705.00 0.0014184 213.59 833.11 0.83524 2.0133 2.3921 2293.5 -0.0061179 610.78 0.27862
60.375 63577. undefined 215.61 837.37 0.84129 705.00 0.0014184 215.61 837.37 0.84129 2.0174 2.3957 2294.5 -0.0061083 609.89 0.27902 705.00 0.0014184 215.61 837.37 0.84129 2.0174 2.3957 2294.5 -0.0061083 609.89 0.27902
61.375 63806. undefined 217.63 841.63 0.84734 705.00 0.0014184 217.63 841.63 0.84734 2.0216 2.3994 2295.4 -0.0060987 609.01 0.27942 705.00 0.0014184 217.63 841.63 0.84734 2.0216 2.3994 2295.4 -0.0060987 609.01 0.27942
62.375 64034. undefined 219.65 845.90 0.85338 705.00 0.0014184 219.65 845.90 0.85338 2.0257 2.4031 2296.4 -0.0060891 608.15 0.27982 705.00 0.0014184 219.65 845.90 0.85338 2.0257 2.4031 2296.4 -0.0060891 608.15 0.27982
63.375 64263. undefined 221.68 850.16 0.85942 705.00 0.0014184 221.68 850.16 0.85942 2.0299 2.4068 2297.3 -0.0060796 607.28 0.28023 705.00 0.0014184 221.68 850.16 0.85942 2.0299 2.4068 2297.3 -0.0060796 607.28 0.28023
64.375 64491. undefined 223.71 854.42 0.86544 705.00 0.0014184 223.71 854.42 0.86544 2.0341 2.4105 2298.3 -0.0060701 606.43 0.28063 705.00 0.0014184 223.71 854.42 0.86544 2.0341 2.4105 2298.3 -0.0060701 606.43 0.28063
65.375 64719. undefined 225.75 858.68 0.87147 705.00 0.0014184 225.75 858.68 0.87147 2.0382 2.4142 2299.2 -0.0060606 605.59 0.28103 705.00 0.0014184 225.75 858.68 0.87147 2.0382 2.4142 2299.2 -0.0060606 605.59 0.28103
66.375 64946. undefined 227.79 862.95 0.87749 705.00 0.0014184 227.79 862.95 0.87749 2.0424 2.4179 2300.2 -0.0060511 604.75 0.28143 705.00 0.0014184 227.79 862.95 0.87749 2.0424 2.4179 2300.2 -0.0060511 604.75 0.28143
67.375 65174. undefined 229.83 867.22 0.88350 705.00 0.0014184 229.83 867.22 0.88350 2.0466 2.4216 2301.1 -0.0060416 603.92 0.28183 705.00 0.0014184 229.83 867.22 0.88350 2.0466 2.4216 2301.1 -0.0060416 603.92 0.28183
68.375 65400. undefined 231.88 871.48 0.88951 705.00 0.0014184 231.88 871.48 0.88951 2.0508 2.4253 2302.1 -0.0060321 603.10 0.28224 705.00 0.0014184 231.88 871.48 0.88951 2.0508 2.4253 2302.1 -0.0060321 603.10 0.28224
69.375 65627. undefined 233.93 875.75 0.89551 705.00 0.0014184 233.93 875.75 0.89551 2.0549 2.4290 2303.0 -0.0060227 602.28 0.28264 705.00 0.0014184 233.93 875.75 0.89551 2.0549 2.4290 2303.0 -0.0060227 602.28 0.28264
70.375 65853. undefined 235.99 880.02 0.90151 705.00 0.0014184 235.99 880.02 0.90151 2.0591 2.4327 2303.9 -0.0060133 601.47 0.28304 705.00 0.0014184 235.99 880.02 0.90151 2.0591 2.4327 2303.9 -0.0060133 601.47 0.28304
71.375 66079. undefined 238.05 884.29 0.90750 705.00 0.0014184 238.05 884.29 0.90750 2.0633 2.4364 2304.9 -0.0060039 600.67 0.28344 705.00 0.0014184 238.05 884.29 0.90750 2.0633 2.4364 2304.9 -0.0060039 600.67 0.28344
72.375 66304. undefined 240.12 888.56 0.91348 705.00 0.0014184 240.12 888.56 0.91348 2.0675 2.4401 2305.8 -0.0059945 599.88 0.28385 705.00 0.0014184 240.12 888.56 0.91348 2.0675 2.4401 2305.8 -0.0059945 599.88 0.28385
73.375 66530. undefined 242.19 892.83 0.91946 705.00 0.0014184 242.19 892.83 0.91946 2.0717 2.4439 2306.7 -0.0059851 599.09 0.28425 705.00 0.0014184 242.19 892.83 0.91946 2.0717 2.4439 2306.7 -0.0059851 599.09 0.28425
74.375 66755. undefined 244.26 897.11 0.92544 705.00 0.0014184 244.26 897.11 0.92544 2.0758 2.4476 2307.7 -0.0059758 598.31 0.28466 705.00 0.0014184 244.26 897.11 0.92544 2.0758 2.4476 2307.7 -0.0059758 598.31 0.28466
75.375 66979. undefined 246.34 901.38 0.93141 705.00 0.0014184 246.34 901.38 0.93141 2.0800 2.4513 2308.6 -0.0059665 597.54 0.28506 705.00 0.0014184 246.34 901.38 0.93141 2.0800 2.4513 2308.6 -0.0059665 597.54 0.28506
76.375 67203. undefined 248.42 905.66 0.93738 705.00 0.0014184 248.42 905.66 0.93738 2.0842 2.4551 2309.5 -0.0059572 596.77 0.28547 705.00 0.0014184 248.42 905.66 0.93738 2.0842 2.4551 2309.5 -0.0059572 596.77 0.28547
77.375 67427. undefined 250.51 909.93 0.94334 705.00 0.0014184 250.51 909.93 0.94334 2.0884 2.4588 2310.5 -0.0059479 596.01 0.28587 705.00 0.0014184 250.51 909.93 0.94334 2.0884 2.4588 2310.5 -0.0059479 596.01 0.28587
78.375 67651. undefined 252.60 914.21 0.94929 705.00 0.0014184 252.60 914.21 0.94929 2.0926 2.4625 2311.4 -0.0059386 595.26 0.28628 705.00 0.0014184 252.60 914.21 0.94929 2.0926 2.4625 2311.4 -0.0059386 595.26 0.28628
79.375 67874. undefined 254.69 918.49 0.95524 705.00 0.0014184 254.69 918.49 0.95524 2.0968 2.4663 2312.3 -0.0059294 594.51 0.28668 705.00 0.0014184 254.69 918.49 0.95524 2.0968 2.4663 2312.3 -0.0059294 594.51 0.28668
80.375 68097. undefined 256.79 922.77 0.96119 705.00 0.0014184 256.79 922.77 0.96119 2.1010 2.4700 2313.2 -0.0059202 593.77 0.28709 705.00 0.0014184 256.79 922.77 0.96119 2.1010 2.4700 2313.2 -0.0059202 593.77 0.28709
81.375 68320. undefined 258.89 927.05 0.96713 705.00 0.0014184 258.89 927.05 0.96713 2.1051 2.4738 2314.2 -0.0059110 593.04 0.28749 705.00 0.0014184 258.89 927.05 0.96713 2.1051 2.4738 2314.2 -0.0059110 593.04 0.28749
82.375 68543. undefined 261.00 931.33 0.97306 705.00 0.0014184 261.00 931.33 0.97306 2.1093 2.4775 2315.1 -0.0059018 592.31 0.28790 705.00 0.0014184 261.00 931.33 0.97306 2.1093 2.4775 2315.1 -0.0059018 592.31 0.28790
83.375 68765. undefined 263.11 935.62 0.97899 705.00 0.0014184 263.11 935.62 0.97899 2.1135 2.4813 2316.0 -0.0058927 591.59 0.28831 705.00 0.0014184 263.11 935.62 0.97899 2.1135 2.4813 2316.0 -0.0058927 591.59 0.28831
84.375 68987. undefined 265.23 939.90 0.98492 705.00 0.0014184 265.23 939.90 0.98492 2.1177 2.4851 2316.9 -0.0058835 590.88 0.28872 705.00 0.0014184 265.23 939.90 0.98492 2.1177 2.4851 2316.9 -0.0058835 590.88 0.28872
85.375 69208. undefined 267.35 944.19 0.99084 705.00 0.0014184 267.35 944.19 0.99084 2.1219 2.4888 2317.8 -0.0058744 590.17 0.28912 705.00 0.0014184 267.35 944.19 0.99084 2.1219 2.4888 2317.8 -0.0058744 590.17 0.28912
86.375 69429. undefined 269.47 948.48 0.99676 705.00 0.0014184 269.47 948.48 0.99676 2.1261 2.4926 2318.8 -0.0058653 589.47 0.28953 705.00 0.0014184 269.47 948.48 0.99676 2.1261 2.4926 2318.8 -0.0058653 589.47 0.28953
87.375 69650. undefined 271.60 952.77 1.0027 705.00 0.0014184 271.60 952.77 1.0027 2.1303 2.4963 2319.7 -0.0058563 588.77 0.28994 705.00 0.0014184 271.60 952.77 1.0027 2.1303 2.4963 2319.7 -0.0058563 588.77 0.28994
88.375 69871. undefined 273.73 957.06 1.0086 705.00 0.0014184 273.73 957.06 1.0086 2.1345 2.5001 2320.6 -0.0058472 588.08 0.29035 705.00 0.0014184 273.73 957.06 1.0086 2.1345 2.5001 2320.6 -0.0058472 588.08 0.29035
89.375 70091. undefined 275.87 961.35 1.0145 705.00 0.0014184 275.87 961.35 1.0145 2.1387 2.5039 2321.5 -0.0058382 587.39 0.29076 705.00 0.0014184 275.87 961.35 1.0145 2.1387 2.5039 2321.5 -0.0058382 587.39 0.29076
90.375 70311. undefined 278.01 965.64 1.0204 705.00 0.0014184 278.01 965.64 1.0204 2.1428 2.5076 2322.4 -0.0058292 586.71 0.29116 705.00 0.0014184 278.01 965.64 1.0204 2.1428 2.5076 2322.4 -0.0058292 586.71 0.29116
91.375 70531. undefined 280.15 969.93 1.0263 705.00 0.0014184 280.15 969.93 1.0263 2.1470 2.5114 2323.3 -0.0058203 586.04 0.29157 705.00 0.0014184 280.15 969.93 1.0263 2.1470 2.5114 2323.3 -0.0058203 586.04 0.29157
92.375 70751. undefined 282.30 974.23 1.0322 705.00 0.0014184 282.30 974.23 1.0322 2.1512 2.5152 2324.2 -0.0058113 585.37 0.29198 705.00 0.0014184 282.30 974.23 1.0322 2.1512 2.5152 2324.2 -0.0058113 585.37 0.29198
93.375 70970. undefined 284.46 978.53 1.0380 705.00 0.0014184 284.46 978.53 1.0380 2.1554 2.5190 2325.2 -0.0058024 584.71 0.29239 705.00 0.0014184 284.46 978.53 1.0380 2.1554 2.5190 2325.2 -0.0058024 584.71 0.29239
94.375 71189. undefined 286.61 982.83 1.0439 705.00 0.0014184 286.61 982.83 1.0439 2.1596 2.5227 2326.1 -0.0057935 584.06 0.29280 705.00 0.0014184 286.61 982.83 1.0439 2.1596 2.5227 2326.1 -0.0057935 584.06 0.29280
95.375 71407. undefined 288.78 987.12 1.0498 705.00 0.0014184 288.78 987.12 1.0498 2.1638 2.5265 2327.0 -0.0057846 583.40 0.29321 705.00 0.0014184 288.78 987.12 1.0498 2.1638 2.5265 2327.0 -0.0057846 583.40 0.29321
96.375 71626. undefined 290.94 991.43 1.0557 705.00 0.0014184 290.94 991.43 1.0557 2.1680 2.5303 2327.9 -0.0057758 582.76 0.29362 705.00 0.0014184 290.94 991.43 1.0557 2.1680 2.5303 2327.9 -0.0057758 582.76 0.29362
97.375 71844. undefined 293.11 995.73 1.0615 705.00 0.0014184 293.11 995.73 1.0615 2.1721 2.5341 2328.8 -0.0057669 582.12 0.29404 705.00 0.0014184 293.11 995.73 1.0615 2.1721 2.5341 2328.8 -0.0057669 582.12 0.29404
98.375 72061. undefined 295.29 1000.0 1.0674 705.00 0.0014184 295.29 1000.0 1.0674 2.1763 2.5378 2329.7 -0.0057581 581.48 0.29445 705.00 0.0014184 295.29 1000.0 1.0674 2.1763 2.5378 2329.7 -0.0057581 581.48 0.29445
99.375 72279. undefined 297.46 1004.3 1.0732 705.00 0.0014184 297.46 1004.3 1.0732 2.1805 2.5416 2330.6 -0.0057493 580.85 0.29486 705.00 0.0014184 297.46 1004.3 1.0732 2.1805 2.5416 2330.6 -0.0057493 580.85 0.29486
100.38 72496. undefined 299.65 1008.6 1.0791 705.00 0.0014184 299.65 1008.6 1.0791 2.1847 2.5454 2331.5 -0.0057406 580.23 0.29527 705.00 0.0014184 299.65 1008.6 1.0791 2.1847 2.5454 2331.5 -0.0057406 580.23 0.29527
101.38 72713. undefined 301.83 1013.0 1.0849 705.00 0.0014184 301.83 1013.0 1.0849 2.1889 2.5492 2332.4 -0.0057319 579.61 0.29568 705.00 0.0014184 301.83 1013.0 1.0849 2.1889 2.5492 2332.4 -0.0057319 579.61 0.29568
102.38 72930. undefined 304.02 1017.3 1.0908 705.00 0.0014184 304.02 1017.3 1.0908 2.1930 2.5530 2333.3 -0.0057232 579.00 0.29610 705.00 0.0014184 304.02 1017.3 1.0908 2.1930 2.5530 2333.3 -0.0057232 579.00 0.29610
103.38 73146. undefined 306.22 1021.6 1.0966 705.00 0.0014184 306.22 1021.6 1.0966 2.1972 2.5567 2334.2 -0.0057145 578.39 0.29651 705.00 0.0014184 306.22 1021.6 1.0966 2.1972 2.5567 2334.2 -0.0057145 578.39 0.29651
104.38 73362. undefined 308.42 1025.9 1.1024 705.00 0.0014184 308.42 1025.9 1.1024 2.2014 2.5605 2335.1 -0.0057058 577.78 0.29692 705.00 0.0014184 308.42 1025.9 1.1024 2.2014 2.5605 2335.1 -0.0057058 577.78 0.29692
105.38 73578. undefined 310.62 1030.2 1.1083 705.00 0.0014184 310.62 1030.2 1.1083 2.2055 2.5643 2336.0 -0.0056972 577.18 0.29733 705.00 0.0014184 310.62 1030.2 1.1083 2.2055 2.5643 2336.0 -0.0056972 577.18 0.29733
106.38 73793. undefined 312.83 1034.5 1.1141 705.00 0.0014184 312.83 1034.5 1.1141 2.2097 2.5681 2336.9 -0.0056886 576.59 0.29775 705.00 0.0014184 312.83 1034.5 1.1141 2.2097 2.5681 2336.9 -0.0056886 576.59 0.29775
107.38 74009. undefined 315.04 1038.8 1.1199 705.00 0.0014184 315.04 1038.8 1.1199 2.2139 2.5719 2337.8 -0.0056800 576.00 0.29816 705.00 0.0014184 315.04 1038.8 1.1199 2.2139 2.5719 2337.8 -0.0056800 576.00 0.29816
108.38 74223. undefined 317.26 1043.1 1.1257 705.00 0.0014184 317.26 1043.1 1.1257 2.2181 2.5756 2338.7 -0.0056714 575.41 0.29858 705.00 0.0014184 317.26 1043.1 1.1257 2.2181 2.5756 2338.7 -0.0056714 575.41 0.29858
109.38 74438. undefined 319.48 1047.5 1.1315 705.00 0.0014184 319.48 1047.5 1.1315 2.2222 2.5794 2339.5 -0.0056629 574.83 0.29899 705.00 0.0014184 319.48 1047.5 1.1315 2.2222 2.5794 2339.5 -0.0056629 574.83 0.29899
110.38 74653. undefined 321.70 1051.8 1.1374 705.00 0.0014184 321.70 1051.8 1.1374 2.2264 2.5832 2340.4 -0.0056544 574.26 0.29941 705.00 0.0014184 321.70 1051.8 1.1374 2.2264 2.5832 2340.4 -0.0056544 574.26 0.29941
111.38 74867. undefined 323.93 1056.1 1.1432 705.00 0.0014184 323.93 1056.1 1.1432 2.2305 2.5870 2341.3 -0.0056459 573.69 0.29982 705.00 0.0014184 323.93 1056.1 1.1432 2.2305 2.5870 2341.3 -0.0056459 573.69 0.29982
112.38 75081. undefined 326.16 1060.4 1.1490 705.00 0.0014184 326.16 1060.4 1.1490 2.2347 2.5908 2342.2 -0.0056374 573.12 0.30024 705.00 0.0014184 326.16 1060.4 1.1490 2.2347 2.5908 2342.2 -0.0056374 573.12 0.30024
113.38 75294. undefined 328.40 1064.8 1.1548 705.00 0.0014184 328.40 1064.8 1.1548 2.2389 2.5946 2343.1 -0.0056290 572.56 0.30065 705.00 0.0014184 328.40 1064.8 1.1548 2.2389 2.5946 2343.1 -0.0056290 572.56 0.30065
114.38 75508. undefined 330.64 1069.1 1.1605 705.00 0.0014184 330.64 1069.1 1.1605 2.2430 2.5983 2344.0 -0.0056206 572.00 0.30107 705.00 0.0014184 330.64 1069.1 1.1605 2.2430 2.5983 2344.0 -0.0056206 572.00 0.30107
115.38 75721. undefined 332.89 1073.4 1.1663 705.00 0.0014184 332.89 1073.4 1.1663 2.2472 2.6021 2344.9 -0.0056122 571.45 0.30148 705.00 0.0014184 332.89 1073.4 1.1663 2.2472 2.6021 2344.9 -0.0056122 571.45 0.30148
116.38 75934. undefined 335.14 1077.8 1.1721 705.00 0.0014184 335.14 1077.8 1.1721 2.2513 2.6059 2345.8 -0.0056038 570.90 0.30190 705.00 0.0014184 335.14 1077.8 1.1721 2.2513 2.6059 2345.8 -0.0056038 570.90 0.30190
117.38 76146. undefined 337.39 1082.1 1.1779 705.00 0.0014184 337.39 1082.1 1.1779 2.2555 2.6097 2346.6 -0.0055955 570.35 0.30232 705.00 0.0014184 337.39 1082.1 1.1779 2.2555 2.6097 2346.6 -0.0055955 570.35 0.30232
118.38 76358. undefined 339.65 1086.4 1.1837 705.00 0.0014184 339.65 1086.4 1.1837 2.2596 2.6135 2347.5 -0.0055872 569.81 0.30273 705.00 0.0014184 339.65 1086.4 1.1837 2.2596 2.6135 2347.5 -0.0055872 569.81 0.30273
119.38 76571. undefined 341.91 1090.8 1.1894 705.00 0.0014184 341.91 1090.8 1.1894 2.2638 2.6172 2348.4 -0.0055789 569.28 0.30315 705.00 0.0014184 341.91 1090.8 1.1894 2.2638 2.6172 2348.4 -0.0055789 569.28 0.30315
120.38 76782. undefined 344.17 1095.1 1.1952 705.00 0.0014184 344.17 1095.1 1.1952 2.2679 2.6210 2349.3 -0.0055707 568.75 0.30357 705.00 0.0014184 344.17 1095.1 1.1952 2.2679 2.6210 2349.3 -0.0055707 568.75 0.30357
121.38 76994. undefined 346.44 1099.4 1.2010 705.00 0.0014184 346.44 1099.4 1.2010 2.2721 2.6248 2350.2 -0.0055624 568.22 0.30399 705.00 0.0014184 346.44 1099.4 1.2010 2.2721 2.6248 2350.2 -0.0055624 568.22 0.30399
122.38 77205. undefined 348.72 1103.8 1.2067 705.00 0.0014184 348.72 1103.8 1.2067 2.2762 2.6286 2351.0 -0.0055542 567.70 0.30441 705.00 0.0014184 348.72 1103.8 1.2067 2.2762 2.6286 2351.0 -0.0055542 567.70 0.30441
123.38 77416. undefined 351.00 1108.1 1.2125 705.00 0.0014184 351.00 1108.1 1.2125 2.2803 2.6323 2351.9 -0.0055461 567.18 0.30482 705.00 0.0014184 351.00 1108.1 1.2125 2.2803 2.6323 2351.9 -0.0055461 567.18 0.30482
124.38 77627. undefined 353.28 1112.5 1.2182 705.00 0.0014184 353.28 1112.5 1.2182 2.2845 2.6361 2352.8 -0.0055379 566.66 0.30524 705.00 0.0014184 353.28 1112.5 1.2182 2.2845 2.6361 2352.8 -0.0055379 566.66 0.30524
125.38 77837. undefined 355.57 1116.8 1.2240 705.00 0.0014184 355.57 1116.8 1.2240 2.2886 2.6399 2353.7 -0.0055298 566.15 0.30566 705.00 0.0014184 355.57 1116.8 1.2240 2.2886 2.6399 2353.7 -0.0055298 566.15 0.30566
126.38 78048. undefined 357.86 1121.1 1.2297 705.00 0.0014184 357.86 1121.1 1.2297 2.2927 2.6437 2354.6 -0.0055217 565.64 0.30608 705.00 0.0014184 357.86 1121.1 1.2297 2.2927 2.6437 2354.6 -0.0055217 565.64 0.30608
127.38 78258. undefined 360.15 1125.5 1.2354 705.00 0.0014184 360.15 1125.5 1.2354 2.2968 2.6474 2355.4 -0.0055136 565.14 0.30650 705.00 0.0014184 360.15 1125.5 1.2354 2.2968 2.6474 2355.4 -0.0055136 565.14 0.30650
128.38 78468. undefined 362.45 1129.8 1.2412 705.00 0.0014184 362.45 1129.8 1.2412 2.3010 2.6512 2356.3 -0.0055055 564.64 0.30692 705.00 0.0014184 362.45 1129.8 1.2412 2.3010 2.6512 2356.3 -0.0055055 564.64 0.30692
129.38 78677. undefined 364.75 1134.2 1.2469 705.00 0.0014184 364.75 1134.2 1.2469 2.3051 2.6550 2357.2 -0.0054975 564.15 0.30734 705.00 0.0014184 364.75 1134.2 1.2469 2.3051 2.6550 2357.2 -0.0054975 564.15 0.30734
130.38 78886. undefined 367.06 1138.6 1.2526 705.00 0.0014184 367.06 1138.6 1.2526 2.3092 2.6587 2358.0 -0.0054895 563.65 0.30776 705.00 0.0014184 367.06 1138.6 1.2526 2.3092 2.6587 2358.0 -0.0054895 563.65 0.30776
131.38 79095. undefined 369.37 1142.9 1.2583 705.00 0.0014184 369.37 1142.9 1.2583 2.3133 2.6625 2358.9 -0.0054815 563.17 0.30818 705.00 0.0014184 369.37 1142.9 1.2583 2.3133 2.6625 2358.9 -0.0054815 563.17 0.30818
132.38 79304. undefined 371.69 1147.3 1.2641 705.00 0.0014184 371.69 1147.3 1.2641 2.3174 2.6663 2359.8 -0.0054736 562.68 0.30861 705.00 0.0014184 371.69 1147.3 1.2641 2.3174 2.6663 2359.8 -0.0054736 562.68 0.30861
133.38 79513. undefined 374.01 1151.6 1.2698 705.00 0.0014184 374.01 1151.6 1.2698 2.3215 2.6700 2360.7 -0.0054657 562.20 0.30903 705.00 0.0014184 374.01 1151.6 1.2698 2.3215 2.6700 2360.7 -0.0054657 562.20 0.30903
134.38 79721. undefined 376.33 1156.0 1.2755 705.00 0.0014184 376.33 1156.0 1.2755 2.3256 2.6738 2361.5 -0.0054578 561.72 0.30945 705.00 0.0014184 376.33 1156.0 1.2755 2.3256 2.6738 2361.5 -0.0054578 561.72 0.30945
135.38 79929. undefined 378.66 1160.3 1.2812 705.00 0.0014184 378.66 1160.3 1.2812 2.3297 2.6775 2362.4 -0.0054499 561.25 0.30987 705.00 0.0014184 378.66 1160.3 1.2812 2.3297 2.6775 2362.4 -0.0054499 561.25 0.30987
136.38 80137. undefined 380.99 1164.7 1.2869 705.00 0.0014184 380.99 1164.7 1.2869 2.3338 2.6813 2363.3 -0.0054420 560.78 0.31029 705.00 0.0014184 380.99 1164.7 1.2869 2.3338 2.6813 2363.3 -0.0054420 560.78 0.31029
137.38 80344. undefined 383.33 1169.1 1.2926 705.00 0.0014184 383.33 1169.1 1.2926 2.3379 2.6851 2364.1 -0.0054342 560.32 0.31072 705.00 0.0014184 383.33 1169.1 1.2926 2.3379 2.6851 2364.1 -0.0054342 560.32 0.31072
138.38 80552. undefined 385.67 1173.4 1.2983 705.00 0.0014184 385.67 1173.4 1.2983 2.3420 2.6888 2365.0 -0.0054264 559.85 0.31114 705.00 0.0014184 385.67 1173.4 1.2983 2.3420 2.6888 2365.0 -0.0054264 559.85 0.31114
139.38 80759. undefined 388.01 1177.8 1.3040 705.00 0.0014184 388.01 1177.8 1.3040 2.3461 2.6926 2365.9 -0.0054187 559.39 0.31156 705.00 0.0014184 388.01 1177.8 1.3040 2.3461 2.6926 2365.9 -0.0054187 559.39 0.31156
140.38 80965. undefined 390.36 1182.2 1.3097 705.00 0.0014184 390.36 1182.2 1.3097 2.3502 2.6963 2366.7 -0.0054109 558.94 0.31199 705.00 0.0014184 390.36 1182.2 1.3097 2.3502 2.6963 2366.7 -0.0054109 558.94 0.31199
141.38 81172. undefined 392.71 1186.6 1.3153 705.00 0.0014184 392.71 1186.6 1.3153 2.3542 2.7001 2367.6 -0.0054032 558.49 0.31241 705.00 0.0014184 392.71 1186.6 1.3153 2.3542 2.7001 2367.6 -0.0054032 558.49 0.31241
142.38 81378. undefined 395.07 1190.9 1.3210 705.00 0.0014184 395.07 1190.9 1.3210 2.3583 2.7038 2368.4 -0.0053955 558.04 0.31283 705.00 0.0014184 395.07 1190.9 1.3210 2.3583 2.7038 2368.4 -0.0053955 558.04 0.31283
143.38 81584. undefined 397.43 1195.3 1.3267 705.00 0.0014184 397.43 1195.3 1.3267 2.3624 2.7075 2369.3 -0.0053878 557.59 0.31326 705.00 0.0014184 397.43 1195.3 1.3267 2.3624 2.7075 2369.3 -0.0053878 557.59 0.31326
144.38 81790. undefined 399.79 1199.7 1.3324 705.00 0.0014184 399.79 1199.7 1.3324 2.3665 2.7113 2370.2 -0.0053802 557.15 0.31368 705.00 0.0014184 399.79 1199.7 1.3324 2.3665 2.7113 2370.2 -0.0053802 557.15 0.31368
145.38 81996. undefined 402.16 1204.1 1.3380 705.00 0.0014184 402.16 1204.1 1.3380 2.3705 2.7150 2371.0 -0.0053726 556.71 0.31411 705.00 0.0014184 402.16 1204.1 1.3380 2.3705 2.7150 2371.0 -0.0053726 556.71 0.31411
146.38 82201. undefined 404.53 1208.4 1.3437 705.00 0.0014184 404.53 1208.4 1.3437 2.3746 2.7188 2371.9 -0.0053650 556.27 0.31453 705.00 0.0014184 404.53 1208.4 1.3437 2.3746 2.7188 2371.9 -0.0053650 556.27 0.31453
147.38 82407. undefined 406.91 1212.8 1.3493 705.00 0.0014184 406.91 1212.8 1.3493 2.3787 2.7225 2372.7 -0.0053574 555.84 0.31496 705.00 0.0014184 406.91 1212.8 1.3493 2.3787 2.7225 2372.7 -0.0053574 555.84 0.31496
148.38 82612. undefined 409.29 1217.2 1.3550 705.00 0.0014184 409.29 1217.2 1.3550 2.3827 2.7262 2373.6 -0.0053499 555.41 0.31538 705.00 0.0014184 409.29 1217.2 1.3550 2.3827 2.7262 2373.6 -0.0053499 555.41 0.31538
149.38 82816. undefined 411.67 1221.6 1.3606 705.00 0.0014184 411.67 1221.6 1.3606 2.3868 2.7299 2374.4 -0.0053424 554.99 0.31581 705.00 0.0014184 411.67 1221.6 1.3606 2.3868 2.7299 2374.4 -0.0053424 554.99 0.31581
150.38 83021. undefined 414.06 1226.0 1.3663 705.00 0.0014184 414.06 1226.0 1.3663 2.3908 2.7337 2375.3 -0.0053349 554.56 0.31624 705.00 0.0014184 414.06 1226.0 1.3663 2.3908 2.7337 2375.3 -0.0053349 554.56 0.31624
151.38 83225. undefined 416.46 1230.4 1.3719 705.00 0.0014184 416.46 1230.4 1.3719 2.3949 2.7374 2376.2 -0.0053274 554.14 0.31666 705.00 0.0014184 416.46 1230.4 1.3719 2.3949 2.7374 2376.2 -0.0053274 554.14 0.31666
152.38 83429. undefined 418.85 1234.8 1.3776 705.00 0.0014184 418.85 1234.8 1.3776 2.3989 2.7411 2377.0 -0.0053200 553.73 0.31709 705.00 0.0014184 418.85 1234.8 1.3776 2.3989 2.7411 2377.0 -0.0053200 553.73 0.31709
153.38 83633. undefined 421.25 1239.2 1.3832 705.00 0.0014184 421.25 1239.2 1.3832 2.4029 2.7448 2377.9 -0.0053126 553.31 0.31752 705.00 0.0014184 421.25 1239.2 1.3832 2.4029 2.7448 2377.9 -0.0053126 553.31 0.31752
154.38 83836. undefined 423.66 1243.6 1.3888 705.00 0.0014184 423.66 1243.6 1.3888 2.4070 2.7485 2378.7 -0.0053052 552.90 0.31795 705.00 0.0014184 423.66 1243.6 1.3888 2.4070 2.7485 2378.7 -0.0053052 552.90 0.31795
155.38 84040. undefined 426.07 1248.0 1.3945 705.00 0.0014184 426.07 1248.0 1.3945 2.4110 2.7523 2379.6 -0.0052978 552.49 0.31837 705.00 0.0014184 426.07 1248.0 1.3945 2.4110 2.7523 2379.6 -0.0052978 552.49 0.31837
156.38 84243. undefined 428.48 1252.4 1.4001 705.00 0.0014184 428.48 1252.4 1.4001 2.4150 2.7560 2380.4 -0.0052905 552.09 0.31880 705.00 0.0014184 428.48 1252.4 1.4001 2.4150 2.7560 2380.4 -0.0052905 552.09 0.31880
157.38 84446. undefined 430.90 1256.8 1.4057 705.00 0.0014184 430.90 1256.8 1.4057 2.4190 2.7597 2381.3 -0.0052831 551.69 0.31923 705.00 0.0014184 430.90 1256.8 1.4057 2.4190 2.7597 2381.3 -0.0052831 551.69 0.31923
158.38 84648. undefined 433.32 1261.2 1.4113 705.00 0.0014184 433.32 1261.2 1.4113 2.4230 2.7634 2382.1 -0.0052759 551.29 0.31966 705.00 0.0014184 433.32 1261.2 1.4113 2.4230 2.7634 2382.1 -0.0052759 551.29 0.31966
159.38 84851. undefined 435.74 1265.6 1.4169 705.00 0.0014184 435.74 1265.6 1.4169 2.4271 2.7671 2383.0 -0.0052686 550.89 0.32009 705.00 0.0014184 435.74 1265.6 1.4169 2.4271 2.7671 2383.0 -0.0052686 550.89 0.32009
160.38 85053. undefined 438.17 1270.0 1.4226 705.00 0.0014184 438.17 1270.0 1.4226 2.4311 2.7708 2383.8 -0.0052614 550.50 0.32052 705.00 0.0014184 438.17 1270.0 1.4226 2.4311 2.7708 2383.8 -0.0052614 550.50 0.32052
161.38 85255. undefined 440.61 1274.4 1.4282 705.00 0.0014184 440.61 1274.4 1.4282 2.4351 2.7745 2384.7 -0.0052541 550.11 0.32095 705.00 0.0014184 440.61 1274.4 1.4282 2.4351 2.7745 2384.7 -0.0052541 550.11 0.32095
162.38 85457. undefined 443.04 1278.8 1.4338 705.00 0.0014184 443.04 1278.8 1.4338 2.4391 2.7782 2385.5 -0.0052469 549.72 0.32138 705.00 0.0014184 443.04 1278.8 1.4338 2.4391 2.7782 2385.5 -0.0052469 549.72 0.32138
163.38 85658. undefined 445.48 1283.2 1.4394 705.00 0.0014184 445.48 1283.2 1.4394 2.4431 2.7819 2386.3 -0.0052398 549.33 0.32181 705.00 0.0014184 445.48 1283.2 1.4394 2.4431 2.7819 2386.3 -0.0052398 549.33 0.32181
164.38 85860. undefined 447.93 1287.6 1.4450 705.00 0.0014184 447.93 1287.6 1.4450 2.4471 2.7856 2387.2 -0.0052326 548.95 0.32224 705.00 0.0014184 447.93 1287.6 1.4450 2.4471 2.7856 2387.2 -0.0052326 548.95 0.32224
165.38 86061. undefined 450.38 1292.0 1.4505 705.00 0.0014184 450.38 1292.0 1.4505 2.4510 2.7892 2388.0 -0.0052255 548.57 0.32267 705.00 0.0014184 450.38 1292.0 1.4505 2.4510 2.7892 2388.0 -0.0052255 548.57 0.32267
166.38 86262. undefined 452.83 1296.5 1.4561 705.00 0.0014184 452.83 1296.5 1.4561 2.4550 2.7929 2388.9 -0.0052184 548.20 0.32310 705.00 0.0014184 452.83 1296.5 1.4561 2.4550 2.7929 2388.9 -0.0052184 548.20 0.32310
167.38 86462. undefined 455.29 1300.9 1.4617 705.00 0.0014184 455.29 1300.9 1.4617 2.4590 2.7966 2389.7 -0.0052114 547.82 0.32353 705.00 0.0014184 455.29 1300.9 1.4617 2.4590 2.7966 2389.7 -0.0052114 547.82 0.32353
168.38 86663. undefined 457.75 1305.3 1.4673 705.00 0.0014184 457.75 1305.3 1.4673 2.4630 2.8003 2390.6 -0.0052043 547.45 0.32396 705.00 0.0014184 457.75 1305.3 1.4673 2.4630 2.8003 2390.6 -0.0052043 547.45 0.32396
169.38 86863. undefined 460.21 1309.7 1.4729 705.00 0.0014184 460.21 1309.7 1.4729 2.4669 2.8039 2391.4 -0.0051973 547.08 0.32440 705.00 0.0014184 460.21 1309.7 1.4729 2.4669 2.8039 2391.4 -0.0051973 547.08 0.32440
170.38 87063. undefined 462.68 1314.1 1.4784 705.00 0.0014184 462.68 1314.1 1.4784 2.4709 2.8076 2392.2 -0.0051903 546.72 0.32483 705.00 0.0014184 462.68 1314.1 1.4784 2.4709 2.8076 2392.2 -0.0051903 546.72 0.32483
171.38 87263. undefined 465.16 1318.6 1.4840 705.00 0.0014184 465.16 1318.6 1.4840 2.4749 2.8113 2393.1 -0.0051833 546.35 0.32526 705.00 0.0014184 465.16 1318.6 1.4840 2.4749 2.8113 2393.1 -0.0051833 546.35 0.32526
172.38 87463. undefined 467.63 1323.0 1.4896 705.00 0.0014184 467.63 1323.0 1.4896 2.4788 2.8149 2393.9 -0.0051764 545.99 0.32569 705.00 0.0014184 467.63 1323.0 1.4896 2.4788 2.8149 2393.9 -0.0051764 545.99 0.32569
173.38 87662. undefined 470.11 1327.4 1.4951 705.00 0.0014184 470.11 1327.4 1.4951 2.4828 2.8186 2394.7 -0.0051695 545.63 0.32613 705.00 0.0014184 470.11 1327.4 1.4951 2.4828 2.8186 2394.7 -0.0051695 545.63 0.32613
174.38 87861. undefined 472.60 1331.9 1.5007 705.00 0.0014184 472.60 1331.9 1.5007 2.4867 2.8223 2395.6 -0.0051626 545.28 0.32656 705.00 0.0014184 472.60 1331.9 1.5007 2.4867 2.8223 2395.6 -0.0051626 545.28 0.32656
175.38 88060. undefined 475.09 1336.3 1.5063 705.00 0.0014184 475.09 1336.3 1.5063 2.4907 2.8259 2396.4 -0.0051557 544.92 0.32699 705.00 0.0014184 475.09 1336.3 1.5063 2.4907 2.8259 2396.4 -0.0051557 544.92 0.32699
176.38 88259. undefined 477.58 1340.7 1.5118 705.00 0.0014184 477.58 1340.7 1.5118 2.4946 2.8296 2397.2 -0.0051489 544.57 0.32743 705.00 0.0014184 477.58 1340.7 1.5118 2.4946 2.8296 2397.2 -0.0051489 544.57 0.32743
177.38 88458. undefined 480.08 1345.2 1.5174 705.00 0.0014184 480.08 1345.2 1.5174 2.4985 2.8332 2398.1 -0.0051420 544.22 0.32786 705.00 0.0014184 480.08 1345.2 1.5174 2.4985 2.8332 2398.1 -0.0051420 544.22 0.32786
178.38 88656. undefined 482.58 1349.6 1.5229 705.00 0.0014184 482.58 1349.6 1.5229 2.5025 2.8368 2398.9 -0.0051352 543.88 0.32830 705.00 0.0014184 482.58 1349.6 1.5229 2.5025 2.8368 2398.9 -0.0051352 543.88 0.32830
179.38 88854. undefined 485.08 1354.1 1.5284 705.00 0.0014184 485.08 1354.1 1.5284 2.5064 2.8405 2399.7 -0.0051284 543.53 0.32873 705.00 0.0014184 485.08 1354.1 1.5284 2.5064 2.8405 2399.7 -0.0051284 543.53 0.32873
180.38 89052. undefined 487.59 1358.5 1.5340 705.00 0.0014184 487.59 1358.5 1.5340 2.5103 2.8441 2400.6 -0.0051217 543.19 0.32917 705.00 0.0014184 487.59 1358.5 1.5340 2.5103 2.8441 2400.6 -0.0051217 543.19 0.32917
181.38 89250. undefined 490.10 1362.9 1.5395 705.00 0.0014184 490.10 1362.9 1.5395 2.5142 2.8477 2401.4 -0.0051150 542.85 0.32960 705.00 0.0014184 490.10 1362.9 1.5395 2.5142 2.8477 2401.4 -0.0051150 542.85 0.32960
182.38 89447. undefined 492.62 1367.4 1.5450 705.00 0.0014184 492.62 1367.4 1.5450 2.5181 2.8514 2402.2 -0.0051083 542.52 0.33004 705.00 0.0014184 492.62 1367.4 1.5450 2.5181 2.8514 2402.2 -0.0051083 542.52 0.33004
183.38 89645. undefined 495.14 1371.8 1.5506 705.00 0.0014184 495.14 1371.8 1.5506 2.5220 2.8550 2403.1 -0.0051016 542.18 0.33048 705.00 0.0014184 495.14 1371.8 1.5506 2.5220 2.8550 2403.1 -0.0051016 542.18 0.33048
184.38 89842. undefined 497.66 1376.3 1.5561 705.00 0.0014184 497.66 1376.3 1.5561 2.5259 2.8586 2403.9 -0.0050949 541.85 0.33091 705.00 0.0014184 497.66 1376.3 1.5561 2.5259 2.8586 2403.9 -0.0050949 541.85 0.33091
185.38 90039. undefined 500.19 1380.7 1.5616 705.00 0.0014184 500.19 1380.7 1.5616 2.5298 2.8622 2404.7 -0.0050883 541.52 0.33135 705.00 0.0014184 500.19 1380.7 1.5616 2.5298 2.8622 2404.7 -0.0050883 541.52 0.33135
186.38 90235. undefined 502.72 1385.2 1.5671 705.00 0.0014184 502.72 1385.2 1.5671 2.5337 2.8658 2405.6 -0.0050817 541.19 0.33179 705.00 0.0014184 502.72 1385.2 1.5671 2.5337 2.8658 2405.6 -0.0050817 541.19 0.33179
187.38 90432. undefined 505.26 1389.7 1.5726 705.00 0.0014184 505.26 1389.7 1.5726 2.5376 2.8695 2406.4 -0.0050751 540.87 0.33222 705.00 0.0014184 505.26 1389.7 1.5726 2.5376 2.8695 2406.4 -0.0050751 540.87 0.33222
188.38 90628. undefined 507.80 1394.1 1.5781 705.00 0.0014184 507.80 1394.1 1.5781 2.5415 2.8731 2407.2 -0.0050685 540.54 0.33266 705.00 0.0014184 507.80 1394.1 1.5781 2.5415 2.8731 2407.2 -0.0050685 540.54 0.33266
189.38 90824. undefined 510.34 1398.6 1.5836 705.00 0.0014184 510.34 1398.6 1.5836 2.5454 2.8767 2408.0 -0.0050620 540.22 0.33310 705.00 0.0014184 510.34 1398.6 1.5836 2.5454 2.8767 2408.0 -0.0050620 540.22 0.33310
190.38 91020. undefined 512.89 1403.0 1.5892 705.00 0.0014184 512.89 1403.0 1.5892 2.5493 2.8803 2408.9 -0.0050554 539.90 0.33354 705.00 0.0014184 512.89 1403.0 1.5892 2.5493 2.8803 2408.9 -0.0050554 539.90 0.33354
191.38 91216. undefined 515.44 1407.5 1.5946 705.00 0.0014184 515.44 1407.5 1.5946 2.5531 2.8839 2409.7 -0.0050489 539.59 0.33397 705.00 0.0014184 515.44 1407.5 1.5946 2.5531 2.8839 2409.7 -0.0050489 539.59 0.33397
192.38 91412. undefined 517.99 1412.0 1.6001 705.00 0.0014184 517.99 1412.0 1.6001 2.5570 2.8874 2410.5 -0.0050425 539.27 0.33441 705.00 0.0014184 517.99 1412.0 1.6001 2.5570 2.8874 2410.5 -0.0050425 539.27 0.33441
193.38 91607. undefined 520.55 1416.4 1.6056 705.00 0.0014184 520.55 1416.4 1.6056 2.5609 2.8910 2411.3 -0.0050360 538.96 0.33485 705.00 0.0014184 520.55 1416.4 1.6056 2.5609 2.8910 2411.3 -0.0050360 538.96 0.33485
194.38 91802. undefined 523.11 1420.9 1.6111 705.00 0.0014184 523.11 1420.9 1.6111 2.5647 2.8946 2412.1 -0.0050296 538.65 0.33529 705.00 0.0014184 523.11 1420.9 1.6111 2.5647 2.8946 2412.1 -0.0050296 538.65 0.33529
195.38 91997. undefined 525.68 1425.4 1.6166 705.00 0.0014184 525.68 1425.4 1.6166 2.5686 2.8982 2413.0 -0.0050232 538.34 0.33573 705.00 0.0014184 525.68 1425.4 1.6166 2.5686 2.8982 2413.0 -0.0050232 538.34 0.33573
196.38 92192. undefined 528.25 1429.9 1.6221 705.00 0.0014184 528.25 1429.9 1.6221 2.5724 2.9018 2413.8 -0.0050168 538.04 0.33617 705.00 0.0014184 528.25 1429.9 1.6221 2.5724 2.9018 2413.8 -0.0050168 538.04 0.33617
197.38 92386. undefined 530.83 1434.3 1.6276 705.00 0.0014184 530.83 1434.3 1.6276 2.5762 2.9053 2414.6 -0.0050104 537.73 0.33661 705.00 0.0014184 530.83 1434.3 1.6276 2.5762 2.9053 2414.6 -0.0050104 537.73 0.33661
198.38 92581. undefined 533.40 1438.8 1.6330 705.00 0.0014184 533.40 1438.8 1.6330 2.5801 2.9089 2415.4 -0.0050041 537.43 0.33705 705.00 0.0014184 533.40 1438.8 1.6330 2.5801 2.9089 2415.4 -0.0050041 537.43 0.33705
199.38 92775. undefined 535.99 1443.3 1.6385 705.00 0.0014184 535.99 1443.3 1.6385 2.5839 2.9125 2416.2 -0.0049978 537.13 0.33749 705.00 0.0014184 535.99 1443.3 1.6385 2.5839 2.9125 2416.2 -0.0049978 537.13 0.33749
200.38 92969. undefined 538.57 1447.8 1.6440 705.00 0.0014184 538.57 1447.8 1.6440 2.5877 2.9160 2417.1 -0.0049915 536.83 0.33793 705.00 0.0014184 538.57 1447.8 1.6440 2.5877 2.9160 2417.1 -0.0049915 536.83 0.33793
201.38 93162. undefined 541.16 1452.3 1.6494 705.00 0.0014184 541.16 1452.3 1.6494 2.5916 2.9196 2417.9 -0.0049852 536.54 0.33838 705.00 0.0014184 541.16 1452.3 1.6494 2.5916 2.9196 2417.9 -0.0049852 536.54 0.33838
202.38 93356. undefined 543.76 1456.8 1.6549 705.00 0.0014184 543.76 1456.8 1.6549 2.5954 2.9231 2418.7 -0.0049789 536.24 0.33882 705.00 0.0014184 543.76 1456.8 1.6549 2.5954 2.9231 2418.7 -0.0049789 536.24 0.33882
203.38 93549. undefined 546.35 1461.2 1.6604 705.00 0.0014184 546.35 1461.2 1.6604 2.5992 2.9267 2419.5 -0.0049727 535.95 0.33926 705.00 0.0014184 546.35 1461.2 1.6604 2.5992 2.9267 2419.5 -0.0049727 535.95 0.33926
204.38 93743. undefined 548.95 1465.7 1.6658 705.00 0.0014184 548.95 1465.7 1.6658 2.6030 2.9302 2420.3 -0.0049665 535.66 0.33970 705.00 0.0014184 548.95 1465.7 1.6658 2.6030 2.9302 2420.3 -0.0049665 535.66 0.33970
205.38 93936. undefined 551.56 1470.2 1.6713 705.00 0.0014184 551.56 1470.2 1.6713 2.6068 2.9338 2421.1 -0.0049603 535.37 0.34014 705.00 0.0014184 551.56 1470.2 1.6713 2.6068 2.9338 2421.1 -0.0049603 535.37 0.34014
206.38 94128. undefined 554.17 1474.7 1.6767 705.00 0.0014184 554.17 1474.7 1.6767 2.6106 2.9373 2421.9 -0.0049541 535.09 0.34059 705.00 0.0014184 554.17 1474.7 1.6767 2.6106 2.9373 2421.9 -0.0049541 535.09 0.34059
207.38 94321. undefined 556.78 1479.2 1.6821 705.00 0.0014184 556.78 1479.2 1.6821 2.6144 2.9408 2422.7 -0.0049480 534.80 0.34103 705.00 0.0014184 556.78 1479.2 1.6821 2.6144 2.9408 2422.7 -0.0049480 534.80 0.34103
208.38 94513. undefined 559.40 1483.7 1.6876 705.00 0.0014184 559.40 1483.7 1.6876 2.6182 2.9444 2423.6 -0.0049419 534.52 0.34147 705.00 0.0014184 559.40 1483.7 1.6876 2.6182 2.9444 2423.6 -0.0049419 534.52 0.34147
209.38 94706. undefined 562.02 1488.2 1.6930 705.00 0.0014184 562.02 1488.2 1.6930 2.6219 2.9479 2424.4 -0.0049358 534.24 0.34192 705.00 0.0014184 562.02 1488.2 1.6930 2.6219 2.9479 2424.4 -0.0049358 534.24 0.34192
210.38 94898. undefined 564.64 1492.7 1.6984 705.00 0.0014184 564.64 1492.7 1.6984 2.6257 2.9514 2425.2 -0.0049297 533.96 0.34236 705.00 0.0014184 564.64 1492.7 1.6984 2.6257 2.9514 2425.2 -0.0049297 533.96 0.34236
211.38 95090. undefined 567.27 1497.2 1.7039 705.00 0.0014184 567.27 1497.2 1.7039 2.6295 2.9549 2426.0 -0.0049236 533.68 0.34281 705.00 0.0014184 567.27 1497.2 1.7039 2.6295 2.9549 2426.0 -0.0049236 533.68 0.34281
212.38 95281. undefined 569.90 1501.7 1.7093 705.00 0.0014184 569.90 1501.7 1.7093 2.6333 2.9584 2426.8 -0.0049176 533.41 0.34325 705.00 0.0014184 569.90 1501.7 1.7093 2.6333 2.9584 2426.8 -0.0049176 533.41 0.34325
213.38 95473. undefined 572.53 1506.2 1.7147 705.00 0.0014184 572.53 1506.2 1.7147 2.6370 2.9620 2427.6 -0.0049116 533.13 0.34369 705.00 0.0014184 572.53 1506.2 1.7147 2.6370 2.9620 2427.6 -0.0049116 533.13 0.34369
214.38 95664. undefined 575.17 1510.7 1.7201 705.00 0.0014184 575.17 1510.7 1.7201 2.6408 2.9655 2428.4 -0.0049056 532.86 0.34414 705.00 0.0014184 575.17 1510.7 1.7201 2.6408 2.9655 2428.4 -0.0049056 532.86 0.34414
215.38 95855. undefined 577.82 1515.3 1.7256 705.00 0.0014184 577.82 1515.3 1.7256 2.6445 2.9690 2429.2 -0.0048996 532.59 0.34459 705.00 0.0014184 577.82 1515.3 1.7256 2.6445 2.9690 2429.2 -0.0048996 532.59 0.34459
216.38 96046. undefined 580.46 1519.8 1.7310 705.00 0.0014184 580.46 1519.8 1.7310 2.6483 2.9725 2430.0 -0.0048937 532.32 0.34503 705.00 0.0014184 580.46 1519.8 1.7310 2.6483 2.9725 2430.0 -0.0048937 532.32 0.34503
217.38 96237. undefined 583.11 1524.3 1.7364 705.00 0.0014184 583.11 1524.3 1.7364 2.6520 2.9759 2430.8 -0.0048877 532.06 0.34548 705.00 0.0014184 583.11 1524.3 1.7364 2.6520 2.9759 2430.8 -0.0048877 532.06 0.34548
218.38 96428. undefined 585.77 1528.8 1.7418 705.00 0.0014184 585.77 1528.8 1.7418 2.6557 2.9794 2431.6 -0.0048818 531.79 0.34592 705.00 0.0014184 585.77 1528.8 1.7418 2.6557 2.9794 2431.6 -0.0048818 531.79 0.34592
219.38 96618. undefined 588.42 1533.3 1.7472 705.00 0.0014184 588.42 1533.3 1.7472 2.6595 2.9829 2432.4 -0.0048759 531.53 0.34637 705.00 0.0014184 588.42 1533.3 1.7472 2.6595 2.9829 2432.4 -0.0048759 531.53 0.34637
220.38 96808. undefined 591.09 1537.8 1.7526 705.00 0.0014184 591.09 1537.8 1.7526 2.6632 2.9864 2433.2 -0.0048701 531.27 0.34682 705.00 0.0014184 591.09 1537.8 1.7526 2.6632 2.9864 2433.2 -0.0048701 531.27 0.34682
221.38 96998. undefined 593.75 1542.4 1.7580 705.00 0.0014184 593.75 1542.4 1.7580 2.6669 2.9899 2434.0 -0.0048642 531.01 0.34726 705.00 0.0014184 593.75 1542.4 1.7580 2.6669 2.9899 2434.0 -0.0048642 531.01 0.34726
222.38 97188. undefined 596.42 1546.9 1.7634 705.00 0.0014184 596.42 1546.9 1.7634 2.6706 2.9933 2434.8 -0.0048584 530.75 0.34771 705.00 0.0014184 596.42 1546.9 1.7634 2.6706 2.9933 2434.8 -0.0048584 530.75 0.34771
223.38 97378. undefined 599.09 1551.4 1.7688 705.00 0.0014184 599.09 1551.4 1.7688 2.6744 2.9968 2435.6 -0.0048526 530.49 0.34816 705.00 0.0014184 599.09 1551.4 1.7688 2.6744 2.9968 2435.6 -0.0048526 530.49 0.34816
224.38 97567. undefined 601.77 1556.0 1.7741 705.00 0.0014184 601.77 1556.0 1.7741 2.6781 3.0003 2436.4 -0.0048468 530.24 0.34861 705.00 0.0014184 601.77 1556.0 1.7741 2.6781 3.0003 2436.4 -0.0048468 530.24 0.34861
225.38 97757. undefined 604.45 1560.5 1.7795 705.00 0.0014184 604.45 1560.5 1.7795 2.6818 3.0037 2437.2 -0.0048410 529.99 0.34906 705.00 0.0014184 604.45 1560.5 1.7795 2.6818 3.0037 2437.2 -0.0048410 529.99 0.34906
226.38 97946. undefined 607.13 1565.0 1.7849 705.00 0.0014184 607.13 1565.0 1.7849 2.6855 3.0072 2438.0 -0.0048353 529.74 0.34950 705.00 0.0014184 607.13 1565.0 1.7849 2.6855 3.0072 2438.0 -0.0048353 529.74 0.34950
227.38 98135. undefined 609.82 1569.6 1.7903 705.00 0.0014184 609.82 1569.6 1.7903 2.6891 3.0106 2438.8 -0.0048296 529.49 0.34995 705.00 0.0014184 609.82 1569.6 1.7903 2.6891 3.0106 2438.8 -0.0048296 529.49 0.34995
228.38 98324. undefined 612.51 1574.1 1.7956 705.00 0.0014184 612.51 1574.1 1.7956 2.6928 3.0141 2439.6 -0.0048239 529.24 0.35040 705.00 0.0014184 612.51 1574.1 1.7956 2.6928 3.0141 2439.6 -0.0048239 529.24 0.35040
229.38 98512. undefined 615.20 1578.6 1.8010 705.00 0.0014184 615.20 1578.6 1.8010 2.6965 3.0175 2440.4 -0.0048182 528.99 0.35085 705.00 0.0014184 615.20 1578.6 1.8010 2.6965 3.0175 2440.4 -0.0048182 528.99 0.35085
230.38 98701. undefined 617.90 1583.2 1.8064 705.00 0.0014184 617.90 1583.2 1.8064 2.7002 3.0210 2441.2 -0.0048125 528.75 0.35130 705.00 0.0014184 617.90 1583.2 1.8064 2.7002 3.0210 2441.2 -0.0048125 528.75 0.35130
231.38 98889. undefined 620.60 1587.7 1.8117 705.00 0.0014184 620.60 1587.7 1.8117 2.7039 3.0244 2442.0 -0.0048068 528.50 0.35175 705.00 0.0014184 620.60 1587.7 1.8117 2.7039 3.0244 2442.0 -0.0048068 528.50 0.35175
232.38 99077. undefined 623.31 1592.3 1.8171 705.00 0.0014184 623.31 1592.3 1.8171 2.7075 3.0278 2442.8 -0.0048012 528.26 0.35220 705.00 0.0014184 623.31 1592.3 1.8171 2.7075 3.0278 2442.8 -0.0048012 528.26 0.35220
233.38 99265. undefined 626.02 1596.8 1.8224 705.00 0.0014184 626.02 1596.8 1.8224 2.7112 3.0312 2443.6 -0.0047956 528.02 0.35265 705.00 0.0014184 626.02 1596.8 1.8224 2.7112 3.0312 2443.6 -0.0047956 528.02 0.35265
234.38 99453. undefined 628.73 1601.4 1.8278 705.00 0.0014184 628.73 1601.4 1.8278 2.7148 3.0347 2444.4 -0.0047900 527.78 0.35310 705.00 0.0014184 628.73 1601.4 1.8278 2.7148 3.0347 2444.4 -0.0047900 527.78 0.35310
235.38 99640. undefined 631.45 1605.9 1.8331 705.00 0.0014184 631.45 1605.9 1.8331 2.7185 3.0381 2445.2 -0.0047845 527.54 0.35356 705.00 0.0014184 631.45 1605.9 1.8331 2.7185 3.0381 2445.2 -0.0047845 527.54 0.35356
236.38 99828. undefined 634.17 1610.5 1.8385 705.00 0.0014184 634.17 1610.5 1.8385 2.7221 3.0415 2446.0 -0.0047789 527.31 0.35401 705.00 0.0014184 634.17 1610.5 1.8385 2.7221 3.0415 2446.0 -0.0047789 527.31 0.35401
237.38 1.0001e+05 undefined 636.89 1615.0 1.8438 705.00 0.0014184 636.89 1615.0 1.8438 2.7258 3.0449 2446.8 -0.0047734 527.07 0.35446 705.00 0.0014184 636.89 1615.0 1.8438 2.7258 3.0449 2446.8 -0.0047734 527.07 0.35446
238.38 1.0020e+05 undefined 639.62 1619.6 1.8492 705.00 0.0014184 639.62 1619.6 1.8492 2.7294 3.0483 2447.6 -0.0047679 526.84 0.35491 705.00 0.0014184 639.62 1619.6 1.8492 2.7294 3.0483 2447.6 -0.0047679 526.84 0.35491
239.38 1.0039e+05 undefined 642.35 1624.1 1.8545 705.00 0.0014184 642.35 1624.1 1.8545 2.7330 3.0517 2448.4 -0.0047624 526.61 0.35536 705.00 0.0014184 642.35 1624.1 1.8545 2.7330 3.0517 2448.4 -0.0047624 526.61 0.35536
240.38 1.0058e+05 undefined 645.09 1628.7 1.8598 705.00 0.0014184 645.09 1628.7 1.8598 2.7367 3.0551 2449.2 -0.0047569 526.38 0.35582 705.00 0.0014184 645.09 1628.7 1.8598 2.7367 3.0551 2449.2 -0.0047569 526.38 0.35582
241.38 1.0076e+05 undefined 647.83 1633.3 1.8652 705.00 0.0014184 647.83 1633.3 1.8652 2.7403 3.0585 2449.9 -0.0047514 526.15 0.35627 705.00 0.0014184 647.83 1633.3 1.8652 2.7403 3.0585 2449.9 -0.0047514 526.15 0.35627
242.38 1.0095e+05 undefined 650.57 1637.8 1.8705 705.00 0.0014184 650.57 1637.8 1.8705 2.7439 3.0619 2450.7 -0.0047460 525.92 0.35672 705.00 0.0014184 650.57 1637.8 1.8705 2.7439 3.0619 2450.7 -0.0047460 525.92 0.35672
243.38 1.0113e+05 undefined 653.31 1642.4 1.8758 705.00 0.0014184 653.31 1642.4 1.8758 2.7475 3.0652 2451.5 -0.0047406 525.70 0.35718 705.00 0.0014184 653.31 1642.4 1.8758 2.7475 3.0652 2451.5 -0.0047406 525.70 0.35718
244.38 1.0132e+05 undefined 656.06 1647.0 1.8811 705.00 0.0014184 656.06 1647.0 1.8811 2.7511 3.0686 2452.3 -0.0047352 525.47 0.35763 705.00 0.0014184 656.06 1647.0 1.8811 2.7511 3.0686 2452.3 -0.0047352 525.47 0.35763
245.38 1.0151e+05 undefined 658.82 1651.5 1.8864 705.00 0.0014184 658.82 1651.5 1.8864 2.7547 3.0720 2453.1 -0.0047298 525.25 0.35808 705.00 0.0014184 658.82 1651.5 1.8864 2.7547 3.0720 2453.1 -0.0047298 525.25 0.35808
246.38 1.0169e+05 undefined 661.57 1656.1 1.8917 705.00 0.0014184 661.57 1656.1 1.8917 2.7583 3.0754 2453.9 -0.0047244 525.03 0.35854 705.00 0.0014184 661.57 1656.1 1.8917 2.7583 3.0754 2453.9 -0.0047244 525.03 0.35854
247.38 1.0188e+05 undefined 664.33 1660.7 1.8971 705.00 0.0014184 664.33 1660.7 1.8971 2.7619 3.0787 2454.7 -0.0047191 524.81 0.35899 705.00 0.0014184 664.33 1660.7 1.8971 2.7619 3.0787 2454.7 -0.0047191 524.81 0.35899
248.38 1.0206e+05 undefined 667.10 1665.3 1.9024 705.00 0.0014184 667.10 1665.3 1.9024 2.7655 3.0821 2455.5 -0.0047138 524.59 0.35945 705.00 0.0014184 667.10 1665.3 1.9024 2.7655 3.0821 2455.5 -0.0047138 524.59 0.35945
249.38 1.0225e+05 undefined 669.86 1669.8 1.9077 705.00 0.0014184 669.86 1669.8 1.9077 2.7691 3.0854 2456.2 -0.0047085 524.37 0.35990 705.00 0.0014184 669.86 1669.8 1.9077 2.7691 3.0854 2456.2 -0.0047085 524.37 0.35990
250.38 1.0243e+05 undefined 672.63 1674.4 1.9130 705.00 0.0014184 672.63 1674.4 1.9130 2.7726 3.0888 2457.0 -0.0047032 524.15 0.36036 705.00 0.0014184 672.63 1674.4 1.9130 2.7726 3.0888 2457.0 -0.0047032 524.15 0.36036
251.38 1.0262e+05 undefined 675.41 1679.0 1.9183 705.00 0.0014184 675.41 1679.0 1.9183 2.7762 3.0921 2457.8 -0.0046979 523.94 0.36082 705.00 0.0014184 675.41 1679.0 1.9183 2.7762 3.0921 2457.8 -0.0046979 523.94 0.36082
252.38 1.0280e+05 undefined 678.19 1683.6 1.9235 705.00 0.0014184 678.19 1683.6 1.9235 2.7798 3.0955 2458.6 -0.0046926 523.73 0.36127 705.00 0.0014184 678.19 1683.6 1.9235 2.7798 3.0955 2458.6 -0.0046926 523.73 0.36127
253.38 1.0299e+05 undefined 680.97 1688.2 1.9288 705.00 0.0014184 680.97 1688.2 1.9288 2.7833 3.0988 2459.4 -0.0046874 523.51 0.36173 705.00 0.0014184 680.97 1688.2 1.9288 2.7833 3.0988 2459.4 -0.0046874 523.51 0.36173
254.38 1.0317e+05 undefined 683.75 1692.8 1.9341 705.00 0.0014184 683.75 1692.8 1.9341 2.7869 3.1022 2460.1 -0.0046822 523.30 0.36219 705.00 0.0014184 683.75 1692.8 1.9341 2.7869 3.1022 2460.1 -0.0046822 523.30 0.36219
255.38 1.0336e+05 undefined 686.54 1697.3 1.9394 705.00 0.0014184 686.54 1697.3 1.9394 2.7904 3.1055 2460.9 -0.0046770 523.09 0.36264 705.00 0.0014184 686.54 1697.3 1.9394 2.7904 3.1055 2460.9 -0.0046770 523.09 0.36264
256.38 1.0354e+05 undefined 689.33 1701.9 1.9447 705.00 0.0014184 689.33 1701.9 1.9447 2.7940 3.1088 2461.7 -0.0046718 522.88 0.36310 705.00 0.0014184 689.33 1701.9 1.9447 2.7940 3.1088 2461.7 -0.0046718 522.88 0.36310
257.38 1.0372e+05 undefined 692.13 1706.5 1.9500 705.00 0.0014184 692.13 1706.5 1.9500 2.7975 3.1121 2462.5 -0.0046666 522.68 0.36356 705.00 0.0014184 692.13 1706.5 1.9500 2.7975 3.1121 2462.5 -0.0046666 522.68 0.36356
258.38 1.0391e+05 undefined 694.93 1711.1 1.9552 705.00 0.0014184 694.93 1711.1 1.9552 2.8011 3.1154 2463.3 -0.0046615 522.47 0.36402 705.00 0.0014184 694.93 1711.1 1.9552 2.8011 3.1154 2463.3 -0.0046615 522.47 0.36402
259.38 1.0409e+05 undefined 697.73 1715.7 1.9605 705.00 0.0014184 697.73 1715.7 1.9605 2.8046 3.1188 2464.0 -0.0046564 522.27 0.36447 705.00 0.0014184 697.73 1715.7 1.9605 2.8046 3.1188 2464.0 -0.0046564 522.27 0.36447
260.38 1.0428e+05 undefined 700.54 1720.3 1.9658 705.00 0.0014184 700.54 1720.3 1.9658 2.8081 3.1221 2464.8 -0.0046513 522.06 0.36493 705.00 0.0014184 700.54 1720.3 1.9658 2.8081 3.1221 2464.8 -0.0046513 522.06 0.36493
261.38 1.0446e+05 undefined 703.35 1724.9 1.9710 705.00 0.0014184 703.35 1724.9 1.9710 2.8116 3.1254 2465.6 -0.0046462 521.86 0.36539 705.00 0.0014184 703.35 1724.9 1.9710 2.8116 3.1254 2465.6 -0.0046462 521.86 0.36539
262.38 1.0464e+05 undefined 706.16 1729.5 1.9763 705.00 0.0014184 706.16 1729.5 1.9763 2.8151 3.1287 2466.4 -0.0046411 521.66 0.36585 705.00 0.0014184 706.16 1729.5 1.9763 2.8151 3.1287 2466.4 -0.0046411 521.66 0.36585
263.38 1.0482e+05 undefined 708.98 1734.1 1.9815 705.00 0.0014184 708.98 1734.1 1.9815 2.8187 3.1320 2467.1 -0.0046360 521.46 0.36631 705.00 0.0014184 708.98 1734.1 1.9815 2.8187 3.1320 2467.1 -0.0046360 521.46 0.36631
264.38 1.0501e+05 undefined 711.80 1738.7 1.9868 705.00 0.0014184 711.80 1738.7 1.9868 2.8222 3.1353 2467.9 -0.0046310 521.26 0.36677 705.00 0.0014184 711.80 1738.7 1.9868 2.8222 3.1353 2467.9 -0.0046310 521.26 0.36677
265.38 1.0519e+05 undefined 714.62 1743.4 1.9920 705.00 0.0014184 714.62 1743.4 1.9920 2.8257 3.1385 2468.7 -0.0046260 521.06 0.36723 705.00 0.0014184 714.62 1743.4 1.9920 2.8257 3.1385 2468.7 -0.0046260 521.06 0.36723
266.38 1.0537e+05 undefined 717.45 1748.0 1.9973 705.00 0.0014184 717.45 1748.0 1.9973 2.8292 3.1418 2469.5 -0.0046209 520.87 0.36769 705.00 0.0014184 717.45 1748.0 1.9973 2.8292 3.1418 2469.5 -0.0046209 520.87 0.36769
267.38 1.0555e+05 undefined 720.28 1752.6 2.0025 705.00 0.0014184 720.28 1752.6 2.0025 2.8326 3.1451 2470.2 -0.0046160 520.67 0.36815 705.00 0.0014184 720.28 1752.6 2.0025 2.8326 3.1451 2470.2 -0.0046160 520.67 0.36815
268.38 1.0574e+05 undefined 723.12 1757.2 2.0078 705.00 0.0014184 723.12 1757.2 2.0078 2.8361 3.1484 2471.0 -0.0046110 520.48 0.36861 705.00 0.0014184 723.12 1757.2 2.0078 2.8361 3.1484 2471.0 -0.0046110 520.48 0.36861
269.38 1.0592e+05 undefined 725.95 1761.8 2.0130 705.00 0.0014184 725.95 1761.8 2.0130 2.8396 3.1516 2471.8 -0.0046060 520.29 0.36907 705.00 0.0014184 725.95 1761.8 2.0130 2.8396 3.1516 2471.8 -0.0046060 520.29 0.36907
270.38 1.0610e+05 undefined 728.79 1766.4 2.0182 705.00 0.0014184 728.79 1766.4 2.0182 2.8431 3.1549 2472.5 -0.0046011 520.09 0.36953 705.00 0.0014184 728.79 1766.4 2.0182 2.8431 3.1549 2472.5 -0.0046011 520.09 0.36953
271.38 1.0628e+05 undefined 731.64 1771.1 2.0235 705.00 0.0014184 731.64 1771.1 2.0235 2.8465 3.1582 2473.3 -0.0045962 519.90 0.37000 705.00 0.0014184 731.64 1771.1 2.0235 2.8465 3.1582 2473.3 -0.0045962 519.90 0.37000
272.38 1.0646e+05 undefined 734.49 1775.7 2.0287 705.00 0.0014184 734.49 1775.7 2.0287 2.8500 3.1614 2474.1 -0.0045912 519.71 0.37046 705.00 0.0014184 734.49 1775.7 2.0287 2.8500 3.1614 2474.1 -0.0045912 519.71 0.37046
273.38 1.0665e+05 undefined 737.34 1780.3 2.0339 705.00 0.0014184 737.34 1780.3 2.0339 2.8535 3.1647 2474.8 -0.0045864 519.53 0.37092 705.00 0.0014184 737.34 1780.3 2.0339 2.8535 3.1647 2474.8 -0.0045864 519.53 0.37092
274.38 1.0683e+05 undefined 740.19 1784.9 2.0391 705.00 0.0014184 740.19 1784.9 2.0391 2.8569 3.1679 2475.6 -0.0045815 519.34 0.37138 705.00 0.0014184 740.19 1784.9 2.0391 2.8569 3.1679 2475.6 -0.0045815 519.34 0.37138
275.38 1.0701e+05 undefined 743.05 1789.6 2.0443 705.00 0.0014184 743.05 1789.6 2.0443 2.8604 3.1712 2476.4 -0.0045766 519.15 0.37185 705.00 0.0014184 743.05 1789.6 2.0443 2.8604 3.1712 2476.4 -0.0045766 519.15 0.37185
276.38 1.0719e+05 undefined 745.92 1794.2 2.0496 705.00 0.0014184 745.92 1794.2 2.0496 2.8638 3.1744 2477.1 -0.0045718 518.97 0.37231 705.00 0.0014184 745.92 1794.2 2.0496 2.8638 3.1744 2477.1 -0.0045718 518.97 0.37231
277.38 1.0737e+05 undefined 748.78 1798.8 2.0548 705.00 0.0014184 748.78 1798.8 2.0548 2.8673 3.1776 2477.9 -0.0045669 518.78 0.37277 705.00 0.0014184 748.78 1798.8 2.0548 2.8673 3.1776 2477.9 -0.0045669 518.78 0.37277
278.38 1.0755e+05 undefined 751.65 1803.5 2.0600 705.00 0.0014184 751.65 1803.5 2.0600 2.8707 3.1809 2478.7 -0.0045621 518.60 0.37324 705.00 0.0014184 751.65 1803.5 2.0600 2.8707 3.1809 2478.7 -0.0045621 518.60 0.37324
279.38 1.0773e+05 undefined 754.52 1808.1 2.0652 705.00 0.0014184 754.52 1808.1 2.0652 2.8741 3.1841 2479.4 -0.0045573 518.42 0.37370 705.00 0.0014184 754.52 1808.1 2.0652 2.8741 3.1841 2479.4 -0.0045573 518.42 0.37370
280.38 1.0791e+05 undefined 757.40 1812.7 2.0704 705.00 0.0014184 757.40 1812.7 2.0704 2.8775 3.1873 2480.2 -0.0045526 518.24 0.37417 705.00 0.0014184 757.40 1812.7 2.0704 2.8775 3.1873 2480.2 -0.0045526 518.24 0.37417
281.38 1.0809e+05 undefined 760.28 1817.4 2.0756 705.00 0.0014184 760.28 1817.4 2.0756 2.8810 3.1905 2481.0 -0.0045478 518.06 0.37463 705.00 0.0014184 760.28 1817.4 2.0756 2.8810 3.1905 2481.0 -0.0045478 518.06 0.37463
282.38 1.0827e+05 undefined 763.16 1822.0 2.0808 705.00 0.0014184 763.16 1822.0 2.0808 2.8844 3.1937 2481.7 -0.0045430 517.88 0.37500 705.00 0.0014184 763.16 1822.0 2.0808 2.8844 3.1937 2481.7 -0.0045430 517.88 0.37500
283.38 1.0845e+05 undefined 766.05 1826.7 2.0860 705.00 0.0014184 766.05 1826.7 2.0860 2.8878 3.1970 2482.5 -0.0045383 517.70 0.37547 705.00 0.0014184 766.05 1826.7 2.0860 2.8878 3.1970 2482.5 -0.0045383 517.70 0.37547
284.38 1.0863e+05 undefined 768.94 1831.3 2.0911 705.00 0.0014184 768.94 1831.3 2.0911 2.8912 3.2002 2483.3 -0.0045336 517.53 0.37593 705.00 0.0014184 768.94 1831.3 2.0911 2.8912 3.2002 2483.3 -0.0045336 517.53 0.37593
285.38 1.0881e+05 undefined 771.83 1836.0 2.0963 705.00 0.0014184 771.83 1836.0 2.0963 2.8946 3.2034 2484.0 -0.0045289 517.35 0.37640 705.00 0.0014184 771.83 1836.0 2.0963 2.8946 3.2034 2484.0 -0.0045289 517.35 0.37640
286.38 1.0899e+05 undefined 774.72 1840.6 2.1015 705.00 0.0014184 774.72 1840.6 2.1015 2.8980 3.2066 2484.8 -0.0045242 517.18 0.37686 705.00 0.0014184 774.72 1840.6 2.1015 2.8980 3.2066 2484.8 -0.0045242 517.18 0.37686
287.38 1.0917e+05 undefined 777.62 1845.3 2.1067 705.00 0.0014184 777.62 1845.3 2.1067 2.9014 3.2097 2485.5 -0.0045195 517.01 0.37733 705.00 0.0014184 777.62 1845.3 2.1067 2.9014 3.2097 2485.5 -0.0045195 517.01 0.37733
288.38 1.0935e+05 undefined 780.53 1849.9 2.1119 705.00 0.0014184 780.53 1849.9 2.1119 2.9048 3.2129 2486.3 -0.0045149 516.83 0.37780 705.00 0.0014184 780.53 1849.9 2.1119 2.9048 3.2129 2486.3 -0.0045149 516.83 0.37780
289.38 1.0953e+05 undefined 783.43 1854.6 2.1170 705.00 0.0014184 783.43 1854.6 2.1170 2.9082 3.2161 2487.0 -0.0045102 516.66 0.37826 705.00 0.0014184 783.43 1854.6 2.1170 2.9082 3.2161 2487.0 -0.0045102 516.66 0.37826
290.38 1.0971e+05 undefined 786.34 1859.2 2.1222 705.00 0.0014184 786.34 1859.2 2.1222 2.9115 3.2193 2487.8 -0.0045056 516.49 0.37873 705.00 0.0014184 786.34 1859.2 2.1222 2.9115 3.2193 2487.8 -0.0045056 516.49 0.37873
291.38 1.0988e+05 undefined 789.26 1863.9 2.1274 705.00 0.0014184 789.26 1863.9 2.1274 2.9149 3.2225 2488.6 -0.0045010 516.32 0.37920 705.00 0.0014184 789.26 1863.9 2.1274 2.9149 3.2225 2488.6 -0.0045010 516.32 0.37920
292.38 1.1006e+05 undefined 792.17 1868.6 2.1325 705.00 0.0014184 792.17 1868.6 2.1325 2.9183 3.2256 2489.3 -0.0044964 516.15 0.37967 705.00 0.0014184 792.17 1868.6 2.1325 2.9183 3.2256 2489.3 -0.0044964 516.15 0.37967
293.38 1.1024e+05 undefined 795.09 1873.2 2.1377 705.00 0.0014184 795.09 1873.2 2.1377 2.9216 3.2288 2490.1 -0.0044918 515.99 0.38013 705.00 0.0014184 795.09 1873.2 2.1377 2.9216 3.2288 2490.1 -0.0044918 515.99 0.38013
294.38 1.1042e+05 undefined 798.02 1877.9 2.1428 705.00 0.0014184 798.02 1877.9 2.1428 2.9250 3.2320 2490.8 -0.0044873 515.82 0.38060 705.00 0.0014184 798.02 1877.9 2.1428 2.9250 3.2320 2490.8 -0.0044873 515.82 0.38060
295.38 1.1060e+05 undefined 800.94 1882.6 2.1480 705.00 0.0014184 800.94 1882.6 2.1480 2.9283 3.2351 2491.6 -0.0044827 515.65 0.38107 705.00 0.0014184 800.94 1882.6 2.1480 2.9283 3.2351 2491.6 -0.0044827 515.65 0.38107
296.38 1.1078e+05 undefined 803.87 1887.2 2.1531 705.00 0.0014184 803.87 1887.2 2.1531 2.9317 3.2383 2492.3 -0.0044782 515.49 0.38154 705.00 0.0014184 803.87 1887.2 2.1531 2.9317 3.2383 2492.3 -0.0044782 515.49 0.38154
297.38 1.1095e+05 undefined 806.81 1891.9 2.1583 705.00 0.0014184 806.81 1891.9 2.1583 2.9350 3.2414 2493.1 -0.0044737 515.33 0.38201 705.00 0.0014184 806.81 1891.9 2.1583 2.9350 3.2414 2493.1 -0.0044737 515.33 0.38201
298.38 1.1113e+05 undefined 809.74 1896.6 2.1634 705.00 0.0014184 809.74 1896.6 2.1634 2.9384 3.2446 2493.8 -0.0044692 515.16 0.38248 705.00 0.0014184 809.74 1896.6 2.1634 2.9384 3.2446 2493.8 -0.0044692 515.16 0.38248
299.38 1.1131e+05 undefined 812.68 1901.3 2.1686 705.00 0.0014184 812.68 1901.3 2.1686 2.9417 3.2477 2494.6 -0.0044647 515.00 0.38295 705.00 0.0014184 812.68 1901.3 2.1686 2.9417 3.2477 2494.6 -0.0044647 515.00 0.38295
300.38 1.1149e+05 undefined 815.63 1905.9 2.1737 705.00 0.0014184 815.63 1905.9 2.1737 2.9450 3.2509 2495.3 -0.0044602 514.84 0.38342 705.00 0.0014184 815.63 1905.9 2.1737 2.9450 3.2509 2495.3 -0.0044602 514.84 0.38342